SpectraSuite Data File
++++++++++++++++++++++++++++++++++++
Date: Fri Oct 02 19:36:39 EDT 2015
User: lab3
Dark Spectrum Present: No
Reference Spectrum Present: No
Number of Sampled Component Spectra: 1
Spectrometers: USB2E7196
Integration Time (usec): 46000 (USB2E7196)
Spectra Averaged: 4500 (USB2E7196)
Boxcar Smoothing: 10 (USB2E7196)
Correct for Electrical Dark: No (USB2E7196)
Strobe/Lamp Enabled: No (USB2E7196)
Correct for Detector Non-linearity: No (USB2E7196)
Correct for Stray Light: No (USB2E7196)
Number of Pixels in Processed Spectrum: 2048
>>>>>Begin Processed Spectral Data<<<<<
339.09	0.00
339.48	215.41
339.86	216.80
340.24	218.19
340.63	219.60
341.01	222.92
341.39	222.33
341.78	223.73
342.16	224.87
342.54	225.33
342.93	213.72
343.31	224.52
343.69	225.05
344.07	225.51
344.46	225.95
344.84	226.33
345.22	226.55
345.60	226.81
345.99	226.99
346.37	227.13
346.75	227.24
347.13	227.32
347.52	227.39
347.90	227.48
348.28	227.51
348.66	227.57
349.05	227.57
349.43	227.62
349.81	227.68
350.19	227.74
350.57	227.80
350.96	227.89
351.34	227.98
351.72	228.07
352.10	228.19
352.48	228.25
352.87	228.31
353.25	228.37
353.63	228.43
354.01	228.50
354.39	228.58
354.77	228.66
355.15	228.77
355.54	228.82
355.92	228.84
356.30	228.92
356.68	229.06
357.06	229.14
357.44	229.19
357.82	229.25
358.20	229.37
358.58	229.42
358.97	229.48
359.35	229.57
359.73	229.65
360.11	229.70
360.49	229.76
360.87	229.81
361.25	229.87
361.63	229.95
362.01	230.00
362.39	230.03
362.77	230.08
363.15	230.10
363.53	230.14
363.91	230.17
364.29	230.20
364.67	230.10
365.05	230.12
365.43	230.16
365.81	230.19
366.19	230.20
366.57	230.27
366.95	230.26
367.33	230.24
367.71	230.23
368.09	230.25
368.47	230.25
368.85	230.24
369.23	230.25
369.61	230.19
369.99	230.21
370.37	230.21
370.75	230.28
371.13	230.25
371.51	230.21
371.89	230.19
372.27	230.17
372.65	230.15
373.03	230.11
373.41	230.06
373.78	230.01
374.16	229.92
374.54	229.83
374.92	229.78
375.30	229.74
375.68	229.67
376.06	229.62
376.44	229.56
376.82	229.53
377.19	229.48
377.57	229.43
377.95	229.34
378.33	229.28
378.71	229.12
379.09	229.07
379.47	229.04
379.84	228.98
380.22	228.92
380.60	228.85
380.98	228.80
381.36	228.74
381.73	228.68
382.11	228.66
382.49	228.62
382.87	228.56
383.25	228.51
383.62	228.61
384.00	228.54
384.38	228.50
384.76	228.48
385.13	228.47
385.51	228.43
385.89	228.38
386.27	228.34
386.64	228.32
387.02	228.27
387.40	228.22
387.78	228.20
388.15	228.17
388.53	228.14
388.91	228.11
389.29	228.08
389.66	228.07
390.04	228.03
390.42	228.03
390.79	228.02
391.17	228.00
391.55	227.84
391.92	227.83
392.30	227.83
392.68	227.79
393.05	227.77
393.43	227.77
393.81	227.78
394.18	227.76
394.56	227.76
394.94	227.80
395.31	227.80
395.69	227.83
396.06	227.86
396.44	227.88
396.82	227.89
397.19	227.98
397.57	227.99
397.95	228.04
398.32	228.02
398.70	228.06
399.07	228.13
399.45	228.16
399.82	228.20
400.20	228.24
400.58	228.30
400.95	228.31
401.33	228.39
401.70	228.54
402.08	228.64
402.45	228.73
402.83	228.84
403.20	228.95
403.58	229.04
403.95	229.17
404.33	229.31
404.71	229.45
405.08	229.64
405.46	229.79
405.83	229.97
406.21	230.16
406.58	230.38
406.96	230.58
407.33	230.82
407.70	231.08
408.08	231.46
408.45	231.78
408.83	232.12
409.20	232.44
409.58	232.71
409.95	233.10
410.33	233.52
410.70	233.91
411.08	234.39
411.45	234.88
411.82	235.39
412.20	235.96
412.57	236.65
412.95	237.19
413.32	237.90
413.69	238.62
414.07	239.38
414.44	240.21
414.82	241.06
415.19	242.07
415.56	243.08
415.94	244.11
416.31	245.28
416.68	246.46
417.06	247.83
417.43	249.11
417.81	250.59
418.18	252.09
418.55	253.72
418.93	255.42
419.30	257.20
419.67	259.09
420.04	261.03
420.42	263.04
420.79	265.38
421.16	267.74
421.54	270.14
421.91	272.65
422.28	275.25
422.66	278.04
423.03	280.72
423.40	283.53
423.77	286.54
424.15	289.62
424.52	292.82
424.89	296.29
425.26	299.74
425.64	302.94
426.01	306.55
426.38	310.25
426.75	314.05
427.13	317.96
427.50	322.05
427.87	326.29
428.24	330.59
428.61	334.72
428.99	339.19
429.36	344.08
429.73	348.77
430.10	353.47
430.47	358.27
430.85	363.22
431.22	368.54
431.59	374.02
431.96	379.35
432.33	385.28
432.70	390.95
433.08	397.61
433.45	403.93
433.82	410.15
434.19	417.09
434.56	423.95
434.93	430.58
435.30	437.13
435.68	444.54
436.05	451.79
436.42	459.00
436.79	465.59
437.16	472.71
437.53	480.30
437.90	487.91
438.27	495.37
438.64	503.40
439.01	510.69
439.38	517.31
439.75	523.71
440.13	530.90
440.50	537.73
440.87	543.14
441.24	549.07
441.61	555.52
441.98	560.18
442.35	565.72
442.72	571.35
443.09	576.70
443.46	580.03
443.83	582.43
444.20	584.39
444.57	587.38
444.94	588.98
445.31	590.65
445.68	592.00
446.05	592.91
446.42	592.28
446.79	591.47
447.16	590.73
447.53	590.03
447.90	587.45
448.27	584.96
448.64	581.35
449.01	578.76
449.37	573.85
449.74	569.42
450.11	563.77
450.48	557.63
450.85	551.49
451.22	546.21
451.59	541.09
451.96	536.45
452.33	529.79
452.70	523.88
453.07	516.73
453.43	509.60
453.80	502.69
454.17	496.10
454.54	490.03
454.91	483.22
455.28	476.84
455.65	470.84
456.02	464.52
456.38	459.43
456.75	452.89
457.12	447.64
457.49	442.34
457.86	437.36
458.23	433.02
458.59	428.21
458.96	423.29
459.33	418.96
459.70	414.58
460.07	411.25
460.43	407.33
460.80	403.67
461.17	400.51
461.54	397.07
461.91	393.88
462.27	390.62
462.64	388.01
463.01	384.97
463.38	381.92
463.74	379.15
464.11	376.72
464.48	374.56
464.85	372.20
465.21	370.41
465.58	368.42
465.95	366.12
466.32	364.30
466.68	362.50
467.05	360.69
467.42	358.92
467.78	357.02
468.15	355.27
468.52	354.00
468.88	352.27
469.25	350.71
469.62	349.46
469.98	348.10
470.35	346.90
470.72	345.80
471.08	344.69
471.45	343.76
471.82	342.72
472.18	341.60
472.55	340.88
472.92	339.99
473.28	339.28
473.65	338.51
474.02	337.79
474.38	337.19
474.75	336.84
475.11	336.35
475.48	336.13
475.85	335.89
476.21	335.77
476.58	335.69
476.94	335.82
477.31	335.90
477.67	335.98
478.04	336.18
478.41	336.47
478.77	336.89
479.14	337.16
479.50	337.65
479.87	338.29
480.23	338.93
480.60	339.56
480.96	340.21
481.33	341.16
481.69	342.10
482.06	343.04
482.42	343.91
482.79	344.98
483.15	346.21
483.52	347.61
483.88	348.97
484.25	350.41
484.61	351.92
484.98	353.55
485.34	355.41
485.71	357.33
486.07	359.38
486.44	361.42
486.80	363.71
487.17	366.09
487.53	368.69
487.90	371.42
488.26	374.39
488.62	377.51
488.99	380.64
489.35	383.94
489.72	387.52
490.08	391.28
490.44	395.17
490.81	399.21
491.17	403.35
491.54	407.82
491.90	412.43
492.26	417.36
492.63	422.53
492.99	427.92
493.36	433.50
493.72	439.37
494.08	445.40
494.45	451.81
494.81	458.45
495.17	465.28
495.54	472.47
495.90	479.97
496.26	487.64
496.63	495.56
496.99	503.80
497.35	512.42
497.72	521.32
498.08	530.42
498.44	539.85
498.80	549.85
499.17	560.07
499.53	570.59
499.89	581.50
500.26	592.62
500.62	604.07
500.98	616.11
501.34	628.32
501.71	641.05
502.07	653.99
502.43	667.46
502.79	681.13
503.16	695.25
503.52	709.58
503.88	724.36
504.24	739.56
504.60	754.99
504.97	770.89
505.33	787.22
505.69	804.46
506.05	821.98
506.41	839.42
506.78	857.10
507.14	875.33
507.50	893.97
507.86	912.97
508.22	932.17
508.59	951.23
508.95	971.16
509.31	991.81
509.67	1013.08
510.03	1034.36
510.39	1055.75
510.75	1077.37
511.12	1099.26
511.48	1121.28
511.84	1143.43
512.20	1166.01
512.56	1189.38
512.92	1212.77
513.28	1235.82
513.64	1259.19
514.00	1282.98
514.37	1307.02
514.73	1331.12
515.09	1355.15
515.45	1379.54
515.81	1404.05
516.17	1428.76
516.53	1452.89
516.89	1476.97
517.25	1501.27
517.61	1525.52
517.97	1550.25
518.33	1574.43
518.69	1598.58
519.05	1623.29
519.41	1648.26
519.77	1673.28
520.13	1697.73
520.49	1722.09
520.85	1746.85
521.21	1771.02
521.57	1795.74
521.93	1819.97
522.29	1844.66
522.65	1868.89
523.01	1893.10
523.37	1916.95
523.73	1941.46
524.09	1965.81
524.45	1989.91
524.81	2013.61
525.17	2037.19
525.53	2060.16
525.89	2083.62
526.25	2107.07
526.61	2129.54
526.97	2152.16
527.33	2174.82
527.68	2197.08
528.04	2218.65
528.40	2239.23
528.76	2260.34
529.12	2280.78
529.48	2300.81
529.84	2319.23
530.20	2338.26
530.56	2356.65
530.91	2375.29
531.27	2393.53
531.63	2410.97
531.99	2428.05
532.35	2444.45
532.71	2460.85
533.07	2477.93
533.42	2493.27
533.78	2509.64
534.14	2526.14
534.50	2541.53
534.86	2556.84
535.21	2570.28
535.57	2584.20
535.93	2597.93
536.29	2610.42
536.65	2622.91
537.00	2634.81
537.36	2647.48
537.72	2658.58
538.08	2669.37
538.44	2679.46
538.79	2689.16
539.15	2697.99
539.51	2706.39
539.87	2714.09
540.22	2720.08
540.58	2726.14
540.94	2733.47
541.29	2738.96
541.65	2742.74
542.01	2746.01
542.37	2748.51
542.72	2752.36
543.08	2754.55
543.44	2757.21
543.79	2758.80
544.15	2759.56
544.51	2760.72
544.87	2760.77
545.22	2760.12
545.58	2758.78
545.94	2757.45
546.29	2754.82
546.65	2752.19
547.01	2749.56
547.36	2747.69
547.72	2745.60
548.07	2741.90
548.43	2736.59
548.79	2730.62
549.14	2725.92
549.50	2721.30
549.86	2715.82
550.21	2709.23
550.57	2703.50
550.92	2695.58
551.28	2688.32
551.64	2681.23
551.99	2673.61
552.35	2665.39
552.70	2657.48
553.06	2649.84
553.41	2641.55
553.77	2633.00
554.13	2624.33
554.48	2614.74
554.84	2604.04
555.19	2594.05
555.55	2583.94
555.90	2573.85
556.26	2564.21
556.61	2553.47
556.97	2541.18
557.32	2529.43
557.68	2517.50
558.03	2505.46
558.39	2494.48
558.74	2483.78
559.10	2471.39
559.45	2459.34
559.81	2447.89
560.16	2435.71
560.52	2423.71
560.87	2412.03
561.23	2399.52
561.58	2387.30
561.94	2374.63
562.29	2361.39
562.64	2348.80
563.00	2335.88
563.35	2323.58
563.71	2310.95
564.06	2298.15
564.42	2286.08
564.77	2273.30
565.12	2260.54
565.48	2247.68
565.83	2234.90
566.19	2222.12
566.54	2209.33
566.89	2195.30
567.25	2181.54
567.60	2168.98
567.96	2155.60
568.31	2140.92
568.66	2127.09
569.02	2114.20
569.37	2101.31
569.72	2088.94
570.08	2075.25
570.43	2061.30
570.78	2046.96
571.14	2032.04
571.49	2017.90
571.84	2004.25
572.20	1989.32
572.55	1974.72
572.90	1959.85
573.26	1944.98
573.61	1929.62
573.96	1914.68
574.31	1900.08
574.67	1885.37
575.02	1869.82
575.37	1854.27
575.72	1839.61
576.08	1825.15
576.43	1809.56
576.78	1794.43
577.13	1779.60
577.49	1765.15
577.84	1751.21
578.19	1736.33
578.54	1721.69
578.90	1706.56
579.25	1691.31
579.60	1677.68
579.95	1663.77
580.30	1649.83
580.66	1635.61
581.01	1621.29
581.36	1607.05
581.71	1593.79
582.06	1580.35
582.42	1567.12
582.77	1553.93
583.12	1540.60
583.47	1527.26
583.82	1514.04
584.17	1500.46
584.53	1486.49
584.88	1472.84
585.23	1458.78
585.58	1445.68
585.93	1432.78
586.28	1420.57
586.63	1408.40
586.98	1395.63
587.34	1382.97
587.69	1370.02
588.04	1357.44
588.39	1345.28
588.74	1333.16
589.09	1320.84
589.44	1308.17
589.79	1296.17
590.14	1284.25
590.49	1272.30
590.84	1260.42
591.19	1248.98
591.54	1237.35
591.89	1225.89
592.25	1214.56
592.60	1202.93
592.95	1191.64
593.30	1180.49
593.65	1169.05
594.00	1157.71
594.35	1147.05
594.70	1136.01
595.05	1125.87
595.40	1115.58
595.75	1105.11
596.10	1095.21
596.45	1084.92
596.80	1074.97
597.15	1064.81
597.50	1054.79
597.85	1045.16
598.19	1035.41
598.54	1025.71
598.89	1016.43
599.24	1007.46
599.59	998.41
599.94	990.27
600.29	981.89
600.64	973.20
600.99	964.14
601.34	955.49
601.69	946.50
602.04	938.16
602.39	929.65
602.74	921.14
603.08	912.66
603.43	904.12
603.78	895.77
604.13	887.64
604.48	879.45
604.83	871.45
605.18	863.34
605.53	855.38
605.87	847.21
606.22	839.46
606.57	831.60
606.92	823.59
607.27	815.49
607.62	807.82
607.96	800.54
608.31	793.73
608.66	786.68
609.01	779.92
609.36	773.28
609.70	766.33
610.05	759.43
610.40	752.78
610.75	746.13
611.10	739.83
611.44	733.36
611.79	726.99
612.14	720.55
612.49	714.25
612.83	708.23
613.18	702.34
613.53	696.29
613.88	690.34
614.22	684.85
614.57	679.23
614.92	673.40
615.27	667.74
615.61	662.11
615.96	656.56
616.31	650.99
616.65	645.50
617.00	640.29
617.35	635.15
617.70	630.07
618.04	624.99
618.39	619.88
618.74	615.04
619.08	610.21
619.43	605.50
619.78	600.83
620.12	596.08
620.47	591.54
620.82	587.08
621.16	582.60
621.51	577.99
621.85	573.49
622.20	569.19
622.55	564.89
622.89	560.65
623.24	556.42
623.59	552.27
623.93	548.26
624.28	544.29
624.62	540.45
624.97	536.63
625.32	532.86
625.66	528.98
626.01	525.06
626.35	521.24
626.70	517.47
627.04	513.82
627.39	510.18
627.73	506.69
628.08	503.30
628.43	499.91
628.77	496.62
629.12	493.42
629.46	490.20
629.81	486.91
630.15	483.67
630.50	480.51
630.84	477.38
631.19	474.32
631.53	471.40
631.88	468.43
632.22	465.48
632.57	462.80
632.91	460.17
633.26	457.63
633.60	455.08
633.95	452.63
634.29	450.09
634.64	447.61
634.98	444.91
635.32	442.39
635.67	440.06
636.01	437.64
636.36	435.30
636.70	433.13
637.05	430.93
637.39	428.74
637.73	426.59
638.08	424.55
638.42	422.46
638.77	420.24
639.11	417.97
639.45	415.81
639.80	413.57
640.14	411.46
640.49	409.31
640.83	407.16
641.17	405.08
641.52	403.05
641.86	401.04
642.20	399.26
642.55	397.31
642.89	395.39
643.23	393.54
643.58	391.87
643.92	390.04
644.26	388.30
644.61	386.60
644.95	384.86
645.29	383.06
645.64	381.28
645.98	379.60
646.32	378.04
646.66	376.45
647.01	374.89
647.35	373.38
647.69	371.85
648.04	370.47
648.38	369.00
648.72	367.55
649.06	366.11
649.41	364.68
649.75	363.29
650.09	361.91
650.43	360.56
650.78	359.13
651.12	357.75
651.46	356.42
651.80	355.13
652.14	353.88
652.49	352.65
652.83	351.42
653.17	350.22
653.51	349.06
653.85	347.96
654.20	346.80
654.54	345.57
654.88	344.43
655.22	343.30
655.56	342.17
655.90	341.09
656.25	340.05
656.59	338.98
656.93	337.99
657.27	337.02
657.61	335.98
657.95	334.99
658.29	333.99
658.64	333.05
658.98	332.09
659.32	331.15
659.66	330.27
660.00	329.40
660.34	328.53
660.68	327.62
661.02	326.66
661.36	325.76
661.70	324.89
662.05	324.05
662.39	323.20
662.73	322.44
663.07	321.68
663.41	320.88
663.75	320.07
664.09	319.27
664.43	318.42
664.77	317.67
665.11	316.87
665.45	316.14
665.79	315.42
666.13	314.63
666.47	313.85
666.81	313.05
667.15	312.23
667.49	311.52
667.83	310.87
668.17	310.20
668.51	309.57
668.85	308.96
669.19	308.37
669.53	307.69
669.87	307.00
670.21	306.34
670.55	305.71
670.89	305.16
671.23	304.56
671.57	303.98
671.91	303.44
672.25	302.91
672.58	302.38
672.92	301.78
673.26	301.29
673.60	300.78
673.94	300.29
674.28	299.84
674.62	299.33
674.96	298.77
675.30	298.29
675.64	297.75
675.97	297.21
676.31	296.64
676.65	296.12
676.99	295.67
677.33	295.13
677.67	294.64
678.01	294.08
678.34	293.59
678.68	293.14
679.02	292.61
679.36	292.10
679.70	291.60
680.04	291.13
680.37	290.63
680.71	290.17
681.05	289.72
681.39	289.23
681.73	288.72
682.06	288.22
682.40	287.75
682.74	287.33
683.08	286.96
683.42	286.53
683.75	286.13
684.09	285.65
684.43	285.24
684.77	284.81
685.10	284.43
685.44	284.02
685.78	283.60
686.12	283.21
686.45	282.80
686.79	282.38
687.13	281.99
687.46	281.56
687.80	281.15
688.14	280.70
688.48	280.32
688.81	279.92
689.15	279.57
689.49	279.16
689.82	278.74
690.16	278.26
690.50	277.86
690.83	277.45
691.17	277.05
691.51	276.66
691.84	276.28
692.18	275.85
692.52	275.42
692.85	275.02
693.19	274.66
693.52	274.27
693.86	273.86
694.20	273.48
694.53	273.11
694.87	272.71
695.21	272.32
695.54	271.93
695.88	271.55
696.21	271.13
696.55	270.76
696.88	270.40
697.22	270.02
697.56	269.65
697.89	269.24
698.23	268.88
698.56	268.48
698.90	268.12
699.23	267.74
699.57	267.37
699.90	267.00
700.24	266.61
700.58	266.27
700.91	265.97
701.25	265.73
701.58	265.44
701.92	265.14
702.25	264.82
702.59	264.47
702.92	264.14
703.26	263.80
703.59	263.45
703.93	263.21
704.26	262.90
704.60	262.57
704.93	262.24
705.26	261.91
705.60	261.65
705.93	261.30
706.27	261.02
706.60	260.76
706.94	260.49
707.27	260.15
707.61	259.84
707.94	259.49
708.27	259.06
708.61	258.70
708.94	258.37
709.28	258.07
709.61	257.77
709.94	257.50
710.28	257.24
710.61	256.99
710.95	256.60
711.28	256.40
711.61	256.12
711.95	255.89
712.28	255.61
712.61	255.31
712.95	255.13
713.28	254.92
713.61	254.61
713.95	254.31
714.28	254.07
714.61	253.80
714.95	253.55
715.28	253.30
715.61	253.06
715.95	252.84
716.28	252.61
716.61	252.41
716.95	252.15
717.28	251.92
717.61	251.67
717.94	251.44
718.28	251.12
718.61	250.89
718.94	250.63
719.27	250.40
719.61	250.21
719.94	249.95
720.27	249.65
720.60	249.44
720.94	249.23
721.27	249.03
721.60	248.84
721.93	248.63
722.27	248.46
722.60	248.27
722.93	248.04
723.26	247.84
723.59	247.60
723.93	247.41
724.26	247.21
724.59	247.01
724.92	246.84
725.25	246.69
725.59	246.51
725.92	246.36
726.25	246.18
726.58	246.00
726.91	245.82
727.24	245.66
727.57	245.49
727.91	245.30
728.24	245.15
728.57	244.97
728.90	244.81
729.23	244.60
729.56	244.48
729.89	244.32
730.22	244.14
730.55	243.99
730.89	243.82
731.22	243.66
731.55	243.50
731.88	243.33
732.21	243.15
732.54	243.00
732.87	242.84
733.20	242.69
733.53	242.54
733.86	242.40
734.19	242.23
734.52	242.10
734.85	242.04
735.18	241.87
735.51	241.76
735.84	241.62
736.17	241.52
736.50	241.31
736.83	241.33
737.16	241.20
737.49	241.07
737.82	240.94
738.15	240.83
738.48	240.70
738.81	240.57
739.14	240.43
739.47	240.28
739.80	240.15
740.13	240.02
740.46	239.88
740.79	239.74
741.12	239.61
741.45	239.46
741.78	239.26
742.11	239.17
742.44	239.01
742.77	238.91
743.10	238.77
743.43	238.65
743.75	238.40
744.08	238.48
744.41	238.35
744.74	238.24
745.07	238.09
745.40	238.00
745.73	237.95
746.06	237.84
746.39	237.76
746.71	237.65
747.04	237.54
747.37	237.44
747.70	237.36
748.03	237.27
748.36	237.20
748.68	237.10
749.01	236.96
749.34	236.87
749.67	236.78
750.00	236.70
750.33	236.70
750.65	236.61
750.98	236.33
751.31	236.24
751.64	236.15
751.97	236.13
752.29	236.02
752.62	235.86
752.95	235.77
753.28	235.66
753.60	235.56
753.93	235.50
754.26	235.41
754.59	235.28
754.91	235.18
755.24	235.08
755.57	235.05
755.90	234.97
756.22	234.86
756.55	234.75
756.88	234.65
757.20	234.48
757.53	234.36
757.86	234.28
758.19	234.21
758.51	234.13
758.84	233.99
759.17	233.91
759.49	233.84
759.82	233.83
760.15	233.77
760.47	233.69
760.80	233.59
761.13	233.55
761.45	233.49
761.78	233.42
762.11	233.36
762.43	233.23
762.76	233.16
763.08	233.12
763.41	233.07
763.74	233.02
764.06	232.95
764.39	232.90
764.71	232.84
765.04	232.77
765.37	232.71
765.69	232.65
766.02	232.59
766.34	232.52
766.67	232.42
767.00	232.38
767.32	232.40
767.65	232.42
767.97	232.35
768.30	232.30
768.62	232.26
768.95	232.19
769.27	232.14
769.60	232.11
769.92	232.03
770.25	231.96
770.57	231.89
770.90	231.84
771.22	231.78
771.55	231.74
771.87	231.70
772.20	231.65
772.52	231.72
772.85	231.83
773.17	231.79
773.50	231.74
773.82	231.68
774.15	231.57
774.47	231.45
774.80	231.40
775.12	231.36
775.45	231.32
775.77	231.29
776.09	231.26
776.42	231.22
776.74	231.22
777.07	231.18
777.39	231.16
777.72	231.11
778.04	231.10
778.36	231.06
778.69	231.02
779.01	231.00
779.33	230.86
779.66	230.68
779.98	230.64
780.31	230.61
780.63	230.64
780.95	230.63
781.28	230.60
781.60	230.56
781.92	230.52
782.25	230.50
782.57	230.47
782.89	230.44
783.22	230.40
783.54	230.34
783.86	230.33
784.19	230.30
784.51	230.32
784.83	230.27
785.16	230.24
785.48	230.22
785.80	230.19
786.12	230.17
786.45	230.15
786.77	230.14
787.09	230.11
787.42	230.04
787.74	230.01
788.06	230.00
788.38	229.97
788.71	229.95
789.03	229.93
789.35	229.91
789.67	229.88
789.99	229.87
790.32	229.84
790.64	229.83
790.96	229.93
791.28	229.87
791.61	229.84
791.93	229.83
792.25	229.80
792.57	229.87
792.89	229.83
793.21	229.82
793.54	229.79
793.86	229.76
794.18	229.75
794.50	229.70
794.82	229.68
795.14	229.68
795.47	229.69
795.79	229.67
796.11	229.63
796.43	229.61
796.75	229.58
797.07	229.58
797.39	229.55
797.71	229.42
798.04	229.41
798.36	229.40
798.68	229.38
799.00	229.37
799.32	229.29
799.64	229.30
799.96	229.28
800.28	229.29
800.60	229.27
800.92	229.26
801.24	229.24
801.56	229.23
801.89	229.21
802.21	229.19
802.53	229.16
802.85	229.17
803.17	229.21
803.49	229.18
803.81	229.15
804.13	229.14
804.45	229.11
804.77	229.10
805.09	229.09
805.41	229.07
805.73	229.04
806.05	228.99
806.37	228.96
806.69	228.94
807.01	228.91
807.33	228.91
807.65	228.85
807.97	228.89
808.28	228.86
808.60	228.85
808.92	228.81
809.24	228.88
809.56	228.85
809.88	228.79
810.20	228.79
810.52	228.80
810.84	228.77
811.16	228.75
811.48	228.72
811.80	228.75
812.12	228.73
812.43	228.75
812.75	228.75
813.07	228.73
813.39	228.72
813.71	228.70
814.03	228.67
814.35	228.68
814.67	228.62
814.98	228.60
815.30	228.58
815.62	228.56
815.94	228.46
816.26	228.46
816.58	228.44
816.89	228.43
817.21	228.39
817.53	228.40
817.85	228.40
818.17	228.38
818.48	228.33
