SpectraSuite Data File
++++++++++++++++++++++++++++++++++++
Date: Fri Oct 02 18:44:49 EDT 2015
User: lab3
Dark Spectrum Present: No
Reference Spectrum Present: No
Number of Sampled Component Spectra: 1
Spectrometers: USB2E7196
Integration Time (usec): 46000 (USB2E7196)
Spectra Averaged: 1500 (USB2E7196)
Boxcar Smoothing: 10 (USB2E7196)
Correct for Electrical Dark: No (USB2E7196)
Strobe/Lamp Enabled: No (USB2E7196)
Correct for Detector Non-linearity: No (USB2E7196)
Correct for Stray Light: No (USB2E7196)
Number of Pixels in Processed Spectrum: 2048
>>>>>Begin Processed Spectral Data<<<<<
339.09	0.00
339.48	215.48
339.86	216.95
340.24	218.27
340.63	219.77
341.01	222.87
341.39	222.39
341.78	223.89
342.16	225.09
342.54	225.40
342.93	213.85
343.31	224.66
343.69	225.19
344.07	225.66
344.46	226.09
344.84	226.48
345.22	226.71
345.60	226.97
345.99	227.16
346.37	227.29
346.75	227.41
347.13	227.49
347.52	227.56
347.90	227.65
348.28	227.69
348.66	227.76
349.05	227.75
349.43	227.81
349.81	227.87
350.19	227.93
350.57	228.00
350.96	228.08
351.34	228.17
351.72	228.28
352.10	228.39
352.48	228.46
352.87	228.51
353.25	228.57
353.63	228.64
354.01	228.70
354.39	228.78
354.77	228.86
355.15	228.96
355.54	229.01
355.92	229.03
356.30	229.10
356.68	229.24
357.06	229.32
357.44	229.36
357.82	229.42
358.20	229.54
358.58	229.59
358.97	229.66
359.35	229.74
359.73	229.82
360.11	229.86
360.49	229.92
360.87	229.97
361.25	230.03
361.63	230.12
362.01	230.16
362.39	230.19
362.77	230.23
363.15	230.26
363.53	230.29
363.91	230.33
364.29	230.36
364.67	230.26
365.05	230.28
365.43	230.31
365.81	230.34
366.19	230.35
366.57	230.40
366.95	230.39
367.33	230.36
367.71	230.34
368.09	230.36
368.47	230.35
368.85	230.34
369.23	230.34
369.61	230.29
369.99	230.31
370.37	230.30
370.75	230.38
371.13	230.36
371.51	230.31
371.89	230.29
372.27	230.26
372.65	230.24
373.03	230.20
373.41	230.15
373.78	230.10
374.16	229.99
374.54	229.91
374.92	229.86
375.30	229.82
375.68	229.75
376.06	229.70
376.44	229.65
376.82	229.60
377.19	229.55
377.57	229.50
377.95	229.40
378.33	229.34
378.71	229.17
379.09	229.12
379.47	229.08
379.84	229.02
380.22	228.95
380.60	228.89
380.98	228.83
381.36	228.79
381.73	228.74
382.11	228.71
382.49	228.67
382.87	228.61
383.25	228.56
383.62	228.65
384.00	228.59
384.38	228.55
384.76	228.54
385.13	228.54
385.51	228.50
385.89	228.45
386.27	228.42
386.64	228.41
387.02	228.36
387.40	228.31
387.78	228.29
388.15	228.27
388.53	228.23
388.91	228.20
389.29	228.17
389.66	228.16
390.04	228.13
390.42	228.13
390.79	228.12
391.17	228.11
391.55	227.96
391.92	227.96
392.30	227.96
392.68	227.93
393.05	227.91
393.43	227.92
393.81	227.93
394.18	227.91
394.56	227.91
394.94	227.94
395.31	227.94
395.69	227.98
396.06	228.00
396.44	228.03
396.82	228.05
397.19	228.13
397.57	228.15
397.95	228.19
398.32	228.18
398.70	228.23
399.07	228.30
399.45	228.34
399.82	228.37
400.20	228.41
400.58	228.47
400.95	228.46
401.33	228.55
401.70	228.71
402.08	228.81
402.45	228.89
402.83	229.01
403.20	229.11
403.58	229.20
403.95	229.33
404.33	229.48
404.71	229.62
405.08	229.82
405.46	229.97
405.83	230.16
406.21	230.35
406.58	230.55
406.96	230.75
407.33	230.99
407.70	231.26
408.08	231.63
408.45	231.95
408.83	232.30
409.20	232.61
409.58	232.89
409.95	233.28
410.33	233.69
410.70	234.09
411.08	234.56
411.45	235.05
411.82	235.55
412.20	236.12
412.57	236.82
412.95	237.35
413.32	238.05
413.69	238.76
414.07	239.53
414.44	240.36
414.82	241.20
415.19	242.20
415.56	243.20
415.94	244.24
416.31	245.42
416.68	246.59
417.06	247.95
417.43	249.23
417.81	250.69
418.18	252.18
418.55	253.81
418.93	255.50
419.30	257.26
419.67	259.14
420.04	261.06
420.42	263.05
420.79	265.37
421.16	267.71
421.54	270.08
421.91	272.56
422.28	275.14
422.66	277.92
423.03	280.58
423.40	283.35
423.77	286.33
424.15	289.38
424.52	292.55
424.89	295.98
425.26	299.40
425.64	302.59
426.01	306.17
426.38	309.83
426.75	313.62
427.13	317.50
427.50	321.56
427.87	325.79
428.24	330.06
428.61	334.16
428.99	338.61
429.36	343.47
429.73	348.13
430.10	352.79
430.47	357.56
430.85	362.47
431.22	367.75
431.59	373.19
431.96	378.48
432.33	384.37
432.70	389.98
433.08	396.60
433.45	402.86
433.82	409.02
434.19	415.90
434.56	422.69
434.93	429.25
435.30	435.75
435.68	443.09
436.05	450.26
436.42	457.40
436.79	463.92
437.16	470.95
437.53	478.47
437.90	485.99
438.27	493.35
438.64	501.30
439.01	508.48
439.38	515.04
439.75	521.35
440.13	528.46
440.50	535.22
440.87	540.56
441.24	546.41
441.61	552.80
441.98	557.40
442.35	562.89
442.72	568.46
443.09	573.72
443.46	577.01
443.83	579.39
444.20	581.32
444.57	584.27
444.94	585.87
445.31	587.52
445.68	588.88
446.05	589.80
446.42	589.19
446.79	588.42
447.16	587.70
447.53	587.02
447.90	584.50
448.27	582.05
448.64	578.51
449.01	575.96
449.37	571.14
449.74	566.78
450.11	561.21
450.48	555.15
450.85	549.12
451.22	543.91
451.59	538.84
451.96	534.27
452.33	527.71
452.70	521.89
453.07	514.82
453.43	507.78
453.80	500.98
454.17	494.46
454.54	488.47
454.91	481.74
455.28	475.45
455.65	469.52
456.02	463.29
456.38	458.24
456.75	451.77
457.12	446.57
457.49	441.33
457.86	436.41
458.23	432.11
458.59	427.34
458.96	422.47
459.33	418.19
459.70	413.83
460.07	410.55
460.43	406.65
460.80	403.04
461.17	399.90
461.54	396.47
461.91	393.30
462.27	390.08
462.64	387.47
463.01	384.44
463.38	381.41
463.74	378.65
464.11	376.25
464.48	374.09
464.85	371.72
465.21	369.95
465.58	367.95
465.95	365.65
466.32	363.85
466.68	362.07
467.05	360.28
467.42	358.53
467.78	356.61
468.15	354.87
468.52	353.60
468.88	351.87
469.25	350.31
469.62	349.06
469.98	347.70
470.35	346.51
470.72	345.42
471.08	344.30
471.45	343.38
471.82	342.34
472.18	341.23
472.55	340.52
472.92	339.62
473.28	338.92
473.65	338.17
474.02	337.45
474.38	336.85
474.75	336.49
475.11	336.01
475.48	335.78
475.85	335.54
476.21	335.42
476.58	335.34
476.94	335.49
477.31	335.57
477.67	335.66
478.04	335.86
478.41	336.13
478.77	336.55
479.14	336.81
479.50	337.29
479.87	337.94
480.23	338.58
480.60	339.22
480.96	339.86
481.33	340.81
481.69	341.76
482.06	342.69
482.42	343.56
482.79	344.63
483.15	345.88
483.52	347.27
483.88	348.62
484.25	350.07
484.61	351.56
484.98	353.19
485.34	355.03
485.71	356.95
486.07	359.01
486.44	361.05
486.80	363.33
487.17	365.71
487.53	368.29
487.90	371.00
488.26	373.94
488.62	377.06
488.99	380.17
489.35	383.45
489.72	387.02
490.08	390.78
490.44	394.64
490.81	398.66
491.17	402.79
491.54	407.22
491.90	411.82
492.26	416.73
492.63	421.86
492.99	427.21
493.36	432.76
493.72	438.58
494.08	444.57
494.45	450.93
494.81	457.53
495.17	464.33
495.54	471.51
495.90	478.96
496.26	486.58
496.63	494.46
496.99	502.63
497.35	511.20
497.72	520.03
498.08	529.08
498.44	538.47
498.80	548.41
499.17	558.58
499.53	569.05
499.89	579.91
500.26	590.98
500.62	602.35
500.98	614.34
501.34	626.51
501.71	639.20
502.07	652.08
502.43	665.48
502.79	679.08
503.16	693.15
503.52	707.44
503.88	722.17
504.24	737.32
504.60	752.70
504.97	768.55
505.33	784.82
505.69	801.99
506.05	819.43
506.41	836.80
506.78	854.41
507.14	872.54
507.50	891.11
507.86	910.04
508.22	929.18
508.59	948.17
508.95	968.02
509.31	988.60
509.67	1009.79
510.03	1031.01
510.39	1052.36
510.75	1073.93
511.12	1095.74
511.48	1117.66
511.84	1139.75
512.20	1162.23
512.56	1185.55
512.92	1208.87
513.28	1231.86
513.64	1255.19
514.00	1278.95
514.37	1302.96
514.73	1327.04
515.09	1351.05
515.45	1375.42
515.81	1399.90
516.17	1424.62
516.53	1448.77
516.89	1472.85
517.25	1497.20
517.61	1521.46
517.97	1546.18
518.33	1570.39
518.69	1594.55
519.05	1619.30
519.41	1644.30
519.77	1669.41
520.13	1693.92
520.49	1718.43
520.85	1743.29
521.21	1767.55
521.57	1792.35
521.93	1816.66
522.29	1841.40
522.65	1865.70
523.01	1890.01
523.37	1913.94
523.73	1938.53
524.09	1962.93
524.45	1987.12
524.81	2010.94
525.17	2034.62
525.53	2057.70
525.89	2081.20
526.25	2104.83
526.61	2127.43
526.97	2150.16
527.33	2172.96
527.68	2195.32
528.04	2216.94
528.40	2237.62
528.76	2258.83
529.12	2279.40
529.48	2299.59
529.84	2318.12
530.20	2337.29
530.56	2355.81
530.91	2374.58
531.27	2392.97
531.63	2410.57
531.99	2427.77
532.35	2444.30
532.71	2460.86
533.07	2478.12
533.42	2493.71
533.78	2510.17
534.14	2526.84
534.50	2542.44
534.86	2557.92
535.21	2571.56
535.57	2585.66
535.93	2599.58
536.29	2612.22
536.65	2624.85
537.00	2636.91
537.36	2649.76
537.72	2661.05
538.08	2672.00
538.44	2682.30
538.79	2692.16
539.15	2701.19
539.51	2709.79
539.87	2717.67
540.22	2723.79
540.58	2730.01
540.94	2737.45
541.29	2743.18
541.65	2747.12
542.01	2750.57
542.37	2753.20
542.72	2757.19
543.08	2759.54
543.44	2762.34
543.79	2764.17
544.15	2765.11
544.51	2766.48
544.87	2766.72
545.22	2766.23
545.58	2765.03
545.94	2763.85
546.29	2761.37
546.65	2758.87
547.01	2756.41
547.36	2754.70
547.72	2752.78
548.07	2749.22
548.43	2744.06
548.79	2738.18
549.14	2733.58
549.50	2729.06
549.86	2723.75
550.21	2717.27
550.57	2711.67
550.92	2703.85
551.28	2696.65
551.64	2689.68
551.99	2682.12
552.35	2674.02
552.70	2666.21
553.06	2658.69
553.41	2650.52
553.77	2642.08
554.13	2633.49
554.48	2624.02
554.84	2613.42
555.19	2603.50
555.55	2593.42
555.90	2583.40
556.26	2573.85
556.61	2563.18
556.97	2550.91
557.32	2539.17
557.68	2527.31
558.03	2515.29
558.39	2504.35
558.74	2493.69
559.10	2481.33
559.45	2469.29
559.81	2457.79
560.16	2445.62
560.52	2433.63
560.87	2421.92
561.23	2409.42
561.58	2397.23
561.94	2384.55
562.29	2371.25
562.64	2358.66
563.00	2345.77
563.35	2333.43
563.71	2320.79
564.06	2308.00
564.42	2295.98
564.77	2283.19
565.12	2270.39
565.48	2257.52
565.83	2244.77
566.19	2231.95
566.54	2219.11
566.89	2205.09
567.25	2191.36
567.60	2178.84
567.96	2165.48
568.31	2150.81
568.66	2136.93
569.02	2124.01
569.37	2111.08
569.72	2098.69
570.08	2084.96
570.43	2070.99
570.78	2056.62
571.14	2041.70
571.49	2027.50
571.84	2013.81
572.20	1998.84
572.55	1984.20
572.90	1969.31
573.26	1954.36
573.61	1938.99
573.96	1924.03
574.31	1909.37
574.67	1894.61
575.02	1878.96
575.37	1863.34
575.72	1848.60
576.08	1834.10
576.43	1818.48
576.78	1803.30
577.13	1788.44
577.49	1773.95
577.84	1759.96
578.19	1745.06
578.54	1730.35
578.90	1715.13
579.25	1699.79
579.60	1686.10
579.95	1672.19
580.30	1658.20
580.66	1643.97
581.01	1629.63
581.36	1615.31
581.71	1602.00
582.06	1588.49
582.42	1575.24
582.77	1562.01
583.12	1548.67
583.47	1535.27
583.82	1521.95
584.17	1508.27
584.53	1494.22
584.88	1480.53
585.23	1466.40
585.58	1453.21
585.93	1440.25
586.28	1428.01
586.63	1415.78
586.98	1402.95
587.34	1390.20
587.69	1377.19
588.04	1364.52
588.39	1352.27
588.74	1340.10
589.09	1327.75
589.44	1315.01
589.79	1302.93
590.14	1290.92
590.49	1278.86
590.84	1266.93
591.19	1255.45
591.54	1243.80
591.89	1232.28
592.25	1220.87
592.60	1209.19
592.95	1197.85
593.30	1186.66
593.65	1175.18
594.00	1163.76
594.35	1153.04
594.70	1141.92
595.05	1131.69
595.40	1121.34
595.75	1110.78
596.10	1100.82
596.45	1090.46
596.80	1080.46
597.15	1070.24
597.50	1060.19
597.85	1050.52
598.19	1040.69
598.54	1030.93
598.89	1021.56
599.24	1012.54
599.59	1003.45
599.94	995.24
600.29	986.79
600.64	978.04
600.99	968.92
601.34	960.23
601.69	951.17
602.04	942.78
602.39	934.21
602.74	925.65
603.08	917.11
603.43	908.52
603.78	900.13
604.13	891.96
604.48	883.70
604.83	875.66
605.18	867.51
605.53	859.53
605.87	851.32
606.22	843.53
606.57	835.61
606.92	827.54
607.27	819.40
607.62	811.68
607.96	804.33
608.31	797.48
608.66	790.39
609.01	783.61
609.36	776.93
609.70	769.96
610.05	763.04
610.40	756.35
610.75	749.67
611.10	743.32
611.44	736.81
611.79	730.43
612.14	723.92
612.49	717.57
612.83	711.49
613.18	705.56
613.53	699.49
613.88	693.50
614.22	687.96
614.57	682.31
614.92	676.46
615.27	670.80
615.61	665.13
615.96	659.54
616.31	653.95
616.65	648.42
617.00	643.18
617.35	638.00
617.70	632.93
618.04	627.82
618.39	622.67
618.74	617.79
619.08	612.92
619.43	608.19
619.78	603.50
620.12	598.73
620.47	594.17
620.82	589.71
621.16	585.21
621.51	580.60
621.85	576.07
622.20	571.75
622.55	567.43
622.89	563.16
623.24	558.91
623.59	554.73
623.93	550.71
624.28	546.74
624.62	542.89
624.97	539.06
625.32	535.24
625.66	531.36
626.01	527.40
626.35	523.56
626.70	519.77
627.04	516.11
627.39	512.47
627.73	508.97
628.08	505.55
628.43	502.16
628.77	498.87
629.12	495.66
629.46	492.43
629.81	489.13
630.15	485.88
630.50	482.72
630.84	479.60
631.19	476.53
631.53	473.58
631.88	470.60
632.22	467.61
632.57	464.93
632.91	462.29
633.26	459.77
633.60	457.24
633.95	454.80
634.29	452.25
634.64	449.76
634.98	447.06
635.32	444.55
635.67	442.21
636.01	439.77
636.36	437.41
636.70	435.25
637.05	433.03
637.39	430.85
637.73	428.67
638.08	426.62
638.42	424.52
638.77	422.29
639.11	420.03
639.45	417.88
639.80	415.65
640.14	413.53
640.49	411.37
640.83	409.19
641.17	407.08
641.52	405.04
641.86	403.02
642.20	401.20
642.55	399.23
642.89	397.29
643.23	395.46
643.58	393.79
643.92	391.95
644.26	390.20
644.61	388.51
644.95	386.78
645.29	384.97
645.64	383.21
645.98	381.51
646.32	379.93
646.66	378.32
647.01	376.76
647.35	375.23
647.69	373.71
648.04	372.33
648.38	370.85
648.72	369.40
649.06	367.94
649.41	366.53
649.75	365.15
650.09	363.78
650.43	362.41
650.78	360.99
651.12	359.61
651.46	358.26
651.80	356.94
652.14	355.67
652.49	354.45
652.83	353.21
653.17	352.00
653.51	350.85
653.85	349.75
654.20	348.57
654.54	347.33
654.88	346.18
655.22	345.06
655.56	343.92
655.90	342.84
656.25	341.80
656.59	340.73
656.93	339.72
657.27	338.73
657.61	337.68
657.95	336.67
658.29	335.68
658.64	334.74
658.98	333.79
659.32	332.86
659.66	331.95
660.00	331.08
660.34	330.20
660.68	329.26
661.02	328.30
661.36	327.39
661.70	326.52
662.05	325.65
662.39	324.80
662.73	324.03
663.07	323.25
663.41	322.45
663.75	321.63
664.09	320.81
664.43	319.96
664.77	319.19
665.11	318.39
665.45	317.63
665.79	316.88
666.13	316.08
666.47	315.28
666.81	314.49
667.15	313.65
667.49	312.93
667.83	312.28
668.17	311.59
668.51	310.96
668.85	310.35
669.19	309.75
669.53	309.06
669.87	308.35
670.21	307.69
670.55	307.05
670.89	306.48
671.23	305.88
671.57	305.29
671.91	304.74
672.25	304.21
672.58	303.67
672.92	303.07
673.26	302.57
673.60	302.06
673.94	301.54
674.28	301.08
674.62	300.56
674.96	300.00
675.30	299.49
675.64	298.95
675.97	298.39
676.31	297.82
676.65	297.30
676.99	296.85
677.33	296.30
677.67	295.81
678.01	295.23
678.34	294.74
678.68	294.27
679.02	293.73
679.36	293.22
679.70	292.71
680.04	292.23
680.37	291.73
680.71	291.27
681.05	290.82
681.39	290.32
681.73	289.80
682.06	289.29
682.40	288.82
682.74	288.40
683.08	288.02
683.42	287.57
683.75	287.15
684.09	286.66
684.43	286.24
684.77	285.79
685.10	285.41
685.44	284.99
685.78	284.57
686.12	284.19
686.45	283.76
686.79	283.34
687.13	282.93
687.46	282.50
687.80	282.07
688.14	281.61
688.48	281.23
688.81	280.81
689.15	280.45
689.49	280.04
689.82	279.61
690.16	279.13
690.50	278.73
690.83	278.32
691.17	277.90
691.51	277.50
691.84	277.12
692.18	276.68
692.52	276.24
692.85	275.83
693.19	275.46
693.52	275.06
693.86	274.66
694.20	274.27
694.53	273.91
694.87	273.51
695.21	273.11
695.54	272.71
695.88	272.33
696.21	271.91
696.55	271.54
696.88	271.16
697.22	270.79
697.56	270.40
697.89	270.00
698.23	269.63
698.56	269.23
698.90	268.86
699.23	268.47
699.57	268.10
699.90	267.72
700.24	267.32
700.58	266.97
700.91	266.66
701.25	266.42
701.58	266.12
701.92	265.81
702.25	265.49
702.59	265.15
702.92	264.81
703.26	264.47
703.59	264.10
703.93	263.86
704.26	263.55
704.60	263.21
704.93	262.87
705.26	262.53
705.60	262.25
705.93	261.90
706.27	261.63
706.60	261.36
706.94	261.10
707.27	260.75
707.61	260.44
707.94	260.09
708.27	259.65
708.61	259.28
708.94	258.94
709.28	258.62
709.61	258.31
709.94	258.03
710.28	257.75
710.61	257.49
710.95	257.10
711.28	256.89
711.61	256.61
711.95	256.37
712.28	256.09
712.61	255.79
712.95	255.60
713.28	255.38
713.61	255.07
713.95	254.76
714.28	254.51
714.61	254.23
714.95	253.98
715.28	253.72
715.61	253.48
715.95	253.26
716.28	253.02
716.61	252.82
716.95	252.56
717.28	252.32
717.61	252.07
717.94	251.84
718.28	251.50
718.61	251.26
718.94	251.01
719.27	250.79
719.61	250.59
719.94	250.32
720.27	250.03
720.60	249.82
720.94	249.61
721.27	249.41
721.60	249.22
721.93	249.01
722.27	248.84
722.60	248.64
722.93	248.41
723.26	248.21
723.59	247.97
723.93	247.78
724.26	247.59
724.59	247.38
724.92	247.21
725.25	247.07
725.59	246.89
725.92	246.73
726.25	246.55
726.58	246.36
726.91	246.17
727.24	246.00
727.57	245.84
727.91	245.65
728.24	245.49
728.57	245.30
728.90	245.15
729.23	244.93
729.56	244.80
729.89	244.64
730.22	244.45
730.55	244.29
730.89	244.13
731.22	243.96
731.55	243.79
731.88	243.62
732.21	243.44
732.54	243.27
732.87	243.12
733.20	242.98
733.53	242.82
733.86	242.68
734.19	242.51
734.52	242.37
734.85	242.31
735.18	242.13
735.51	242.01
735.84	241.87
736.17	241.76
736.50	241.56
736.83	241.57
737.16	241.45
737.49	241.33
737.82	241.19
738.15	241.08
738.48	240.95
738.81	240.81
739.14	240.67
739.47	240.53
739.80	240.38
740.13	240.24
740.46	240.10
740.79	239.96
741.12	239.83
741.45	239.68
741.78	239.49
742.11	239.41
742.44	239.26
742.77	239.16
743.10	239.02
743.43	238.91
743.75	238.66
744.08	238.73
744.41	238.61
744.74	238.49
745.07	238.35
745.40	238.25
745.73	238.20
746.06	238.10
746.39	238.01
746.71	237.91
747.04	237.80
747.37	237.69
747.70	237.61
748.03	237.51
748.36	237.44
748.68	237.33
749.01	237.19
749.34	237.10
749.67	237.00
750.00	236.92
750.33	236.90
750.65	236.81
750.98	236.52
751.31	236.43
751.64	236.35
751.97	236.31
752.29	236.21
752.62	236.06
752.95	235.96
753.28	235.85
753.60	235.76
753.93	235.69
754.26	235.61
754.59	235.47
754.91	235.38
755.24	235.27
755.57	235.25
755.90	235.16
756.22	235.05
756.55	234.94
756.88	234.84
757.20	234.67
757.53	234.55
757.86	234.47
758.19	234.39
758.51	234.29
758.84	234.16
759.17	234.06
759.49	234.01
759.82	233.99
760.15	233.93
760.47	233.86
760.80	233.76
761.13	233.71
761.45	233.65
761.78	233.58
762.11	233.52
762.43	233.39
762.76	233.33
763.08	233.28
763.41	233.23
763.74	233.17
764.06	233.12
764.39	233.07
764.71	233.01
765.04	232.94
765.37	232.89
765.69	232.84
766.02	232.79
766.34	232.71
766.67	232.60
767.00	232.57
767.32	232.58
767.65	232.60
767.97	232.54
768.30	232.49
768.62	232.44
768.95	232.37
769.27	232.32
769.60	232.29
769.92	232.22
770.25	232.15
770.57	232.07
770.90	232.01
771.22	231.95
771.55	231.90
771.87	231.86
772.20	231.81
772.52	231.86
772.85	231.97
773.17	231.93
773.50	231.88
773.82	231.81
774.15	231.70
774.47	231.59
774.80	231.54
775.12	231.50
775.45	231.46
775.77	231.43
776.09	231.39
776.42	231.36
776.74	231.36
777.07	231.33
777.39	231.31
777.72	231.26
778.04	231.25
778.36	231.20
778.69	231.17
779.01	231.15
779.33	231.02
779.66	230.84
779.98	230.81
780.31	230.79
780.63	230.81
780.95	230.81
781.28	230.78
781.60	230.74
781.92	230.71
782.25	230.68
782.57	230.65
782.89	230.61
783.22	230.57
783.54	230.51
783.86	230.50
784.19	230.46
784.51	230.48
784.83	230.44
785.16	230.42
785.48	230.40
785.80	230.37
786.12	230.35
786.45	230.33
786.77	230.31
787.09	230.28
787.42	230.21
787.74	230.19
788.06	230.16
788.38	230.14
788.71	230.11
789.03	230.10
789.35	230.10
789.67	230.07
789.99	230.06
790.32	230.01
790.64	230.01
790.96	230.11
791.28	230.05
791.61	230.02
791.93	230.00
792.25	229.97
792.57	230.03
792.89	229.98
793.21	229.97
793.54	229.94
793.86	229.90
794.18	229.89
794.50	229.85
794.82	229.83
795.14	229.82
795.47	229.82
795.79	229.80
796.11	229.74
796.43	229.72
796.75	229.70
797.07	229.69
797.39	229.67
797.71	229.54
798.04	229.54
798.36	229.53
798.68	229.51
799.00	229.50
799.32	229.43
799.64	229.44
799.96	229.43
800.28	229.44
800.60	229.41
800.92	229.40
801.24	229.39
801.56	229.39
801.89	229.38
802.21	229.36
802.53	229.33
802.85	229.35
803.17	229.40
803.49	229.35
803.81	229.33
804.13	229.31
804.45	229.28
804.77	229.26
805.09	229.24
805.41	229.22
805.73	229.18
806.05	229.13
806.37	229.10
806.69	229.06
807.01	229.04
807.33	229.04
807.65	228.98
807.97	229.02
808.28	228.99
808.60	228.98
808.92	228.95
809.24	229.01
809.56	228.98
809.88	228.93
810.20	228.93
810.52	228.94
810.84	228.92
811.16	228.90
811.48	228.88
811.80	228.92
812.12	228.90
812.43	228.92
812.75	228.93
813.07	228.91
813.39	228.91
813.71	228.89
814.03	228.86
814.35	228.86
814.67	228.79
814.98	228.78
815.30	228.76
815.62	228.72
815.94	228.63
816.26	228.62
816.58	228.59
816.89	228.59
817.21	228.55
817.53	228.55
817.85	228.54
818.17	228.54
818.48	228.49
