SpectraSuite Data File
++++++++++++++++++++++++++++++++++++
Date: Sun Oct 04 02:19:37 EDT 2015
User: lab3
Dark Spectrum Present: No
Reference Spectrum Present: No
Number of Sampled Component Spectra: 1
Spectrometers: USB2E7196
Integration Time (usec): 46000 (USB2E7196)
Spectra Averaged: 24000 (USB2E7196)
Boxcar Smoothing: 10 (USB2E7196)
Correct for Electrical Dark: No (USB2E7196)
Strobe/Lamp Enabled: No (USB2E7196)
Correct for Detector Non-linearity: No (USB2E7196)
Correct for Stray Light: No (USB2E7196)
Number of Pixels in Processed Spectrum: 2048
>>>>>Begin Processed Spectral Data<<<<<
339.09	0.00
339.48	213.07
339.86	214.54
340.24	215.90
340.63	217.31
341.01	220.62
341.39	220.07
341.78	221.41
342.16	222.59
342.54	223.04
342.93	211.55
343.31	222.24
343.69	222.78
344.07	223.24
344.46	223.67
344.84	224.07
345.22	224.29
345.60	224.55
345.99	224.74
346.37	224.88
346.75	224.99
347.13	225.07
347.52	225.14
347.90	225.23
348.28	225.27
348.66	225.34
349.05	225.33
349.43	225.39
349.81	225.45
350.19	225.51
350.57	225.57
350.96	225.66
351.34	225.76
351.72	225.85
352.10	225.96
352.48	226.03
352.87	226.09
353.25	226.15
353.63	226.21
354.01	226.28
354.39	226.36
354.77	226.43
355.15	226.54
355.54	226.59
355.92	226.61
356.30	226.69
356.68	226.84
357.06	226.92
357.44	226.97
357.82	227.03
358.20	227.15
358.58	227.21
358.97	227.27
359.35	227.36
359.73	227.44
360.11	227.49
360.49	227.55
360.87	227.60
361.25	227.67
361.63	227.76
362.01	227.81
362.39	227.84
362.77	227.89
363.15	227.91
363.53	227.94
363.91	227.98
364.29	228.00
364.67	227.90
365.05	227.92
365.43	227.96
365.81	227.99
366.19	228.01
366.57	228.07
366.95	228.07
367.33	228.04
367.71	228.03
368.09	228.05
368.47	228.04
368.85	228.03
369.23	228.05
369.61	227.98
369.99	228.00
370.37	228.00
370.75	228.08
371.13	228.04
371.51	228.00
371.89	227.98
372.27	227.96
372.65	227.94
373.03	227.90
373.41	227.85
373.78	227.80
374.16	227.70
374.54	227.61
374.92	227.56
375.30	227.52
375.68	227.45
376.06	227.41
376.44	227.35
376.82	227.31
377.19	227.26
377.57	227.21
377.95	227.12
378.33	227.06
378.71	226.89
379.09	226.85
379.47	226.82
379.84	226.75
380.22	226.69
380.60	226.62
380.98	226.57
381.36	226.52
381.73	226.46
382.11	226.44
382.49	226.40
382.87	226.34
383.25	226.29
383.62	226.40
384.00	226.33
384.38	226.29
384.76	226.28
385.13	226.28
385.51	226.24
385.89	226.19
386.27	226.16
386.64	226.14
387.02	226.10
387.40	226.05
387.78	226.03
388.15	226.01
388.53	225.98
388.91	225.95
389.29	225.91
389.66	225.91
390.04	225.87
390.42	225.87
390.79	225.86
391.17	225.84
391.55	225.69
391.92	225.68
392.30	225.68
392.68	225.64
393.05	225.62
393.43	225.62
393.81	225.63
394.18	225.61
394.56	225.62
394.94	225.65
395.31	225.65
395.69	225.70
396.06	225.73
396.44	225.76
396.82	225.77
397.19	225.86
397.57	225.87
397.95	225.92
398.32	225.92
398.70	225.97
399.07	226.04
399.45	226.08
399.82	226.13
400.20	226.17
400.58	226.24
400.95	226.26
401.33	226.35
401.70	226.51
402.08	226.62
402.45	226.71
402.83	226.84
403.20	226.96
403.58	227.06
403.95	227.21
404.33	227.37
404.71	227.53
405.08	227.75
405.46	227.93
405.83	228.13
406.21	228.34
406.58	228.58
406.96	228.81
407.33	229.08
407.70	229.38
408.08	229.79
408.45	230.14
408.83	230.53
409.20	230.89
409.58	231.21
409.95	231.65
410.33	232.13
410.70	232.58
411.08	233.11
411.45	233.67
411.82	234.23
412.20	234.88
412.57	235.65
412.95	236.26
413.32	237.05
413.69	237.86
414.07	238.72
414.44	239.66
414.82	240.61
415.19	241.73
415.56	242.87
415.94	244.05
416.31	245.37
416.68	246.69
417.06	248.22
417.43	249.66
417.81	251.31
418.18	252.99
418.55	254.83
418.93	256.74
419.30	258.74
419.67	260.86
420.04	263.04
420.42	265.30
420.79	267.92
421.16	270.57
421.54	273.26
421.91	276.08
422.28	278.99
422.66	282.14
423.03	285.14
423.40	288.28
423.77	291.66
424.15	295.12
424.52	298.73
424.89	302.62
425.26	306.50
425.64	310.11
426.01	314.16
426.38	318.31
426.75	322.58
427.13	326.96
427.50	331.54
427.87	336.31
428.24	341.12
428.61	345.75
428.99	350.75
429.36	356.25
429.73	361.49
430.10	366.74
430.47	372.11
430.85	377.64
431.22	383.56
431.59	389.65
431.96	395.59
432.33	402.20
432.70	408.47
433.08	415.88
433.45	422.90
433.82	429.82
434.19	437.53
434.56	445.14
434.93	452.50
435.30	459.76
435.68	467.98
436.05	476.03
436.42	484.06
436.79	491.38
437.16	499.28
437.53	507.75
437.90	516.23
438.27	524.52
438.64	533.49
439.01	541.61
439.38	549.04
439.75	556.20
440.13	564.27
440.50	571.95
440.87	578.04
441.24	584.71
441.61	591.97
441.98	597.27
442.35	603.56
442.72	609.97
443.09	616.09
443.46	619.94
443.83	622.76
444.20	625.09
444.57	628.61
444.94	630.57
445.31	632.60
445.68	634.31
446.05	635.55
446.42	635.09
446.79	634.42
447.16	633.82
447.53	633.26
447.90	630.60
448.27	628.05
448.64	624.23
449.01	621.53
449.37	616.25
449.74	611.48
450.11	605.34
450.48	598.63
450.85	591.93
451.22	586.21
451.59	580.63
451.96	575.58
452.33	568.25
452.70	561.76
453.07	553.83
453.43	545.95
453.80	538.29
454.17	530.96
454.54	524.23
454.91	516.61
455.28	509.48
455.65	502.76
456.02	495.64
456.38	489.94
456.75	482.60
457.12	476.70
457.49	470.74
457.86	465.15
458.23	460.25
458.59	454.81
458.96	449.22
459.33	444.31
459.70	439.30
460.07	435.50
460.43	431.04
460.80	426.87
461.17	423.25
461.54	419.31
461.91	415.62
462.27	411.86
462.64	408.86
463.01	405.38
463.38	401.88
463.74	398.74
464.11	395.95
464.48	393.45
464.85	390.71
465.21	388.65
465.58	386.33
465.95	383.67
466.32	381.56
466.68	379.49
467.05	377.41
467.42	375.37
467.78	373.16
468.15	371.13
468.52	369.64
468.88	367.64
469.25	365.81
469.62	364.36
469.98	362.77
470.35	361.35
470.72	360.07
471.08	358.75
471.45	357.65
471.82	356.41
472.18	355.11
472.55	354.26
472.92	353.18
473.28	352.34
473.65	351.43
474.02	350.56
474.38	349.82
474.75	349.37
475.11	348.75
475.48	348.45
475.85	348.12
476.21	347.92
476.58	347.77
476.94	347.87
477.31	347.90
477.67	347.96
478.04	348.14
478.41	348.40
478.77	348.81
479.14	349.04
479.50	349.55
479.87	350.22
480.23	350.90
480.60	351.57
480.96	352.24
481.33	353.26
481.69	354.26
482.06	355.27
482.42	356.18
482.79	357.33
483.15	358.67
483.52	360.19
483.88	361.65
484.25	363.22
484.61	364.85
484.98	366.61
485.34	368.59
485.71	370.67
486.07	372.90
486.44	375.13
486.80	377.61
487.17	380.20
487.53	383.02
487.90	385.97
488.26	389.18
488.62	392.58
488.99	395.97
489.35	399.55
489.72	403.43
490.08	407.53
490.44	411.76
490.81	416.15
491.17	420.64
491.54	425.47
491.90	430.44
492.26	435.78
492.63	441.36
492.99	447.19
493.36	453.23
493.72	459.57
494.08	466.08
494.45	472.99
494.81	480.16
495.17	487.52
495.54	495.31
495.90	503.41
496.26	511.69
496.63	520.21
496.99	529.07
497.35	538.33
497.72	547.89
498.08	557.66
498.44	567.75
498.80	578.46
499.17	589.44
499.53	600.77
499.89	612.46
500.26	624.42
500.62	636.65
500.98	649.55
501.34	662.62
501.71	676.23
502.07	690.04
502.43	704.38
502.79	718.97
503.16	734.03
503.52	749.27
503.88	764.97
504.24	781.14
504.60	797.52
504.97	814.40
505.33	831.71
505.69	849.95
506.05	868.56
506.41	887.13
506.78	905.87
507.14	925.11
507.50	944.79
507.86	964.82
508.22	985.12
508.59	1005.20
508.95	1026.08
509.31	1047.69
509.67	1070.10
510.03	1092.54
510.39	1114.99
510.75	1137.56
511.12	1160.45
511.48	1183.51
511.84	1206.55
512.20	1230.00
512.56	1254.40
512.92	1278.84
513.28	1302.80
513.64	1327.01
514.00	1351.68
514.37	1376.74
514.73	1401.69
515.09	1426.50
515.45	1451.63
515.81	1476.98
516.17	1502.35
516.53	1527.33
516.89	1552.15
517.25	1577.11
517.61	1601.87
517.97	1627.09
518.33	1651.87
518.69	1676.59
519.05	1701.70
519.41	1727.11
519.77	1752.81
520.13	1777.62
520.49	1802.38
520.85	1827.48
521.21	1852.24
521.57	1877.31
521.93	1901.74
522.29	1926.80
522.65	1951.23
523.01	1975.63
523.37	1999.57
523.73	2024.35
524.09	2048.69
524.45	2072.82
524.81	2096.59
525.17	2120.23
525.53	2143.26
525.89	2166.74
526.25	2190.24
526.61	2212.74
526.97	2235.35
527.33	2257.84
527.68	2280.14
528.04	2301.53
528.40	2322.00
528.76	2342.52
529.12	2362.57
529.48	2382.44
529.84	2400.28
530.20	2418.89
530.56	2436.84
530.91	2454.92
531.27	2472.63
531.63	2489.48
531.99	2505.86
532.35	2521.45
532.71	2537.24
533.07	2553.66
533.42	2568.14
533.78	2583.59
534.14	2599.41
534.50	2614.28
534.86	2628.85
535.21	2641.29
535.57	2654.35
535.93	2667.26
536.29	2679.05
536.65	2690.57
537.00	2701.20
537.36	2712.95
537.72	2723.37
538.08	2733.15
538.44	2742.16
538.79	2750.75
539.15	2758.64
539.51	2766.21
539.87	2773.19
540.22	2778.00
540.58	2782.95
540.94	2789.11
541.29	2793.73
541.65	2796.48
542.01	2798.44
542.37	2799.69
542.72	2802.44
543.08	2803.38
543.44	2804.86
543.79	2805.35
544.15	2805.00
544.51	2805.08
544.87	2804.02
545.22	2802.08
545.58	2799.47
545.94	2796.86
546.29	2793.00
546.65	2789.10
547.01	2785.05
547.36	2781.78
547.72	2778.85
548.07	2774.02
548.43	2767.83
548.79	2760.48
549.14	2754.41
549.50	2748.76
549.86	2742.12
550.21	2734.26
550.57	2727.44
550.92	2718.22
551.28	2709.45
551.64	2701.18
551.99	2692.55
552.35	2683.26
552.70	2674.24
553.06	2665.61
553.41	2656.40
553.77	2646.98
554.13	2637.51
554.48	2627.17
554.84	2615.48
555.19	2604.09
555.55	2592.91
555.90	2581.83
556.26	2571.42
556.61	2559.81
556.97	2546.52
557.32	2533.62
557.68	2520.88
558.03	2507.76
558.39	2496.03
558.74	2484.67
559.10	2471.49
559.45	2458.41
559.81	2445.95
560.16	2432.86
560.52	2420.14
560.87	2407.82
561.23	2394.67
561.58	2381.46
561.94	2368.03
562.29	2354.02
562.64	2340.80
563.00	2327.31
563.35	2314.09
563.71	2300.71
564.06	2287.32
564.42	2274.71
564.77	2261.64
565.12	2248.40
565.48	2235.12
565.83	2221.69
566.19	2208.45
566.54	2195.16
566.89	2180.77
567.25	2166.53
567.60	2153.77
567.96	2140.03
568.31	2124.83
568.66	2110.26
569.02	2096.99
569.37	2083.71
569.72	2070.97
570.08	2056.97
570.43	2042.52
570.78	2028.02
571.14	2012.81
571.49	1998.15
571.84	1984.10
572.20	1968.85
572.55	1953.73
572.90	1938.64
573.26	1923.69
573.61	1908.19
573.96	1893.11
574.31	1878.30
574.67	1863.62
575.02	1847.74
575.37	1832.01
575.72	1817.19
576.08	1802.68
576.43	1787.09
576.78	1771.87
577.13	1756.91
577.49	1742.31
577.84	1728.34
578.19	1713.45
578.54	1698.64
578.90	1683.39
579.25	1668.02
579.60	1654.27
579.95	1640.46
580.30	1626.45
580.66	1612.11
581.01	1597.74
581.36	1583.36
581.71	1569.92
582.06	1556.44
582.42	1543.19
582.77	1530.00
583.12	1516.82
583.47	1503.53
583.82	1490.34
584.17	1476.77
584.53	1462.92
584.88	1449.43
585.23	1435.60
585.58	1422.50
585.93	1409.59
586.28	1397.44
586.63	1385.22
586.98	1372.57
587.34	1359.99
587.69	1347.14
588.04	1334.61
588.39	1322.43
588.74	1310.41
589.09	1298.22
589.44	1285.57
589.79	1273.56
590.14	1261.64
590.49	1249.60
590.84	1237.73
591.19	1226.25
591.54	1214.59
591.89	1203.05
592.25	1191.75
592.60	1180.04
592.95	1168.75
593.30	1157.78
593.65	1146.49
594.00	1135.37
594.35	1124.78
594.70	1113.74
595.05	1103.54
595.40	1093.25
595.75	1082.79
596.10	1072.85
596.45	1062.71
596.80	1052.92
597.15	1042.83
597.50	1032.92
597.85	1023.43
598.19	1013.78
598.54	1004.14
598.89	995.04
599.24	986.22
599.59	977.15
599.94	968.99
600.29	960.66
600.64	952.06
600.99	943.12
601.34	934.48
601.69	925.51
602.04	917.25
602.39	908.80
602.74	900.43
603.08	892.02
603.43	883.58
603.78	875.29
604.13	867.12
604.48	859.01
604.83	851.05
605.18	843.04
605.53	835.22
605.87	827.26
606.22	819.50
606.57	811.73
606.92	803.90
607.27	796.01
607.62	788.39
607.96	781.14
608.31	774.36
608.66	767.38
609.01	760.68
609.36	754.06
609.70	747.31
610.05	740.49
610.40	733.96
610.75	727.40
611.10	721.19
611.44	714.82
611.79	708.56
612.14	702.23
612.49	695.95
612.83	689.96
613.18	684.09
613.53	678.18
613.88	672.27
614.22	666.72
614.57	661.16
614.92	655.45
615.27	649.84
615.61	644.29
615.96	638.82
616.31	633.35
616.65	627.91
617.00	622.66
617.35	617.55
617.70	612.45
618.04	607.45
618.39	602.34
618.74	597.46
619.08	592.63
619.43	587.93
619.78	583.23
620.12	578.52
620.47	573.93
620.82	569.45
621.16	565.06
621.51	560.56
621.85	556.08
622.20	551.75
622.55	547.50
622.89	543.31
623.24	539.13
623.59	534.96
623.93	530.97
624.28	527.09
624.62	523.28
624.97	519.53
625.32	515.72
625.66	511.89
626.01	508.02
626.35	504.23
626.70	500.46
627.04	496.90
627.39	493.24
627.73	489.78
628.08	486.40
628.43	483.01
628.77	479.68
629.12	476.49
629.46	473.34
629.81	470.07
630.15	466.79
630.50	463.61
630.84	460.50
631.19	457.43
631.53	454.45
631.88	451.45
632.22	448.47
632.57	445.76
632.91	443.09
633.26	440.51
633.60	437.96
633.95	435.45
634.29	432.86
634.64	430.34
634.98	427.66
635.32	425.08
635.67	422.70
636.01	420.28
636.36	417.86
636.70	415.57
637.05	413.30
637.39	411.09
637.73	408.87
638.08	406.79
638.42	404.70
638.77	402.45
639.11	400.16
639.45	397.96
639.80	395.70
640.14	393.54
640.49	391.37
640.83	389.17
641.17	387.08
641.52	385.03
641.86	383.01
642.20	381.18
642.55	379.21
642.89	377.26
643.23	375.40
643.58	373.70
643.92	371.89
644.26	370.14
644.61	368.43
644.95	366.69
645.29	364.88
645.64	363.08
645.98	361.39
646.32	359.81
646.66	358.21
647.01	356.65
647.35	355.13
647.69	353.59
648.04	352.17
648.38	350.69
648.72	349.21
649.06	347.74
649.41	346.28
649.75	344.88
650.09	343.51
650.43	342.13
650.78	340.71
651.12	339.33
651.46	338.01
651.80	336.70
652.14	335.43
652.49	334.20
652.83	332.94
653.17	331.73
653.51	330.55
653.85	329.43
654.20	328.27
654.54	327.03
654.88	325.88
655.22	324.76
655.56	323.63
655.90	322.57
656.25	321.55
656.59	320.50
656.93	319.52
657.27	318.54
657.61	317.52
657.95	316.55
658.29	315.56
658.64	314.63
658.98	313.69
659.32	312.78
659.66	311.93
660.00	311.10
660.34	310.26
660.68	309.40
661.02	308.51
661.36	307.66
661.70	306.86
662.05	306.07
662.39	305.29
662.73	304.58
663.07	303.88
663.41	303.13
663.75	302.38
664.09	301.64
664.43	300.87
664.77	300.17
665.11	299.43
665.45	298.76
665.79	298.09
666.13	297.40
666.47	296.69
666.81	295.97
667.15	295.22
667.49	294.57
667.83	293.98
668.17	293.36
668.51	292.79
668.85	292.24
669.19	291.73
669.53	291.11
669.87	290.50
670.21	289.89
670.55	289.34
670.89	288.87
671.23	288.34
671.57	287.83
671.91	287.36
672.25	286.92
672.58	286.48
672.92	285.96
673.26	285.51
673.60	285.07
673.94	284.65
674.28	284.26
674.62	283.83
674.96	283.35
675.30	282.94
675.64	282.49
675.97	282.02
676.31	281.54
676.65	281.10
676.99	280.74
677.33	280.30
677.67	279.89
678.01	279.41
678.34	279.01
678.68	278.63
679.02	278.19
679.36	277.76
679.70	277.33
680.04	276.96
680.37	276.57
680.71	276.20
681.05	275.84
681.39	275.45
681.73	275.03
682.06	274.65
682.40	274.26
682.74	273.94
683.08	273.66
683.42	273.31
683.75	273.00
684.09	272.60
684.43	272.27
684.77	271.94
685.10	271.65
685.44	271.33
685.78	271.00
686.12	270.70
686.45	270.38
686.79	270.04
687.13	269.74
687.46	269.40
687.80	269.10
688.14	268.73
688.48	268.43
688.81	268.12
689.15	267.85
689.49	267.53
689.82	267.20
690.16	266.82
690.50	266.52
690.83	266.21
691.17	265.89
691.51	265.59
691.84	265.30
692.18	264.97
692.52	264.65
692.85	264.35
693.19	264.08
693.52	263.78
693.86	263.49
694.20	263.19
694.53	262.92
694.87	262.60
695.21	262.31
695.54	262.03
695.88	261.73
696.21	261.40
696.55	261.13
696.88	260.84
697.22	260.57
697.56	260.29
697.89	259.97
698.23	259.69
698.56	259.39
698.90	259.12
699.23	258.82
699.57	258.54
699.90	258.24
700.24	257.93
700.58	257.68
700.91	257.44
701.25	257.29
701.58	257.08
701.92	256.86
702.25	256.61
702.59	256.34
702.92	256.10
703.26	255.84
703.59	255.57
703.93	255.41
704.26	255.17
704.60	254.91
704.93	254.65
705.26	254.39
705.60	254.17
705.93	253.90
706.27	253.70
706.60	253.49
706.94	253.31
707.27	253.04
707.61	252.79
707.94	252.51
708.27	252.14
708.61	251.84
708.94	251.57
709.28	251.33
709.61	251.09
709.94	250.87
710.28	250.66
710.61	250.46
710.95	250.14
711.28	250.00
711.61	249.78
711.95	249.60
712.28	249.37
712.61	249.13
712.95	248.99
713.28	248.84
713.61	248.59
713.95	248.33
714.28	248.14
714.61	247.92
714.95	247.71
715.28	247.51
715.61	247.32
715.95	247.14
716.28	246.95
716.61	246.79
716.95	246.58
717.28	246.38
717.61	246.18
717.94	245.99
718.28	245.71
718.61	245.51
718.94	245.29
719.27	245.11
719.61	244.95
719.94	244.73
720.27	244.46
720.60	244.28
720.94	244.10
721.27	243.93
721.60	243.78
721.93	243.60
722.27	243.47
722.60	243.31
722.93	243.12
723.26	242.95
723.59	242.74
723.93	242.58
724.26	242.42
724.59	242.24
724.92	242.09
725.25	241.98
725.59	241.82
725.92	241.69
726.25	241.54
726.58	241.39
726.91	241.23
727.24	241.10
727.57	240.95
727.91	240.79
728.24	240.67
728.57	240.51
728.90	240.39
729.23	240.20
729.56	240.11
729.89	239.96
730.22	239.81
730.55	239.67
730.89	239.53
731.22	239.39
731.55	239.26
731.88	239.12
732.21	238.96
732.54	238.82
732.87	238.68
733.20	238.56
733.53	238.44
733.86	238.32
734.19	238.18
734.52	238.07
734.85	238.04
735.18	237.88
735.51	237.80
735.84	237.68
736.17	237.60
736.50	237.41
736.83	237.45
737.16	237.34
737.49	237.24
737.82	237.12
738.15	237.03
738.48	236.92
738.81	236.80
739.14	236.69
739.47	236.57
739.80	236.45
740.13	236.35
740.46	236.22
740.79	236.09
741.12	235.98
741.45	235.85
741.78	235.67
742.11	235.61
742.44	235.47
742.77	235.38
743.10	235.25
743.43	235.15
743.75	234.91
744.08	235.01
744.41	234.90
744.74	234.80
745.07	234.67
745.40	234.60
745.73	234.56
746.06	234.47
746.39	234.40
746.71	234.31
747.04	234.20
747.37	234.12
747.70	234.06
748.03	233.98
748.36	233.91
748.68	233.83
749.01	233.70
749.34	233.62
749.67	233.54
750.00	233.48
750.33	233.49
750.65	233.42
750.98	233.14
751.31	233.07
751.64	233.00
751.97	232.99
752.29	232.90
752.62	232.76
752.95	232.67
753.28	232.56
753.60	232.49
753.93	232.44
754.26	232.38
754.59	232.26
754.91	232.16
755.24	232.07
755.57	232.06
755.90	231.99
756.22	231.90
756.55	231.81
756.88	231.70
757.20	231.55
757.53	231.44
757.86	231.37
758.19	231.31
758.51	231.23
758.84	231.10
759.17	231.02
759.49	230.96
759.82	230.96
760.15	230.91
760.47	230.85
760.80	230.75
761.13	230.70
761.45	230.65
761.78	230.60
762.11	230.54
762.43	230.41
762.76	230.36
763.08	230.32
763.41	230.27
763.74	230.23
764.06	230.17
764.39	230.12
764.71	230.07
765.04	230.00
765.37	229.94
765.69	229.89
766.02	229.84
766.34	229.78
766.67	229.68
767.00	229.65
767.32	229.67
767.65	229.71
767.97	229.64
768.30	229.61
768.62	229.56
768.95	229.49
769.27	229.45
769.60	229.42
769.92	229.35
770.25	229.29
770.57	229.22
770.90	229.18
771.22	229.12
771.55	229.08
771.87	229.05
772.20	229.01
772.52	229.08
772.85	229.19
773.17	229.16
773.50	229.11
773.82	229.05
774.15	228.95
774.47	228.83
774.80	228.78
775.12	228.74
775.45	228.71
775.77	228.69
776.09	228.66
776.42	228.63
776.74	228.64
777.07	228.61
777.39	228.58
777.72	228.55
778.04	228.54
778.36	228.50
778.69	228.47
779.01	228.45
779.33	228.31
779.66	228.14
779.98	228.10
780.31	228.08
780.63	228.11
780.95	228.11
781.28	228.08
781.60	228.05
781.92	228.02
782.25	228.00
782.57	227.97
782.89	227.94
783.22	227.91
783.54	227.85
783.86	227.84
784.19	227.81
784.51	227.83
784.83	227.79
785.16	227.76
785.48	227.74
785.80	227.71
786.12	227.70
786.45	227.68
786.77	227.67
787.09	227.64
787.42	227.57
787.74	227.55
788.06	227.53
788.38	227.51
788.71	227.48
789.03	227.46
789.35	227.46
789.67	227.42
789.99	227.41
790.32	227.38
790.64	227.37
790.96	227.47
791.28	227.41
791.61	227.39
791.93	227.38
792.25	227.35
792.57	227.42
792.89	227.38
793.21	227.37
793.54	227.34
793.86	227.31
794.18	227.30
794.50	227.26
794.82	227.24
795.14	227.24
795.47	227.25
795.79	227.23
796.11	227.18
796.43	227.17
796.75	227.15
797.07	227.14
797.39	227.12
797.71	227.00
798.04	226.99
798.36	226.98
798.68	226.96
799.00	226.95
799.32	226.88
799.64	226.89
799.96	226.87
800.28	226.87
800.60	226.86
800.92	226.85
801.24	226.83
801.56	226.83
801.89	226.80
802.21	226.79
802.53	226.75
802.85	226.77
803.17	226.82
803.49	226.78
803.81	226.75
804.13	226.73
804.45	226.70
804.77	226.70
805.09	226.69
805.41	226.66
805.73	226.63
806.05	226.58
806.37	226.56
806.69	226.53
807.01	226.51
807.33	226.50
807.65	226.45
807.97	226.50
808.28	226.47
808.60	226.45
808.92	226.42
809.24	226.49
809.56	226.46
809.88	226.40
810.20	226.40
810.52	226.42
810.84	226.39
811.16	226.37
811.48	226.34
811.80	226.38
812.12	226.36
812.43	226.38
812.75	226.38
813.07	226.36
813.39	226.35
813.71	226.33
814.03	226.31
814.35	226.31
814.67	226.25
814.98	226.23
815.30	226.22
815.62	226.19
815.94	226.10
816.26	226.10
816.58	226.07
816.89	226.07
817.21	226.03
817.53	226.04
817.85	226.04
818.17	226.03
818.48	225.97
