SpectraSuite Data File
++++++++++++++++++++++++++++++++++++
Date: Fri Oct 02 16:24:12 EDT 2015
User: lab3
Dark Spectrum Present: No
Reference Spectrum Present: No
Number of Sampled Component Spectra: 1
Spectrometers: USB2E7196
Integration Time (usec): 46000 (USB2E7196)
Spectra Averaged: 1200 (USB2E7196)
Boxcar Smoothing: 10 (USB2E7196)
Correct for Electrical Dark: No (USB2E7196)
Strobe/Lamp Enabled: No (USB2E7196)
Correct for Detector Non-linearity: No (USB2E7196)
Correct for Stray Light: No (USB2E7196)
Number of Pixels in Processed Spectrum: 2048
>>>>>Begin Processed Spectral Data<<<<<
339.09	0.00
339.48	214.86
339.86	216.14
340.24	217.64
340.63	218.87
341.01	222.26
341.39	221.74
341.78	223.18
342.16	224.36
342.54	224.80
342.93	213.20
343.31	223.97
343.69	224.51
344.07	224.98
344.46	225.41
344.84	225.81
345.22	226.03
345.60	226.29
345.99	226.48
346.37	226.61
346.75	226.72
347.13	226.79
347.52	226.86
347.90	226.95
348.28	226.99
348.66	227.05
349.05	227.03
349.43	227.08
349.81	227.13
350.19	227.18
350.57	227.24
350.96	227.33
351.34	227.41
351.72	227.50
352.10	227.60
352.48	227.68
352.87	227.72
353.25	227.79
353.63	227.84
354.01	227.91
354.39	227.99
354.77	228.05
355.15	228.16
355.54	228.22
355.92	228.25
356.30	228.32
356.68	228.48
357.06	228.56
357.44	228.60
357.82	228.65
358.20	228.78
358.58	228.84
358.97	228.89
359.35	228.98
359.73	229.07
360.11	229.11
360.49	229.17
360.87	229.21
361.25	229.26
361.63	229.36
362.01	229.41
362.39	229.43
362.77	229.48
363.15	229.51
363.53	229.54
363.91	229.57
364.29	229.59
364.67	229.48
365.05	229.51
365.43	229.55
365.81	229.58
366.19	229.59
366.57	229.65
366.95	229.65
367.33	229.63
367.71	229.62
368.09	229.64
368.47	229.64
368.85	229.64
369.23	229.65
369.61	229.60
369.99	229.62
370.37	229.62
370.75	229.68
371.13	229.64
371.51	229.60
371.89	229.57
372.27	229.55
372.65	229.53
373.03	229.49
373.41	229.44
373.78	229.40
374.16	229.30
374.54	229.22
374.92	229.17
375.30	229.12
375.68	229.05
376.06	229.01
376.44	228.94
376.82	228.90
377.19	228.85
377.57	228.80
377.95	228.71
378.33	228.65
378.71	228.50
379.09	228.46
379.47	228.43
379.84	228.37
380.22	228.31
380.60	228.24
380.98	228.19
381.36	228.13
381.73	228.05
382.11	228.03
382.49	227.99
382.87	227.93
383.25	227.88
383.62	227.99
384.00	227.92
384.38	227.89
384.76	227.88
385.13	227.88
385.51	227.85
385.89	227.79
386.27	227.75
386.64	227.74
387.02	227.68
387.40	227.64
387.78	227.62
388.15	227.59
388.53	227.56
388.91	227.54
389.29	227.51
389.66	227.52
390.04	227.49
390.42	227.47
390.79	227.46
391.17	227.44
391.55	227.28
391.92	227.28
392.30	227.28
392.68	227.24
393.05	227.21
393.43	227.20
393.81	227.21
394.18	227.20
394.56	227.20
394.94	227.23
395.31	227.23
395.69	227.27
396.06	227.29
396.44	227.32
396.82	227.33
397.19	227.41
397.57	227.41
397.95	227.45
398.32	227.45
398.70	227.50
399.07	227.56
399.45	227.61
399.82	227.64
400.20	227.68
400.58	227.75
400.95	227.76
401.33	227.84
401.70	228.00
402.08	228.10
402.45	228.18
402.83	228.30
403.20	228.42
403.58	228.51
403.95	228.65
404.33	228.80
404.71	228.96
405.08	229.16
405.46	229.33
405.83	229.53
406.21	229.72
406.58	229.94
406.96	230.15
407.33	230.39
407.70	230.69
408.08	231.07
408.45	231.39
408.83	231.76
409.20	232.10
409.58	232.39
409.95	232.79
410.33	233.23
410.70	233.64
411.08	234.13
411.45	234.65
411.82	235.17
412.20	235.77
412.57	236.48
412.95	237.03
413.32	237.76
413.69	238.51
414.07	239.31
414.44	240.17
414.82	241.07
415.19	242.11
415.56	243.15
415.94	244.24
416.31	245.45
416.68	246.68
417.06	248.09
417.43	249.43
417.81	250.96
418.18	252.53
418.55	254.23
418.93	256.01
419.30	257.86
419.67	259.82
420.04	261.83
420.42	263.93
420.79	266.36
421.16	268.82
421.54	271.31
421.91	273.92
422.28	276.61
422.66	279.53
423.03	282.30
423.40	285.21
423.77	288.33
424.15	291.54
424.52	294.86
424.89	298.48
425.26	302.06
425.64	305.39
426.01	309.12
426.38	312.96
426.75	316.90
427.13	320.95
427.50	325.19
427.87	329.61
428.24	334.05
428.61	338.32
428.99	342.94
429.36	348.01
429.73	352.85
430.10	357.72
430.47	362.67
430.85	367.78
431.22	373.27
431.59	378.89
431.96	384.39
432.33	390.50
432.70	396.33
433.08	403.20
433.45	409.70
433.82	416.12
434.19	423.29
434.56	430.36
434.93	437.17
435.30	443.92
435.68	451.54
436.05	459.03
436.42	466.49
436.79	473.30
437.16	480.63
437.53	488.50
437.90	496.35
438.27	504.05
438.64	512.36
439.01	519.90
439.38	526.80
439.75	533.43
440.13	540.93
440.50	548.05
440.87	553.70
441.24	559.89
441.61	566.63
441.98	571.49
442.35	577.31
442.72	583.22
443.09	588.86
443.46	592.42
443.83	594.99
444.20	597.12
444.57	600.35
444.94	602.15
445.31	604.01
445.68	605.58
446.05	606.66
446.42	606.18
446.79	605.49
447.16	604.89
447.53	604.30
447.90	601.78
448.27	599.35
448.64	595.74
449.01	593.17
449.37	588.23
449.74	583.77
450.11	578.04
450.48	571.79
450.85	565.54
451.22	560.19
451.59	554.97
451.96	550.24
452.33	543.39
452.70	537.32
453.07	529.95
453.43	522.62
453.80	515.54
454.17	508.74
454.54	502.48
454.91	495.41
455.28	488.82
455.65	482.60
456.02	476.02
456.38	470.74
456.75	463.98
457.12	458.52
457.49	453.00
457.86	447.81
458.23	443.31
458.59	438.30
458.96	433.16
459.33	428.64
459.70	424.06
460.07	420.59
460.43	416.48
460.80	412.66
461.17	409.33
461.54	405.72
461.91	402.39
462.27	398.99
462.64	396.28
463.01	393.10
463.38	389.90
463.74	387.03
464.11	384.50
464.48	382.22
464.85	379.74
465.21	377.90
465.58	375.82
465.95	373.39
466.32	371.48
466.68	369.59
467.05	367.72
467.42	365.88
467.78	363.88
468.15	362.06
468.52	360.73
468.88	358.92
469.25	357.28
469.62	355.98
469.98	354.55
470.35	353.26
470.72	352.13
471.08	350.96
471.45	349.98
471.82	348.88
472.18	347.73
472.55	346.98
472.92	346.03
473.28	345.29
473.65	344.49
474.02	343.74
474.38	343.12
474.75	342.75
475.11	342.24
475.48	342.00
475.85	341.75
476.21	341.62
476.58	341.55
476.94	341.70
477.31	341.77
477.67	341.87
478.04	342.10
478.41	342.39
478.77	342.83
479.14	343.10
479.50	343.61
479.87	344.28
480.23	344.96
480.60	345.61
480.96	346.29
481.33	347.28
481.69	348.26
482.06	349.25
482.42	350.14
482.79	351.26
483.15	352.56
483.52	354.03
483.88	355.45
484.25	356.96
484.61	358.53
484.98	360.23
485.34	362.14
485.71	364.14
486.07	366.28
486.44	368.43
486.80	370.82
487.17	373.31
487.53	376.01
487.90	378.83
488.26	381.93
488.62	385.17
488.99	388.42
489.35	391.83
489.72	395.53
490.08	399.43
490.44	403.47
490.81	407.66
491.17	411.95
491.54	416.56
491.90	421.33
492.26	426.44
492.63	431.78
492.99	437.34
493.36	443.10
493.72	449.15
494.08	455.36
494.45	461.94
494.81	468.77
495.17	475.77
495.54	483.18
495.90	490.88
496.26	498.79
496.63	506.93
496.99	515.41
497.35	524.26
497.72	533.40
498.08	542.76
498.44	552.39
498.80	562.61
499.17	573.10
499.53	583.89
499.89	595.04
500.26	606.41
500.62	618.04
500.98	630.33
501.34	642.80
501.71	655.78
502.07	668.91
502.43	682.58
502.79	696.53
503.16	710.89
503.52	725.45
503.88	740.42
504.24	755.83
504.60	771.45
504.97	787.53
505.33	803.98
505.69	821.31
506.05	838.95
506.41	856.57
506.78	874.32
507.14	892.58
507.50	911.27
507.86	930.28
508.22	949.57
508.59	968.68
508.95	988.62
509.31	1009.17
509.67	1030.50
510.03	1051.76
510.39	1073.04
510.75	1094.56
511.12	1116.34
511.48	1138.19
511.84	1160.11
512.20	1182.38
512.56	1205.46
512.92	1228.58
513.28	1251.29
513.64	1274.20
514.00	1297.46
514.37	1321.08
514.73	1344.73
515.09	1368.22
515.45	1392.02
515.81	1415.99
516.17	1439.96
516.53	1463.45
516.89	1486.88
517.25	1510.44
517.61	1533.96
517.97	1557.80
518.33	1580.97
518.69	1604.08
519.05	1627.76
519.41	1651.59
519.77	1675.66
520.13	1698.97
520.49	1722.23
520.85	1745.70
521.21	1768.87
521.57	1792.48
521.93	1815.49
522.29	1838.95
522.65	1861.78
523.01	1884.61
523.37	1907.00
523.73	1930.13
524.09	1952.91
524.45	1975.51
524.81	1997.56
525.17	2019.30
525.53	2040.69
525.89	2062.57
526.25	2084.53
526.61	2105.39
526.97	2126.30
527.33	2146.98
527.68	2167.47
528.04	2187.20
528.40	2205.96
528.76	2224.84
529.12	2243.05
529.48	2261.17
529.84	2277.38
530.20	2294.29
530.56	2310.63
530.91	2326.98
531.27	2343.02
531.63	2358.18
531.99	2372.93
532.35	2387.15
532.71	2401.50
533.07	2416.15
533.42	2428.95
533.78	2442.73
534.14	2456.81
534.50	2469.99
534.86	2482.93
535.21	2494.06
535.57	2505.64
535.93	2517.03
536.29	2527.25
536.65	2537.50
537.00	2546.84
537.36	2557.31
537.72	2566.38
538.08	2574.77
538.44	2582.72
538.79	2590.17
539.15	2596.90
539.51	2603.18
539.87	2608.69
540.22	2612.45
540.58	2616.36
540.94	2621.66
541.29	2625.19
541.65	2626.96
542.01	2628.18
542.37	2628.82
542.72	2630.56
543.08	2630.78
543.44	2631.58
543.79	2631.45
544.15	2630.48
544.51	2629.79
544.87	2627.87
545.22	2625.26
545.58	2622.02
545.94	2618.69
546.29	2614.24
546.65	2609.92
547.01	2605.45
547.36	2601.71
547.72	2597.85
548.07	2592.66
548.43	2586.03
548.79	2578.52
549.14	2572.16
549.50	2566.09
549.86	2558.99
550.21	2551.07
550.57	2543.76
550.92	2534.39
551.28	2525.65
551.64	2517.12
551.99	2508.28
552.35	2498.92
552.70	2489.80
553.06	2481.34
553.41	2472.24
553.77	2462.82
554.13	2453.09
554.48	2442.83
554.84	2431.40
555.19	2420.61
555.55	2409.67
555.90	2398.64
556.26	2388.13
556.61	2376.74
556.97	2363.91
557.32	2351.73
557.68	2339.16
558.03	2326.56
558.39	2315.13
558.74	2303.85
559.10	2291.09
559.45	2278.51
559.81	2266.49
560.16	2254.10
560.52	2241.64
560.87	2229.42
561.23	2216.52
561.58	2203.93
561.94	2190.89
562.29	2177.45
562.64	2164.59
563.00	2151.44
563.35	2138.92
563.71	2126.16
564.06	2113.27
564.42	2100.87
564.77	2087.99
565.12	2075.23
565.48	2062.50
565.83	2049.67
566.19	2037.03
566.54	2024.15
566.89	2010.44
567.25	1996.91
567.60	1984.40
567.96	1971.30
568.31	1956.93
568.66	1943.30
569.02	1930.70
569.37	1917.97
569.72	1905.82
570.08	1892.48
570.43	1878.75
570.78	1864.72
571.14	1850.31
571.49	1836.50
571.84	1823.30
572.20	1808.98
572.55	1794.90
572.90	1780.63
573.26	1766.39
573.61	1751.62
573.96	1737.35
574.31	1723.26
574.67	1709.26
575.02	1694.33
575.37	1679.29
575.72	1665.30
576.08	1651.62
576.43	1636.92
576.78	1622.73
577.13	1608.71
577.49	1595.17
577.84	1582.21
578.19	1568.46
578.54	1554.79
578.90	1540.70
579.25	1526.50
579.60	1513.69
579.95	1500.78
580.30	1487.72
580.66	1474.39
581.01	1461.08
581.36	1447.86
581.71	1435.52
582.06	1422.97
582.42	1410.69
582.77	1398.60
583.12	1386.42
583.47	1374.02
583.82	1361.85
584.17	1349.34
584.53	1336.49
584.88	1323.95
585.23	1311.04
585.58	1298.97
585.93	1287.10
586.28	1275.79
586.63	1264.51
586.98	1252.85
587.34	1241.24
587.69	1229.48
588.04	1218.08
588.39	1207.08
588.74	1196.17
589.09	1185.08
589.44	1173.65
589.79	1162.77
590.14	1151.99
590.49	1141.10
590.84	1130.36
591.19	1119.85
591.54	1109.21
591.89	1098.83
592.25	1088.61
592.60	1078.12
592.95	1067.88
593.30	1057.84
593.65	1047.69
594.00	1037.55
594.35	1028.01
594.70	1018.07
595.05	1008.91
595.40	999.73
595.75	990.32
596.10	981.33
596.45	972.16
596.80	963.32
597.15	954.32
597.50	945.45
597.85	936.94
598.19	928.30
598.54	919.73
598.89	911.52
599.24	903.57
599.59	895.48
599.94	888.22
600.29	880.76
600.64	873.07
600.99	865.04
601.34	857.39
601.69	849.38
602.04	841.99
602.39	834.49
602.74	827.00
603.08	819.53
603.43	812.06
603.78	804.70
604.13	797.48
604.48	790.21
604.83	783.14
605.18	775.96
605.53	769.04
605.87	761.96
606.22	755.18
606.57	748.32
606.92	741.35
607.27	734.39
607.62	727.77
607.96	721.44
608.31	715.49
608.66	709.33
609.01	703.45
609.36	697.72
609.70	691.74
610.05	685.75
610.40	680.01
610.75	674.27
611.10	668.83
611.44	663.29
611.79	657.85
612.14	652.32
612.49	646.89
612.83	641.66
613.18	636.55
613.53	631.38
613.88	626.27
614.22	621.54
614.57	616.70
614.92	611.68
615.27	606.76
615.61	601.92
615.96	597.17
616.31	592.38
616.65	587.70
617.00	583.19
617.35	578.74
617.70	574.36
618.04	570.07
618.39	565.74
618.74	561.57
619.08	557.45
619.43	553.42
619.78	549.42
620.12	545.42
620.47	541.55
620.82	537.75
621.16	533.97
621.51	530.12
621.85	526.33
622.20	522.73
622.55	519.14
622.89	515.58
623.24	512.05
623.59	508.57
623.93	505.14
624.28	501.82
624.62	498.63
624.97	495.45
625.32	492.21
625.66	488.91
626.01	485.62
626.35	482.41
626.70	479.20
627.04	476.21
627.39	473.13
627.73	470.18
628.08	467.32
628.43	464.45
628.77	461.66
629.12	458.96
629.46	456.26
629.81	453.53
630.15	450.80
630.50	448.15
630.84	445.55
631.19	443.04
631.53	440.61
631.88	438.10
632.22	435.64
632.57	433.45
632.91	431.26
633.26	429.15
633.60	427.04
633.95	425.03
634.29	422.90
634.64	420.83
634.98	418.62
635.32	416.53
635.67	414.60
636.01	412.60
636.36	410.64
636.70	408.81
637.05	406.99
637.39	405.20
637.73	403.42
638.08	401.73
638.42	400.02
638.77	398.20
639.11	396.35
639.45	394.56
639.80	392.72
640.14	390.97
640.49	389.20
640.83	387.40
641.17	385.68
641.52	384.01
641.86	382.36
642.20	380.88
642.55	379.26
642.89	377.67
643.23	376.13
643.58	374.78
643.92	373.26
644.26	371.79
644.61	370.35
644.95	368.89
645.29	367.39
645.64	365.88
645.98	364.46
646.32	363.14
646.66	361.79
647.01	360.44
647.35	359.19
647.69	357.91
648.04	356.76
648.38	355.51
648.72	354.28
649.06	353.06
649.41	351.83
649.75	350.67
650.09	349.52
650.43	348.37
650.78	347.14
651.12	345.98
651.46	344.87
651.80	343.77
652.14	342.71
652.49	341.68
652.83	340.64
653.17	339.62
653.51	338.64
653.85	337.71
654.20	336.74
654.54	335.68
654.88	334.69
655.22	333.73
655.56	332.76
655.90	331.85
656.25	330.97
656.59	330.07
656.93	329.21
657.27	328.37
657.61	327.48
657.95	326.64
658.29	325.78
658.64	324.95
658.98	324.12
659.32	323.30
659.66	322.53
660.00	321.78
660.34	321.03
660.68	320.24
661.02	319.43
661.36	318.66
661.70	317.91
662.05	317.18
662.39	316.45
662.73	315.80
663.07	315.14
663.41	314.44
663.75	313.74
664.09	313.06
664.43	312.31
664.77	311.64
665.11	310.92
665.45	310.30
665.79	309.67
666.13	309.02
666.47	308.33
666.81	307.62
667.15	306.89
667.49	306.25
667.83	305.67
668.17	305.05
668.51	304.47
668.85	303.92
669.19	303.41
669.53	302.78
669.87	302.15
670.21	301.53
670.55	300.94
670.89	300.43
671.23	299.88
671.57	299.36
671.91	298.87
672.25	298.41
672.58	297.93
672.92	297.37
673.26	296.88
673.60	296.42
673.94	295.98
674.28	295.56
674.62	295.10
674.96	294.59
675.30	294.15
675.64	293.65
675.97	293.14
676.31	292.61
676.65	292.13
676.99	291.71
677.33	291.22
677.67	290.77
678.01	290.24
678.34	289.78
678.68	289.35
679.02	288.84
679.36	288.37
679.70	287.89
680.04	287.46
680.37	287.02
680.71	286.59
681.05	286.17
681.39	285.70
681.73	285.23
682.06	284.76
682.40	284.31
682.74	283.93
683.08	283.58
683.42	283.15
683.75	282.77
684.09	282.30
684.43	281.90
684.77	281.47
685.10	281.11
685.44	280.71
685.78	280.31
686.12	279.94
686.45	279.53
686.79	279.09
687.13	278.70
687.46	278.28
687.80	277.88
688.14	277.43
688.48	277.05
688.81	276.64
689.15	276.28
689.49	275.88
689.82	275.47
690.16	275.01
690.50	274.63
690.83	274.24
691.17	273.84
691.51	273.46
691.84	273.09
692.18	272.68
692.52	272.28
692.85	271.90
693.19	271.56
693.52	271.18
693.86	270.80
694.20	270.42
694.53	270.05
694.87	269.65
695.21	269.28
695.54	268.90
695.88	268.53
696.21	268.13
696.55	267.76
696.88	267.41
697.22	267.04
697.56	266.69
697.89	266.29
698.23	265.95
698.56	265.56
698.90	265.22
699.23	264.84
699.57	264.47
699.90	264.10
700.24	263.71
700.58	263.39
700.91	263.11
701.25	262.89
701.58	262.62
701.92	262.34
702.25	262.03
702.59	261.71
702.92	261.38
703.26	261.07
703.59	260.73
703.93	260.50
704.26	260.20
704.60	259.89
704.93	259.56
705.26	259.24
705.60	258.99
705.93	258.65
706.27	258.40
706.60	258.15
706.94	257.91
707.27	257.58
707.61	257.28
707.94	256.95
708.27	256.53
708.61	256.17
708.94	255.86
709.28	255.57
709.61	255.28
709.94	255.02
710.28	254.75
710.61	254.53
710.95	254.17
711.28	253.97
711.61	253.70
711.95	253.48
712.28	253.21
712.61	252.93
712.95	252.76
713.28	252.56
713.61	252.28
713.95	251.99
714.28	251.76
714.61	251.52
714.95	251.29
715.28	251.06
715.61	250.85
715.95	250.63
716.28	250.42
716.61	250.23
716.95	250.00
717.28	249.79
717.61	249.55
717.94	249.34
718.28	249.04
718.61	248.82
718.94	248.58
719.27	248.38
719.61	248.18
719.94	247.93
720.27	247.64
720.60	247.43
720.94	247.24
721.27	247.05
721.60	246.87
721.93	246.67
722.27	246.51
722.60	246.32
722.93	246.10
723.26	245.92
723.59	245.70
723.93	245.52
724.26	245.33
724.59	245.14
724.92	244.97
725.25	244.84
725.59	244.68
725.92	244.54
726.25	244.37
726.58	244.20
726.91	244.03
727.24	243.88
727.57	243.73
727.91	243.54
728.24	243.40
728.57	243.23
728.90	243.08
729.23	242.88
729.56	242.78
729.89	242.64
730.22	242.47
730.55	242.31
730.89	242.17
731.22	242.01
731.55	241.87
731.88	241.72
732.21	241.53
732.54	241.38
732.87	241.24
733.20	241.10
733.53	240.97
733.86	240.84
734.19	240.69
734.52	240.56
734.85	240.52
735.18	240.35
735.51	240.25
735.84	240.12
736.17	240.02
736.50	239.83
736.83	239.83
737.16	239.71
737.49	239.59
737.82	239.47
738.15	239.36
738.48	239.23
738.81	239.10
739.14	238.96
739.47	238.83
739.80	238.71
740.13	238.59
740.46	238.45
740.79	238.32
741.12	238.20
741.45	238.07
741.78	237.88
742.11	237.81
742.44	237.67
742.77	237.57
743.10	237.44
743.43	237.32
743.75	237.09
744.08	237.17
744.41	237.05
744.74	236.94
745.07	236.81
745.40	236.73
745.73	236.68
746.06	236.59
746.39	236.50
746.71	236.40
747.04	236.29
747.37	236.19
747.70	236.12
748.03	236.04
748.36	235.97
748.68	235.87
749.01	235.74
749.34	235.65
749.67	235.57
750.00	235.49
750.33	235.50
750.65	235.42
750.98	235.15
751.31	235.06
751.64	234.98
751.97	234.97
752.29	234.87
752.62	234.72
752.95	234.63
753.28	234.53
753.60	234.44
753.93	234.39
754.26	234.31
754.59	234.19
754.91	234.08
755.24	234.00
755.57	233.98
755.90	233.90
756.22	233.80
756.55	233.69
756.88	233.60
757.20	233.43
757.53	233.32
757.86	233.24
758.19	233.18
758.51	233.10
758.84	232.97
759.17	232.89
759.49	232.84
759.82	232.85
760.15	232.80
760.47	232.72
760.80	232.61
761.13	232.57
761.45	232.50
761.78	232.45
762.11	232.39
762.43	232.25
762.76	232.19
763.08	232.15
763.41	232.10
763.74	232.05
764.06	232.00
764.39	231.95
764.71	231.88
765.04	231.81
765.37	231.75
765.69	231.70
766.02	231.65
766.34	231.59
766.67	231.49
767.00	231.45
767.32	231.48
767.65	231.52
767.97	231.46
768.30	231.42
768.62	231.37
768.95	231.31
769.27	231.26
769.60	231.24
769.92	231.17
770.25	231.10
770.57	231.04
770.90	230.98
771.22	230.93
771.55	230.89
771.87	230.86
772.20	230.81
772.52	230.88
772.85	230.99
773.17	230.95
773.50	230.91
773.82	230.84
774.15	230.74
774.47	230.61
774.80	230.56
775.12	230.51
775.45	230.48
775.77	230.46
776.09	230.44
776.42	230.39
776.74	230.41
777.07	230.36
777.39	230.34
777.72	230.31
778.04	230.29
778.36	230.25
778.69	230.22
779.01	230.20
779.33	230.05
779.66	229.87
779.98	229.83
780.31	229.81
780.63	229.84
780.95	229.82
781.28	229.80
781.60	229.77
781.92	229.75
782.25	229.73
782.57	229.69
782.89	229.66
783.22	229.62
783.54	229.57
783.86	229.56
784.19	229.53
784.51	229.53
784.83	229.50
785.16	229.49
785.48	229.46
785.80	229.44
786.12	229.42
786.45	229.41
786.77	229.39
787.09	229.35
787.42	229.29
787.74	229.28
788.06	229.26
788.38	229.22
788.71	229.19
789.03	229.16
789.35	229.17
789.67	229.13
789.99	229.13
790.32	229.08
790.64	229.08
790.96	229.18
791.28	229.11
791.61	229.08
791.93	229.06
792.25	229.03
792.57	229.10
792.89	229.06
793.21	229.05
793.54	229.03
793.86	229.01
794.18	228.98
794.50	228.93
794.82	228.91
795.14	228.91
795.47	228.93
795.79	228.91
796.11	228.86
796.43	228.85
796.75	228.83
797.07	228.83
797.39	228.80
797.71	228.68
798.04	228.67
798.36	228.66
798.68	228.64
799.00	228.64
799.32	228.56
799.64	228.57
799.96	228.55
800.28	228.55
800.60	228.53
800.92	228.54
801.24	228.52
801.56	228.53
801.89	228.51
802.21	228.49
802.53	228.46
802.85	228.47
803.17	228.52
803.49	228.48
803.81	228.46
804.13	228.44
804.45	228.42
804.77	228.42
805.09	228.42
805.41	228.40
805.73	228.36
806.05	228.31
806.37	228.29
806.69	228.27
807.01	228.25
807.33	228.25
807.65	228.19
807.97	228.24
808.28	228.20
808.60	228.18
808.92	228.15
809.24	228.22
809.56	228.18
809.88	228.13
810.20	228.13
810.52	228.14
810.84	228.10
811.16	228.09
811.48	228.06
811.80	228.10
812.12	228.09
812.43	228.11
812.75	228.12
813.07	228.10
813.39	228.10
813.71	228.07
814.03	228.05
814.35	228.06
814.67	228.00
814.98	227.98
815.30	227.98
815.62	227.95
815.94	227.87
816.26	227.87
816.58	227.84
816.89	227.84
817.21	227.80
817.53	227.81
817.85	227.80
818.17	227.79
818.48	227.72
818.80	227.73
