SpectraSuite Data File
++++++++++++++++++++++++++++++++++++
Date: Fri Oct 02 18:10:39 EDT 2015
User: lab3
Dark Spectrum Present: No
Reference Spectrum Present: No
Number of Sampled Component Spectra: 1
Spectrometers: USB2E7196
Integration Time (usec): 46000 (USB2E7196)
Spectra Averaged: 1500 (USB2E7196)
Boxcar Smoothing: 10 (USB2E7196)
Correct for Electrical Dark: No (USB2E7196)
Strobe/Lamp Enabled: No (USB2E7196)
Correct for Detector Non-linearity: No (USB2E7196)
Correct for Stray Light: No (USB2E7196)
Number of Pixels in Processed Spectrum: 2048
>>>>>Begin Processed Spectral Data<<<<<
339.09	0.00
339.48	215.92
339.86	217.46
340.24	218.82
340.63	220.23
341.01	223.35
341.39	222.89
341.78	224.19
342.16	225.48
342.54	225.89
342.93	214.26
343.31	225.09
343.69	225.63
344.07	226.09
344.46	226.52
344.84	226.92
345.22	227.14
345.60	227.41
345.99	227.61
346.37	227.74
346.75	227.86
347.13	227.94
347.52	228.01
347.90	228.11
348.28	228.15
348.66	228.22
349.05	228.21
349.43	228.26
349.81	228.32
350.19	228.38
350.57	228.44
350.96	228.52
351.34	228.60
351.72	228.69
352.10	228.79
352.48	228.87
352.87	228.90
353.25	228.96
353.63	229.01
354.01	229.07
354.39	229.15
354.77	229.22
355.15	229.32
355.54	229.37
355.92	229.39
356.30	229.47
356.68	229.62
357.06	229.69
357.44	229.73
357.82	229.78
358.20	229.90
358.58	229.96
358.97	230.02
359.35	230.11
359.73	230.18
360.11	230.23
360.49	230.29
360.87	230.33
361.25	230.40
361.63	230.49
362.01	230.54
362.39	230.56
362.77	230.61
363.15	230.63
363.53	230.66
363.91	230.69
364.29	230.71
364.67	230.62
365.05	230.63
365.43	230.66
365.81	230.70
366.19	230.71
366.57	230.77
366.95	230.76
367.33	230.72
367.71	230.72
368.09	230.74
368.47	230.73
368.85	230.73
369.23	230.74
369.61	230.68
369.99	230.70
370.37	230.70
370.75	230.77
371.13	230.72
371.51	230.68
371.89	230.66
372.27	230.64
372.65	230.61
373.03	230.58
373.41	230.54
373.78	230.49
374.16	230.38
374.54	230.29
374.92	230.25
375.30	230.22
375.68	230.15
376.06	230.11
376.44	230.05
376.82	230.01
377.19	229.96
377.57	229.90
377.95	229.82
378.33	229.76
378.71	229.60
379.09	229.56
379.47	229.54
379.84	229.47
380.22	229.41
380.60	229.35
380.98	229.30
381.36	229.25
381.73	229.19
382.11	229.16
382.49	229.13
382.87	229.07
383.25	229.02
383.62	229.12
384.00	229.06
384.38	229.02
384.76	229.01
385.13	229.00
385.51	228.97
385.89	228.92
386.27	228.88
386.64	228.87
387.02	228.82
387.40	228.76
387.78	228.73
388.15	228.71
388.53	228.68
388.91	228.65
389.29	228.61
389.66	228.61
390.04	228.57
390.42	228.58
390.79	228.57
391.17	228.55
391.55	228.39
391.92	228.38
392.30	228.37
392.68	228.33
393.05	228.31
393.43	228.31
393.81	228.31
394.18	228.29
394.56	228.30
394.94	228.34
395.31	228.35
395.69	228.39
396.06	228.42
396.44	228.45
396.82	228.47
397.19	228.55
397.57	228.56
397.95	228.61
398.32	228.61
398.70	228.66
399.07	228.72
399.45	228.76
399.82	228.81
400.20	228.85
400.58	228.91
400.95	228.92
401.33	229.00
401.70	229.16
402.08	229.26
402.45	229.33
402.83	229.44
403.20	229.55
403.58	229.63
403.95	229.77
404.33	229.92
404.71	230.05
405.08	230.25
405.46	230.41
405.83	230.58
406.21	230.76
406.58	230.96
406.96	231.17
407.33	231.41
407.70	231.68
408.08	232.05
408.45	232.36
408.83	232.71
409.20	233.03
409.58	233.31
409.95	233.70
410.33	234.13
410.70	234.53
411.08	235.00
411.45	235.49
411.82	236.00
412.20	236.58
412.57	237.27
412.95	237.80
413.32	238.51
413.69	239.22
414.07	239.99
414.44	240.82
414.82	241.67
415.19	242.66
415.56	243.67
415.94	244.70
416.31	245.88
416.68	247.05
417.06	248.40
417.43	249.67
417.81	251.13
418.18	252.62
418.55	254.24
418.93	255.93
419.30	257.70
419.67	259.56
420.04	261.48
420.42	263.48
420.79	265.81
421.16	268.15
421.54	270.54
421.91	273.02
422.28	275.59
422.66	278.36
423.03	281.02
423.40	283.81
423.77	286.79
424.15	289.83
424.52	293.00
424.89	296.44
425.26	299.85
425.64	303.03
426.01	306.59
426.38	310.25
426.75	314.00
427.13	317.86
427.50	321.91
427.87	326.13
428.24	330.37
428.61	334.45
428.99	338.87
429.36	343.70
429.73	348.33
430.10	352.98
430.47	357.75
430.85	362.64
431.22	367.89
431.59	373.29
431.96	378.55
432.33	384.40
432.70	389.97
433.08	396.56
433.45	402.78
433.82	408.90
434.19	415.74
434.56	422.51
434.93	429.03
435.30	435.48
435.68	442.76
436.05	449.90
436.42	457.00
436.79	463.48
437.16	470.48
437.53	477.96
437.90	485.42
438.27	492.73
438.64	500.61
439.01	507.75
439.38	514.29
439.75	520.58
440.13	527.68
440.50	534.42
440.87	539.75
441.24	545.58
441.61	551.95
441.98	556.55
442.35	562.02
442.72	567.61
443.09	572.89
443.46	576.21
443.83	578.60
444.20	580.54
444.57	583.53
444.94	585.16
445.31	586.86
445.68	588.27
446.05	589.23
446.42	588.69
446.79	587.97
447.16	587.31
447.53	586.68
447.90	584.21
448.27	581.83
448.64	578.35
449.01	575.89
449.37	571.15
449.74	566.85
450.11	561.36
450.48	555.35
450.85	549.38
451.22	544.24
451.59	539.25
451.96	534.73
452.33	528.22
452.70	522.45
453.07	515.43
453.43	508.45
453.80	501.67
454.17	495.21
454.54	489.27
454.91	482.55
455.28	476.28
455.65	470.36
456.02	464.14
456.38	459.12
456.75	452.64
457.12	447.45
457.49	442.22
457.86	437.29
458.23	432.99
458.59	428.23
458.96	423.34
459.33	419.04
459.70	414.70
460.07	411.40
460.43	407.50
460.80	403.86
461.17	400.71
461.54	397.28
461.91	394.10
462.27	390.86
462.64	388.25
463.01	385.22
463.38	382.20
463.74	379.45
464.11	377.03
464.48	374.88
464.85	372.52
465.21	370.76
465.58	368.77
465.95	366.48
466.32	364.67
466.68	362.89
467.05	361.11
467.42	359.35
467.78	357.46
468.15	355.71
468.52	354.46
468.88	352.75
469.25	351.20
469.62	349.97
469.98	348.62
470.35	347.43
470.72	346.35
471.08	345.23
471.45	344.31
471.82	343.27
472.18	342.17
472.55	341.46
472.92	340.56
473.28	339.85
473.65	339.10
474.02	338.38
474.38	337.78
474.75	337.44
475.11	336.94
475.48	336.73
475.85	336.49
476.21	336.36
476.58	336.28
476.94	336.40
477.31	336.48
477.67	336.56
478.04	336.75
478.41	337.04
478.77	337.45
479.14	337.70
479.50	338.20
479.87	338.84
480.23	339.49
480.60	340.12
480.96	340.76
481.33	341.71
481.69	342.66
482.06	343.59
482.42	344.45
482.79	345.52
483.15	346.75
483.52	348.14
483.88	349.49
484.25	350.95
484.61	352.46
484.98	354.09
485.34	355.94
485.71	357.85
486.07	359.89
486.44	361.94
486.80	364.22
487.17	366.59
487.53	369.18
487.90	371.87
488.26	374.82
488.62	377.92
488.99	381.04
489.35	384.31
489.72	387.87
490.08	391.61
490.44	395.48
490.81	399.48
491.17	403.62
491.54	408.04
491.90	412.60
492.26	417.49
492.63	422.60
492.99	427.93
493.36	433.45
493.72	439.28
494.08	445.25
494.45	451.60
494.81	458.19
495.17	464.96
495.54	472.13
495.90	479.56
496.26	487.18
496.63	495.01
496.99	503.17
497.35	511.72
497.72	520.54
498.08	529.57
498.44	538.93
498.80	548.84
499.17	558.99
499.53	569.44
499.89	580.26
500.26	591.31
500.62	602.66
500.98	614.61
501.34	626.72
501.71	639.34
502.07	652.18
502.43	665.57
502.79	679.12
503.16	693.13
503.52	707.35
503.88	722.01
504.24	737.12
504.60	752.45
504.97	768.24
505.33	784.46
505.69	801.55
506.05	818.93
506.41	836.26
506.78	853.82
507.14	871.92
507.50	890.41
507.86	909.30
508.22	928.38
508.59	947.32
508.95	967.13
509.31	987.66
509.67	1008.79
510.03	1029.90
510.39	1051.19
510.75	1072.69
511.12	1094.45
511.48	1116.33
511.84	1138.34
512.20	1160.77
512.56	1184.03
512.92	1207.25
513.28	1230.17
513.64	1253.41
514.00	1277.07
514.37	1300.97
514.73	1324.92
515.09	1348.83
515.45	1373.08
515.81	1397.43
516.17	1422.00
516.53	1446.01
516.89	1469.97
517.25	1494.15
517.61	1518.28
517.97	1542.81
518.33	1566.85
518.69	1590.84
519.05	1615.43
519.41	1640.28
519.77	1665.20
520.13	1689.52
520.49	1713.81
520.85	1738.48
521.21	1762.54
521.57	1787.12
521.93	1811.21
522.29	1835.76
522.65	1859.86
523.01	1883.94
523.37	1907.65
523.73	1932.06
524.09	1956.20
524.45	1980.14
524.81	2003.70
525.17	2027.14
525.53	2050.02
525.89	2073.35
526.25	2096.73
526.61	2119.06
526.97	2141.49
527.33	2164.01
527.68	2186.16
528.04	2207.56
528.40	2227.96
528.76	2248.92
529.12	2269.24
529.48	2289.17
529.84	2307.49
530.20	2326.42
530.56	2344.69
530.91	2363.21
531.27	2381.34
531.63	2398.67
531.99	2415.64
532.35	2431.93
532.71	2448.23
533.07	2465.19
533.42	2480.46
533.78	2496.71
534.14	2513.07
534.50	2528.42
534.86	2543.62
535.21	2556.92
535.57	2570.73
535.93	2584.40
536.29	2596.77
536.65	2609.14
537.00	2620.88
537.36	2633.46
537.72	2644.45
538.08	2655.15
538.44	2665.20
538.79	2674.83
539.15	2683.60
539.51	2691.92
539.87	2699.55
540.22	2705.48
540.58	2711.48
540.94	2718.69
541.29	2724.15
541.65	2727.90
542.01	2731.13
542.37	2733.65
542.72	2737.53
543.08	2739.71
543.44	2742.42
543.79	2744.08
544.15	2744.88
544.51	2746.09
544.87	2746.17
545.22	2745.52
545.58	2744.16
545.94	2742.84
546.29	2740.23
546.65	2737.71
547.01	2735.19
547.36	2733.35
547.72	2731.35
548.07	2727.76
548.43	2722.54
548.79	2716.65
549.14	2712.02
549.50	2707.46
549.86	2701.99
550.21	2695.39
550.57	2689.76
550.92	2681.84
551.28	2674.65
551.64	2667.65
551.99	2660.10
552.35	2651.98
552.70	2644.12
553.06	2636.57
553.41	2628.34
553.77	2619.86
554.13	2611.23
554.48	2601.71
554.84	2591.12
555.19	2581.20
555.55	2571.14
555.90	2561.13
556.26	2551.57
556.61	2540.91
556.97	2528.69
557.32	2517.00
557.68	2505.16
558.03	2493.14
558.39	2482.28
558.74	2471.64
559.10	2459.31
559.45	2447.34
559.81	2435.91
560.16	2423.83
560.52	2411.93
560.87	2400.35
561.23	2387.95
561.58	2375.86
561.94	2363.27
562.29	2350.07
562.64	2337.58
563.00	2324.76
563.35	2312.48
563.71	2299.92
564.06	2287.19
564.42	2275.20
564.77	2262.53
565.12	2249.85
565.48	2237.08
565.83	2224.38
566.19	2211.63
566.54	2198.85
566.89	2184.92
567.25	2171.22
567.60	2158.79
567.96	2145.49
568.31	2130.85
568.66	2117.07
569.02	2104.20
569.37	2091.33
569.72	2079.04
570.08	2065.37
570.43	2051.42
570.78	2037.17
571.14	2022.29
571.49	2008.19
571.84	1994.58
572.20	1979.68
572.55	1965.17
572.90	1950.36
573.26	1935.49
573.61	1920.19
573.96	1905.31
574.31	1890.79
574.67	1876.13
575.02	1860.56
575.37	1845.08
575.72	1830.50
576.08	1816.11
576.43	1800.59
576.78	1785.59
577.13	1770.82
577.49	1756.41
577.84	1742.53
578.19	1727.73
578.54	1713.15
578.90	1698.05
579.25	1682.85
579.60	1669.28
579.95	1655.43
580.30	1641.52
580.66	1627.36
581.01	1613.10
581.36	1598.90
581.71	1585.67
582.06	1572.28
582.42	1559.13
582.77	1545.97
583.12	1532.71
583.47	1519.36
583.82	1506.12
584.17	1492.55
584.53	1478.60
584.88	1465.01
585.23	1450.99
585.58	1437.88
585.93	1424.99
586.28	1412.85
586.63	1400.72
586.98	1387.97
587.34	1375.36
587.69	1362.50
588.04	1349.96
588.39	1337.84
588.74	1325.79
589.09	1313.49
589.44	1300.84
589.79	1288.83
590.14	1276.92
590.49	1264.98
590.84	1253.14
591.19	1241.77
591.54	1230.14
591.89	1218.70
592.25	1207.41
592.60	1195.86
592.95	1184.66
593.30	1173.64
593.65	1162.26
594.00	1150.98
594.35	1140.38
594.70	1129.36
595.05	1119.19
595.40	1108.97
595.75	1098.52
596.10	1088.65
596.45	1078.46
596.80	1068.59
597.15	1058.50
597.50	1048.59
597.85	1039.00
598.19	1029.30
598.54	1019.66
598.89	1010.46
599.24	1001.58
599.59	992.58
599.94	984.48
600.29	976.11
600.64	967.42
600.99	958.41
601.34	949.83
601.69	940.89
602.04	932.61
602.39	924.18
602.74	915.72
603.08	907.30
603.43	898.85
603.78	890.58
604.13	882.50
604.48	874.37
604.83	866.42
605.18	858.43
605.53	850.53
605.87	842.44
606.22	834.74
606.57	826.96
606.92	819.01
607.27	810.99
607.62	803.39
607.96	796.19
608.31	789.43
608.66	782.44
609.01	775.77
609.36	769.20
609.70	762.34
610.05	755.55
610.40	748.97
610.75	742.37
611.10	736.13
611.44	729.75
611.79	723.44
612.14	717.07
612.49	710.82
612.83	704.88
613.18	699.04
613.53	693.08
613.88	687.17
614.22	681.71
614.57	676.16
614.92	670.38
615.27	664.78
615.61	659.23
615.96	653.73
616.31	648.22
616.65	642.76
617.00	637.61
617.35	632.53
617.70	627.50
618.04	622.47
618.39	617.41
618.74	612.61
619.08	607.84
619.43	603.19
619.78	598.54
620.12	593.87
620.47	589.39
620.82	584.97
621.16	580.56
621.51	576.01
621.85	571.56
622.20	567.34
622.55	563.09
622.89	558.89
623.24	554.71
623.59	550.60
623.93	546.65
624.28	542.73
624.62	538.93
624.97	535.16
625.32	531.41
625.66	527.57
626.01	523.69
626.35	519.92
626.70	516.17
627.04	512.62
627.39	509.00
627.73	505.56
628.08	502.21
628.43	498.86
628.77	495.63
629.12	492.48
629.46	489.30
629.81	486.06
630.15	482.85
630.50	479.73
630.84	476.64
631.19	473.62
631.53	470.72
631.88	467.78
632.22	464.86
632.57	462.22
632.91	459.64
633.26	457.13
633.60	454.62
633.95	452.19
634.29	449.66
634.64	447.20
634.98	444.52
635.32	442.03
635.67	439.73
636.01	437.34
636.36	435.02
636.70	432.87
637.05	430.68
637.39	428.52
637.73	426.39
638.08	424.38
638.42	422.32
638.77	420.14
639.11	417.91
639.45	415.78
639.80	413.59
640.14	411.50
640.49	409.39
640.83	407.27
641.17	405.24
641.52	403.24
641.86	401.27
642.20	399.51
642.55	397.58
642.89	395.69
643.23	393.88
643.58	392.24
643.92	390.45
644.26	388.73
644.61	387.07
644.95	385.37
645.29	383.60
645.64	381.85
645.98	380.20
646.32	378.65
646.66	377.09
647.01	375.54
647.35	374.04
647.69	372.54
648.04	371.18
648.38	369.72
648.72	368.29
649.06	366.87
649.41	365.46
649.75	364.11
650.09	362.75
650.43	361.41
650.78	359.99
651.12	358.62
651.46	357.31
651.80	356.04
652.14	354.79
652.49	353.59
652.83	352.39
653.17	351.21
653.51	350.07
653.85	348.96
654.20	347.81
654.54	346.61
654.88	345.48
655.22	344.38
655.56	343.26
655.90	342.20
656.25	341.18
656.59	340.13
656.93	339.15
657.27	338.19
657.61	337.16
657.95	336.18
658.29	335.19
658.64	334.27
658.98	333.32
659.32	332.41
659.66	331.54
660.00	330.66
660.34	329.81
660.68	328.91
661.02	327.98
661.36	327.08
661.70	326.22
662.05	325.37
662.39	324.53
662.73	323.78
663.07	323.03
663.41	322.23
663.75	321.42
664.09	320.62
664.43	319.79
664.77	319.04
665.11	318.25
665.45	317.53
665.79	316.79
666.13	316.01
666.47	315.22
666.81	314.42
667.15	313.60
667.49	312.88
667.83	312.23
668.17	311.55
668.51	310.93
668.85	310.32
669.19	309.74
669.53	309.05
669.87	308.37
670.21	307.70
670.55	307.07
670.89	306.51
671.23	305.91
671.57	305.32
671.91	304.78
672.25	304.26
672.58	303.71
672.92	303.12
673.26	302.62
673.60	302.11
673.94	301.61
674.28	301.16
674.62	300.66
674.96	300.10
675.30	299.61
675.64	299.07
675.97	298.51
676.31	297.94
676.65	297.41
676.99	296.95
677.33	296.41
677.67	295.91
678.01	295.35
678.34	294.86
678.68	294.39
679.02	293.86
679.36	293.34
679.70	292.84
680.04	292.36
680.37	291.87
680.71	291.40
681.05	290.95
681.39	290.44
681.73	289.91
682.06	289.40
682.40	288.93
682.74	288.50
683.08	288.13
683.42	287.68
683.75	287.29
684.09	286.79
684.43	286.37
684.77	285.94
685.10	285.55
685.44	285.13
685.78	284.71
686.12	284.32
686.45	283.91
686.79	283.48
687.13	283.07
687.46	282.63
687.80	282.22
688.14	281.76
688.48	281.37
688.81	280.96
689.15	280.60
689.49	280.20
689.82	279.78
690.16	279.29
690.50	278.89
690.83	278.47
691.17	278.06
691.51	277.66
691.84	277.28
692.18	276.86
692.52	276.42
692.85	276.00
693.19	275.64
693.52	275.24
693.86	274.83
694.20	274.45
694.53	274.09
694.87	273.68
695.21	273.29
695.54	272.91
695.88	272.51
696.21	272.09
696.55	271.71
696.88	271.34
697.22	270.97
697.56	270.59
697.89	270.19
698.23	269.82
698.56	269.41
698.90	269.05
699.23	268.65
699.57	268.29
699.90	267.91
700.24	267.51
700.58	267.17
700.91	266.87
701.25	266.62
701.58	266.32
701.92	266.01
702.25	265.69
702.59	265.34
702.92	265.01
703.26	264.67
703.59	264.31
703.93	264.06
704.26	263.74
704.60	263.39
704.93	263.05
705.26	262.72
705.60	262.45
705.93	262.09
706.27	261.82
706.60	261.55
706.94	261.28
707.27	260.93
707.61	260.61
707.94	260.26
708.27	259.82
708.61	259.45
708.94	259.12
709.28	258.81
709.61	258.49
709.94	258.21
710.28	257.94
710.61	257.69
710.95	257.30
711.28	257.10
711.61	256.84
711.95	256.60
712.28	256.31
712.61	256.02
712.95	255.83
713.28	255.61
713.61	255.31
713.95	255.01
714.28	254.77
714.61	254.50
714.95	254.24
715.28	254.00
715.61	253.75
715.95	253.52
716.28	253.30
716.61	253.10
716.95	252.83
717.28	252.60
717.61	252.33
717.94	252.11
718.28	251.78
718.61	251.54
718.94	251.28
719.27	251.06
719.61	250.84
719.94	250.58
720.27	250.28
720.60	250.06
720.94	249.84
721.27	249.63
721.60	249.45
721.93	249.24
722.27	249.06
722.60	248.87
722.93	248.64
723.26	248.43
723.59	248.19
723.93	248.01
724.26	247.82
724.59	247.63
724.92	247.45
725.25	247.30
725.59	247.12
725.92	246.96
726.25	246.79
726.58	246.61
726.91	246.42
727.24	246.26
727.57	246.10
727.91	245.91
728.24	245.76
728.57	245.57
728.90	245.42
729.23	245.21
729.56	245.09
729.89	244.92
730.22	244.75
730.55	244.58
730.89	244.42
731.22	244.25
731.55	244.09
731.88	243.92
732.21	243.74
732.54	243.58
732.87	243.43
733.20	243.29
733.53	243.14
733.86	243.00
734.19	242.83
734.52	242.70
734.85	242.66
735.18	242.48
735.51	242.38
735.84	242.23
736.17	242.12
736.50	241.92
736.83	241.93
737.16	241.81
737.49	241.69
737.82	241.57
738.15	241.45
738.48	241.33
738.81	241.20
739.14	241.06
739.47	240.92
739.80	240.79
740.13	240.66
740.46	240.51
740.79	240.37
741.12	240.25
741.45	240.09
741.78	239.88
742.11	239.80
742.44	239.64
742.77	239.54
743.10	239.40
743.43	239.28
743.75	239.04
744.08	239.11
744.41	238.97
744.74	238.83
745.07	238.70
745.40	238.61
745.73	238.55
746.06	238.45
746.39	238.36
746.71	238.25
747.04	238.14
747.37	238.04
747.70	237.95
748.03	237.86
748.36	237.79
748.68	237.68
749.01	237.54
749.34	237.45
749.67	237.35
750.00	237.27
750.33	237.28
750.65	237.19
750.98	236.92
751.31	236.83
751.64	236.76
751.97	236.74
752.29	236.63
752.62	236.48
752.95	236.39
753.28	236.28
753.60	236.18
753.93	236.12
754.26	236.04
754.59	235.92
754.91	235.81
755.24	235.72
755.57	235.70
755.90	235.62
756.22	235.52
756.55	235.41
756.88	235.31
757.20	235.14
757.53	235.01
757.86	234.93
758.19	234.84
758.51	234.76
758.84	234.61
759.17	234.52
759.49	234.46
759.82	234.44
760.15	234.38
760.47	234.30
760.80	234.20
761.13	234.15
761.45	234.07
761.78	234.02
762.11	233.96
762.43	233.83
762.76	233.76
763.08	233.71
763.41	233.66
763.74	233.60
764.06	233.54
764.39	233.49
764.71	233.43
765.04	233.36
765.37	233.30
765.69	233.24
766.02	233.19
766.34	233.12
766.67	233.03
767.00	232.99
767.32	233.01
767.65	233.03
767.97	232.97
768.30	232.92
768.62	232.87
768.95	232.79
769.27	232.73
769.60	232.70
769.92	232.63
770.25	232.55
770.57	232.48
770.90	232.43
771.22	232.38
771.55	232.33
771.87	232.29
772.20	232.24
772.52	232.30
772.85	232.41
773.17	232.37
773.50	232.31
773.82	232.24
774.15	232.13
774.47	232.01
774.80	231.95
775.12	231.90
775.45	231.86
775.77	231.83
776.09	231.80
776.42	231.76
776.74	231.77
777.07	231.74
777.39	231.71
777.72	231.66
778.04	231.64
778.36	231.60
778.69	231.56
779.01	231.55
779.33	231.41
779.66	231.23
779.98	231.19
780.31	231.16
780.63	231.19
780.95	231.17
781.28	231.15
781.60	231.11
781.92	231.08
782.25	231.07
782.57	231.04
782.89	231.01
783.22	230.96
783.54	230.90
783.86	230.88
784.19	230.84
784.51	230.85
784.83	230.81
785.16	230.78
785.48	230.76
785.80	230.72
786.12	230.71
786.45	230.69
786.77	230.67
787.09	230.65
787.42	230.57
787.74	230.56
788.06	230.53
788.38	230.50
788.71	230.47
789.03	230.44
789.35	230.43
789.67	230.40
789.99	230.40
790.32	230.37
790.64	230.36
790.96	230.47
791.28	230.41
791.61	230.39
791.93	230.37
792.25	230.34
792.57	230.42
792.89	230.38
793.21	230.37
793.54	230.34
793.86	230.31
794.18	230.30
794.50	230.26
794.82	230.24
795.14	230.25
795.47	230.26
795.79	230.25
796.11	230.20
796.43	230.18
796.75	230.15
797.07	230.14
797.39	230.12
797.71	229.98
798.04	229.98
798.36	229.97
798.68	229.95
799.00	229.94
799.32	229.86
799.64	229.86
799.96	229.85
800.28	229.86
800.60	229.85
800.92	229.84
801.24	229.81
801.56	229.81
801.89	229.78
802.21	229.77
802.53	229.73
802.85	229.74
803.17	229.78
803.49	229.75
803.81	229.72
804.13	229.70
804.45	229.68
804.77	229.67
805.09	229.66
805.41	229.64
805.73	229.61
806.05	229.55
806.37	229.53
806.69	229.50
807.01	229.47
807.33	229.46
807.65	229.41
807.97	229.45
808.28	229.43
808.60	229.41
808.92	229.38
809.24	229.45
809.56	229.41
809.88	229.35
810.20	229.36
810.52	229.37
810.84	229.34
811.16	229.32
811.48	229.31
811.80	229.34
812.12	229.31
812.43	229.33
812.75	229.33
813.07	229.31
813.39	229.31
813.71	229.29
814.03	229.27
814.35	229.28
814.67	229.21
814.98	229.18
815.30	229.17
815.62	229.14
815.94	229.04
816.26	229.05
816.58	229.02
816.89	229.02
817.21	228.98
817.53	228.97
817.85	228.96
818.17	228.95
818.48	228.89
