SpectraSuite Data File
++++++++++++++++++++++++++++++++++++
Date: Fri Oct 02 18:08:18 EDT 2015
User: lab3
Dark Spectrum Present: No
Reference Spectrum Present: No
Number of Sampled Component Spectra: 1
Spectrometers: USB2E7196
Integration Time (usec): 46000 (USB2E7196)
Spectra Averaged: 1500 (USB2E7196)
Boxcar Smoothing: 10 (USB2E7196)
Correct for Electrical Dark: No (USB2E7196)
Strobe/Lamp Enabled: No (USB2E7196)
Correct for Detector Non-linearity: No (USB2E7196)
Correct for Stray Light: No (USB2E7196)
Number of Pixels in Processed Spectrum: 2048
>>>>>Begin Processed Spectral Data<<<<<
339.09	0.00
339.48	215.95
339.86	217.34
340.24	218.64
340.63	220.16
341.01	223.23
341.39	222.91
341.78	224.08
342.16	225.43
342.54	226.00
342.93	214.23
343.31	225.05
343.69	225.58
344.07	226.04
344.46	226.48
344.84	226.87
345.22	227.09
345.60	227.34
345.99	227.53
346.37	227.67
346.75	227.78
347.13	227.84
347.52	227.90
347.90	227.99
348.28	228.03
348.66	228.08
349.05	228.07
349.43	228.14
349.81	228.19
350.19	228.25
350.57	228.31
350.96	228.39
351.34	228.48
351.72	228.59
352.10	228.69
352.48	228.77
352.87	228.82
353.25	228.89
353.63	228.96
354.01	229.02
354.39	229.10
354.77	229.17
355.15	229.27
355.54	229.33
355.92	229.36
356.30	229.44
356.68	229.60
357.06	229.67
357.44	229.71
357.82	229.77
358.20	229.89
358.58	229.95
358.97	230.02
359.35	230.11
359.73	230.18
360.11	230.23
360.49	230.29
360.87	230.33
361.25	230.40
361.63	230.48
362.01	230.54
362.39	230.58
362.77	230.63
363.15	230.66
363.53	230.70
363.91	230.74
364.29	230.75
364.67	230.66
365.05	230.68
365.43	230.72
365.81	230.75
366.19	230.77
366.57	230.83
366.95	230.83
367.33	230.80
367.71	230.79
368.09	230.81
368.47	230.80
368.85	230.79
369.23	230.80
369.61	230.74
369.99	230.76
370.37	230.76
370.75	230.82
371.13	230.78
371.51	230.74
371.89	230.73
372.27	230.71
372.65	230.68
373.03	230.65
373.41	230.61
373.78	230.55
374.16	230.45
374.54	230.37
374.92	230.32
375.30	230.28
375.68	230.21
376.06	230.16
376.44	230.11
376.82	230.08
377.19	230.03
377.57	229.97
377.95	229.89
378.33	229.83
378.71	229.67
379.09	229.63
379.47	229.59
379.84	229.52
380.22	229.45
380.60	229.38
380.98	229.33
381.36	229.27
381.73	229.20
382.11	229.19
382.49	229.14
382.87	229.08
383.25	229.03
383.62	229.13
384.00	229.06
384.38	229.03
384.76	229.01
385.13	229.01
385.51	228.96
385.89	228.91
386.27	228.88
386.64	228.86
387.02	228.82
387.40	228.78
387.78	228.75
388.15	228.74
388.53	228.70
388.91	228.67
389.29	228.64
389.66	228.63
390.04	228.59
390.42	228.59
390.79	228.58
391.17	228.57
391.55	228.42
391.92	228.41
392.30	228.42
392.68	228.38
393.05	228.36
393.43	228.36
393.81	228.37
394.18	228.35
394.56	228.35
394.94	228.37
395.31	228.36
395.69	228.41
396.06	228.43
396.44	228.46
396.82	228.46
397.19	228.55
397.57	228.56
397.95	228.60
398.32	228.59
398.70	228.64
399.07	228.69
399.45	228.72
399.82	228.75
400.20	228.77
400.58	228.83
400.95	228.83
401.33	228.91
401.70	229.06
402.08	229.15
402.45	229.24
402.83	229.35
403.20	229.46
403.58	229.54
403.95	229.68
404.33	229.82
404.71	229.97
405.08	230.18
405.46	230.34
405.83	230.51
406.21	230.70
406.58	230.91
406.96	231.12
407.33	231.37
407.70	231.63
408.08	232.01
408.45	232.32
408.83	232.68
409.20	232.99
409.58	233.26
409.95	233.65
410.33	234.07
410.70	234.47
411.08	234.95
411.45	235.45
411.82	235.95
412.20	236.52
412.57	237.20
412.95	237.72
413.32	238.42
413.69	239.14
414.07	239.90
414.44	240.73
414.82	241.57
415.19	242.57
415.56	243.59
415.94	244.62
416.31	245.79
416.68	246.95
417.06	248.31
417.43	249.59
417.81	251.06
418.18	252.55
418.55	254.17
418.93	255.85
419.30	257.61
419.67	259.48
420.04	261.41
420.42	263.42
420.79	265.75
421.16	268.09
421.54	270.47
421.91	272.96
422.28	275.54
422.66	278.32
423.03	280.97
423.40	283.74
423.77	286.73
424.15	289.79
424.52	292.98
424.89	296.42
425.26	299.85
425.64	303.02
426.01	306.59
426.38	310.25
426.75	314.04
427.13	317.91
427.50	321.97
427.87	326.18
428.24	330.45
428.61	334.54
428.99	338.97
429.36	343.83
429.73	348.47
430.10	353.13
430.47	357.89
430.85	362.79
431.22	368.06
431.59	373.46
431.96	378.73
432.33	384.60
432.70	390.20
433.08	396.79
433.45	403.03
433.82	409.17
434.19	416.04
434.56	422.81
434.93	429.33
435.30	435.80
435.68	443.10
436.05	450.23
436.42	457.35
436.79	463.83
437.16	470.84
437.53	478.33
437.90	485.82
438.27	493.14
438.64	501.05
439.01	508.21
439.38	514.74
439.75	521.04
440.13	528.14
440.50	534.86
440.87	540.19
441.24	546.03
441.61	552.41
441.98	557.01
442.35	562.48
442.72	568.06
443.09	573.36
443.46	576.67
443.83	579.07
444.20	581.03
444.57	584.01
444.94	585.61
445.31	587.28
445.68	588.67
446.05	589.62
446.42	589.07
446.79	588.33
447.16	587.68
447.53	587.03
447.90	584.56
448.27	582.16
448.64	578.66
449.01	576.18
449.37	571.41
449.74	567.08
450.11	561.56
450.48	555.54
450.85	549.55
451.22	544.39
451.59	539.36
451.96	534.82
452.33	528.29
452.70	522.52
453.07	515.48
453.43	508.47
453.80	501.68
454.17	495.19
454.54	489.23
454.91	482.49
455.28	476.22
455.65	470.28
456.02	464.05
456.38	459.02
456.75	452.54
457.12	447.35
457.49	442.13
457.86	437.21
458.23	432.92
458.59	428.15
458.96	423.27
459.33	419.00
459.70	414.64
460.07	411.35
460.43	407.45
460.80	403.84
461.17	400.69
461.54	397.27
461.91	394.10
462.27	390.87
462.64	388.27
463.01	385.24
463.38	382.20
463.74	379.46
464.11	377.06
464.48	374.90
464.85	372.55
465.21	370.77
465.58	368.77
465.95	366.48
466.32	364.67
466.68	362.88
467.05	361.08
467.42	359.32
467.78	357.41
468.15	355.66
468.52	354.40
468.88	352.69
469.25	351.14
469.62	349.90
469.98	348.53
470.35	347.33
470.72	346.24
471.08	345.14
471.45	344.20
471.82	343.16
472.18	342.04
472.55	341.32
472.92	340.43
473.28	339.73
473.65	338.97
474.02	338.25
474.38	337.64
474.75	337.30
475.11	336.81
475.48	336.58
475.85	336.35
476.21	336.22
476.58	336.14
476.94	336.27
477.31	336.34
477.67	336.44
478.04	336.65
478.41	336.94
478.77	337.36
479.14	337.63
479.50	338.13
479.87	338.78
480.23	339.42
480.60	340.05
480.96	340.69
481.33	341.64
481.69	342.59
482.06	343.53
482.42	344.40
482.79	345.47
483.15	346.72
483.52	348.13
483.88	349.47
484.25	350.92
484.61	352.43
484.98	354.06
485.34	355.90
485.71	357.82
486.07	359.87
486.44	361.90
486.80	364.17
487.17	366.54
487.53	369.13
487.90	371.85
488.26	374.81
488.62	377.93
488.99	381.04
489.35	384.32
489.72	387.88
490.08	391.62
490.44	395.48
490.81	399.49
491.17	403.60
491.54	408.04
491.90	412.62
492.26	417.51
492.63	422.62
492.99	427.97
493.36	433.50
493.72	439.33
494.08	445.31
494.45	451.66
494.81	458.26
495.17	465.03
495.54	472.18
495.90	479.61
496.26	487.22
496.63	495.09
496.99	503.26
497.35	511.82
497.72	520.65
498.08	529.68
498.44	539.06
498.80	548.97
499.17	559.13
499.53	569.58
499.89	580.42
500.26	591.47
500.62	602.83
500.98	614.78
501.34	626.91
501.71	639.56
502.07	652.41
502.43	665.79
502.79	679.35
503.16	693.38
503.52	707.62
503.88	722.28
504.24	737.38
504.60	752.71
504.97	768.52
505.33	784.73
505.69	801.84
506.05	819.23
506.41	836.57
506.78	854.14
507.14	872.26
507.50	890.78
507.86	909.68
508.22	928.75
508.59	947.68
508.95	967.47
509.31	988.00
509.67	1009.13
510.03	1030.26
510.39	1051.57
510.75	1073.06
511.12	1094.84
511.48	1116.74
511.84	1138.73
512.20	1161.16
512.56	1184.42
512.92	1207.68
513.28	1230.62
513.64	1253.86
514.00	1277.52
514.37	1301.41
514.73	1325.38
515.09	1349.25
515.45	1373.50
515.81	1397.89
516.17	1422.48
516.53	1446.53
516.89	1470.47
517.25	1494.66
517.61	1518.83
517.97	1543.38
518.33	1567.43
518.69	1591.44
519.05	1616.05
519.41	1640.94
519.77	1665.84
520.13	1690.15
520.49	1714.42
520.85	1739.06
521.21	1763.13
521.57	1787.69
521.93	1811.83
522.29	1836.37
522.65	1860.51
523.01	1884.57
523.37	1908.27
523.73	1932.67
524.09	1956.86
524.45	1980.85
524.81	2004.43
525.17	2027.83
525.53	2050.68
525.89	2074.00
526.25	2097.34
526.61	2119.66
526.97	2142.13
527.33	2164.69
527.68	2186.81
528.04	2208.22
528.40	2228.64
528.76	2249.64
529.12	2269.93
529.48	2289.83
529.84	2308.12
530.20	2326.99
530.56	2345.30
530.91	2363.79
531.27	2381.90
531.63	2399.20
531.99	2416.12
532.35	2432.39
532.71	2448.69
533.07	2465.63
533.42	2480.87
533.78	2497.11
534.14	2513.50
534.50	2528.77
534.86	2543.91
535.21	2557.23
535.57	2571.05
535.93	2584.69
536.29	2597.04
536.65	2609.41
537.00	2621.18
537.36	2633.75
537.72	2644.74
538.08	2655.38
538.44	2665.45
538.79	2675.05
539.15	2683.78
539.51	2692.08
539.87	2699.67
540.22	2705.60
540.58	2711.62
540.94	2718.85
541.29	2724.24
541.65	2727.94
542.01	2731.21
542.37	2733.69
542.72	2737.55
543.08	2739.67
543.44	2742.36
543.79	2743.95
544.15	2744.69
544.51	2745.84
544.87	2745.86
545.22	2745.15
545.58	2743.83
545.94	2742.46
546.29	2739.80
546.65	2737.20
547.01	2734.62
547.36	2732.77
547.72	2730.71
548.07	2727.04
548.43	2721.78
548.79	2715.87
549.14	2711.21
549.50	2706.57
549.86	2701.11
550.21	2694.47
550.57	2688.80
550.92	2680.86
551.28	2673.61
551.64	2666.58
551.99	2658.99
552.35	2650.87
552.70	2643.10
553.06	2635.49
553.41	2627.21
553.77	2618.76
554.13	2610.16
554.48	2600.64
554.84	2590.00
555.19	2580.08
555.55	2570.02
555.90	2559.99
556.26	2550.43
556.61	2539.80
556.97	2527.53
557.32	2515.83
557.68	2503.98
558.03	2491.99
558.39	2481.11
558.74	2470.50
559.10	2458.21
559.45	2446.20
559.81	2434.76
560.16	2422.62
560.52	2410.69
560.87	2399.10
561.23	2386.66
561.58	2374.50
561.94	2361.90
562.29	2348.71
562.64	2336.22
563.00	2323.38
563.35	2311.10
563.71	2298.52
564.06	2285.75
564.42	2273.77
564.77	2261.09
565.12	2248.37
565.48	2235.58
565.83	2222.89
566.19	2210.11
566.54	2197.33
566.89	2183.40
567.25	2169.68
567.60	2157.24
567.96	2143.93
568.31	2129.34
568.66	2115.56
569.02	2102.74
569.37	2089.90
569.72	2077.61
570.08	2063.95
570.43	2050.05
570.78	2035.77
571.14	2020.92
571.49	2006.82
571.84	1993.24
572.20	1978.39
572.55	1963.90
572.90	1949.09
573.26	1934.27
573.61	1919.00
573.96	1904.17
574.31	1889.68
574.67	1875.04
575.02	1859.50
575.37	1844.06
575.72	1829.48
576.08	1815.11
576.43	1799.59
576.78	1784.53
577.13	1769.80
577.49	1755.39
577.84	1741.52
578.19	1726.75
578.54	1712.18
578.90	1697.12
579.25	1681.94
579.60	1668.38
579.95	1654.53
580.30	1640.63
580.66	1626.48
581.01	1612.22
581.36	1598.02
581.71	1584.80
582.06	1571.43
582.42	1558.29
582.77	1545.14
583.12	1531.87
583.47	1518.56
583.82	1505.33
584.17	1491.77
584.53	1477.79
584.88	1464.22
585.23	1450.19
585.58	1437.10
585.93	1424.22
586.28	1412.04
586.63	1399.90
586.98	1387.16
587.34	1374.54
587.69	1361.70
588.04	1349.14
588.39	1337.05
588.74	1324.99
589.09	1312.72
589.44	1300.08
589.79	1288.10
590.14	1276.18
590.49	1264.28
590.84	1252.44
591.19	1241.10
591.54	1229.52
591.89	1218.10
592.25	1206.82
592.60	1195.28
592.95	1184.08
593.30	1173.03
593.65	1161.69
594.00	1150.40
594.35	1139.77
594.70	1128.78
595.05	1118.65
595.40	1108.42
595.75	1097.96
596.10	1088.10
596.45	1077.85
596.80	1067.96
597.15	1057.90
597.50	1047.98
597.85	1038.41
598.19	1028.72
598.54	1019.07
598.89	1009.87
599.24	1001.00
599.59	991.99
599.94	983.87
600.29	975.49
600.64	966.84
600.99	957.83
601.34	949.24
601.69	940.34
602.04	932.04
602.39	923.59
602.74	915.13
603.08	906.73
603.43	898.26
603.78	890.00
604.13	881.95
604.48	873.78
604.83	865.82
605.18	857.80
605.53	849.90
605.87	841.80
606.22	834.11
606.57	826.32
606.92	818.39
607.27	810.37
607.62	802.80
607.96	795.60
608.31	788.84
608.66	781.86
609.01	775.16
609.36	768.60
609.70	761.73
610.05	754.93
610.40	748.35
610.75	741.78
611.10	735.54
611.44	729.14
611.79	722.84
612.14	716.48
612.49	710.22
612.83	704.28
613.18	698.47
613.53	692.51
613.88	686.62
614.22	681.18
614.57	675.61
614.92	669.84
615.27	664.26
615.61	658.69
615.96	653.22
616.31	647.75
616.65	642.33
617.00	637.19
617.35	632.13
617.70	627.11
618.04	622.07
618.39	617.01
618.74	612.23
619.08	607.48
619.43	602.83
619.78	598.22
620.12	593.53
620.47	589.05
620.82	584.65
621.16	580.23
621.51	575.70
621.85	571.28
622.20	567.05
622.55	562.78
622.89	558.60
623.24	554.41
623.59	550.30
623.93	546.34
624.28	542.42
624.62	538.62
624.97	534.87
625.32	531.15
625.66	527.35
626.01	523.49
626.35	519.70
626.70	515.99
627.04	512.42
627.39	508.84
627.73	505.40
628.08	502.04
628.43	498.71
628.77	495.47
629.12	492.32
629.46	489.14
629.81	485.90
630.15	482.68
630.50	479.56
630.84	476.48
631.19	473.46
631.53	470.57
631.88	467.63
632.22	464.71
632.57	462.07
632.91	459.47
633.26	456.95
633.60	454.47
633.95	452.05
634.29	449.50
634.64	447.04
634.98	444.37
635.32	441.88
635.67	439.58
636.01	437.18
636.36	434.85
636.70	432.72
637.05	430.55
637.39	428.41
637.73	426.29
638.08	424.27
638.42	422.21
638.77	420.03
639.11	417.80
639.45	415.67
639.80	413.47
640.14	411.40
640.49	409.29
640.83	407.16
641.17	405.12
641.52	403.12
641.86	401.14
642.20	399.39
642.55	397.47
642.89	395.57
643.23	393.76
643.58	392.13
643.92	390.33
644.26	388.61
644.61	386.95
644.95	385.24
645.29	383.47
645.64	381.73
645.98	380.08
646.32	378.54
646.66	376.98
647.01	375.44
647.35	373.94
647.69	372.45
648.04	371.09
648.38	369.63
648.72	368.22
649.06	366.80
649.41	365.39
649.75	364.03
650.09	362.68
650.43	361.35
650.78	359.95
651.12	358.60
651.46	357.28
651.80	356.01
652.14	354.77
652.49	353.57
652.83	352.36
653.17	351.18
653.51	350.05
653.85	348.95
654.20	347.80
654.54	346.58
654.88	345.46
655.22	344.34
655.56	343.23
655.90	342.16
656.25	341.13
656.59	340.08
656.93	339.10
657.27	338.13
657.61	337.11
657.95	336.12
658.29	335.14
658.64	334.21
658.98	333.27
659.32	332.35
659.66	331.47
660.00	330.62
660.34	329.75
660.68	328.84
661.02	327.91
661.36	327.01
661.70	326.16
662.05	325.31
662.39	324.48
662.73	323.73
663.07	322.98
663.41	322.18
663.75	321.37
664.09	320.57
664.43	319.73
664.77	318.97
665.11	318.18
665.45	317.45
665.79	316.72
666.13	315.94
666.47	315.16
666.81	314.36
667.15	313.53
667.49	312.82
667.83	312.17
668.17	311.50
668.51	310.88
668.85	310.26
669.19	309.68
669.53	309.00
669.87	308.31
670.21	307.64
670.55	307.02
670.89	306.47
671.23	305.88
671.57	305.30
671.91	304.76
672.25	304.24
672.58	303.71
672.92	303.10
673.26	302.59
673.60	302.09
673.94	301.59
674.28	301.13
674.62	300.62
674.96	300.07
675.30	299.56
675.64	299.01
675.97	298.47
676.31	297.89
676.65	297.37
676.99	296.91
677.33	296.38
677.67	295.88
678.01	295.31
678.34	294.81
678.68	294.34
679.02	293.81
679.36	293.30
679.70	292.78
680.04	292.32
680.37	291.83
680.71	291.36
681.05	290.92
681.39	290.41
681.73	289.89
682.06	289.38
682.40	288.91
682.74	288.50
683.08	288.13
683.42	287.68
683.75	287.26
684.09	286.78
684.43	286.36
684.77	285.92
685.10	285.55
685.44	285.13
685.78	284.71
686.12	284.32
686.45	283.91
686.79	283.47
687.13	283.07
687.46	282.63
687.80	282.22
688.14	281.76
688.48	281.38
688.81	280.97
689.15	280.62
689.49	280.20
689.82	279.78
690.16	279.29
690.50	278.89
690.83	278.49
691.17	278.07
691.51	277.67
691.84	277.29
692.18	276.85
692.52	276.43
692.85	276.01
693.19	275.64
693.52	275.25
693.86	274.85
694.20	274.46
694.53	274.09
694.87	273.68
695.21	273.29
695.54	272.88
695.88	272.49
696.21	272.06
696.55	271.68
696.88	271.30
697.22	270.93
697.56	270.56
697.89	270.15
698.23	269.77
698.56	269.38
698.90	269.01
699.23	268.62
699.57	268.24
699.90	267.87
700.24	267.47
700.58	267.13
700.91	266.82
701.25	266.58
701.58	266.29
701.92	265.97
702.25	265.63
702.59	265.29
702.92	264.96
703.26	264.62
703.59	264.27
703.93	264.03
704.26	263.70
704.60	263.36
704.93	263.03
705.26	262.69
705.60	262.41
705.93	262.05
706.27	261.77
706.60	261.51
706.94	261.22
707.27	260.88
707.61	260.55
707.94	260.21
708.27	259.77
708.61	259.42
708.94	259.09
709.28	258.78
709.61	258.49
709.94	258.21
710.28	257.94
710.61	257.69
710.95	257.31
711.28	257.10
711.61	256.83
711.95	256.58
712.28	256.31
712.61	256.00
712.95	255.81
713.28	255.61
713.61	255.30
713.95	255.01
714.28	254.76
714.61	254.50
714.95	254.24
715.28	254.00
715.61	253.75
715.95	253.51
716.28	253.29
716.61	253.08
716.95	252.84
717.28	252.59
717.61	252.33
717.94	252.10
718.28	251.78
718.61	251.54
718.94	251.30
719.27	251.07
719.61	250.88
719.94	250.62
720.27	250.32
720.60	250.11
720.94	249.89
721.27	249.69
721.60	249.49
721.93	249.27
722.27	249.09
722.60	248.90
722.93	248.69
723.26	248.47
723.59	248.23
723.93	248.03
724.26	247.85
724.59	247.65
724.92	247.47
725.25	247.33
725.59	247.13
725.92	246.97
726.25	246.79
726.58	246.60
726.91	246.41
727.24	246.24
727.57	246.06
727.91	245.88
728.24	245.72
728.57	245.55
728.90	245.39
729.23	245.19
729.56	245.06
729.89	244.89
730.22	244.73
730.55	244.57
730.89	244.40
731.22	244.23
731.55	244.07
731.88	243.91
732.21	243.74
732.54	243.58
732.87	243.43
733.20	243.29
733.53	243.14
733.86	243.01
734.19	242.84
734.52	242.70
734.85	242.65
735.18	242.47
735.51	242.35
735.84	242.21
736.17	242.11
736.50	241.91
736.83	241.91
737.16	241.78
737.49	241.66
737.82	241.53
738.15	241.42
738.48	241.29
738.81	241.16
739.14	241.01
739.47	240.87
739.80	240.74
740.13	240.60
740.46	240.47
740.79	240.32
741.12	240.19
741.45	240.05
741.78	239.84
742.11	239.75
742.44	239.61
742.77	239.50
743.10	239.37
743.43	239.25
743.75	239.01
744.08	239.08
744.41	238.95
744.74	238.83
745.07	238.68
745.40	238.59
745.73	238.53
746.06	238.43
746.39	238.34
746.71	238.22
747.04	238.10
747.37	238.01
747.70	237.94
748.03	237.85
748.36	237.77
748.68	237.68
749.01	237.55
749.34	237.45
749.67	237.36
750.00	237.27
750.33	237.27
750.65	237.18
750.98	236.90
751.31	236.81
751.64	236.73
751.97	236.71
752.29	236.61
752.62	236.46
752.95	236.36
753.28	236.25
753.60	236.16
753.93	236.10
754.26	236.02
754.59	235.88
754.91	235.78
755.24	235.68
755.57	235.66
755.90	235.57
756.22	235.47
756.55	235.36
756.88	235.26
757.20	235.09
757.53	234.98
757.86	234.89
758.19	234.81
758.51	234.73
758.84	234.59
759.17	234.50
759.49	234.43
759.82	234.42
760.15	234.36
760.47	234.29
760.80	234.18
761.13	234.12
761.45	234.06
761.78	234.00
762.11	233.93
762.43	233.80
762.76	233.74
763.08	233.69
763.41	233.63
763.74	233.57
764.06	233.51
764.39	233.45
764.71	233.40
765.04	233.33
765.37	233.27
765.69	233.21
766.02	233.15
766.34	233.09
766.67	232.98
767.00	232.94
767.32	232.96
767.65	232.99
767.97	232.92
768.30	232.87
768.62	232.82
768.95	232.76
769.27	232.70
769.60	232.67
769.92	232.60
770.25	232.53
770.57	232.46
770.90	232.41
771.22	232.36
771.55	232.31
771.87	232.27
772.20	232.22
772.52	232.28
772.85	232.39
773.17	232.35
773.50	232.30
773.82	232.24
774.15	232.13
774.47	232.01
774.80	231.96
775.12	231.92
775.45	231.88
775.77	231.85
776.09	231.82
776.42	231.78
776.74	231.78
777.07	231.75
777.39	231.73
777.72	231.69
778.04	231.67
778.36	231.63
778.69	231.59
779.01	231.56
779.33	231.42
779.66	231.24
779.98	231.21
780.31	231.19
780.63	231.21
780.95	231.20
781.28	231.17
781.60	231.14
781.92	231.12
782.25	231.09
782.57	231.05
782.89	231.02
783.22	230.98
783.54	230.93
783.86	230.92
784.19	230.88
784.51	230.88
784.83	230.84
785.16	230.81
785.48	230.79
785.80	230.77
786.12	230.76
786.45	230.74
786.77	230.72
787.09	230.69
787.42	230.63
787.74	230.61
788.06	230.59
788.38	230.56
788.71	230.53
789.03	230.50
789.35	230.51
789.67	230.47
789.99	230.46
790.32	230.43
790.64	230.42
790.96	230.52
791.28	230.45
791.61	230.42
791.93	230.41
792.25	230.39
792.57	230.45
792.89	230.41
793.21	230.39
793.54	230.36
793.86	230.33
794.18	230.31
794.50	230.27
794.82	230.25
795.14	230.25
795.47	230.25
795.79	230.23
796.11	230.18
796.43	230.16
796.75	230.14
797.07	230.12
797.39	230.10
797.71	229.97
798.04	229.97
798.36	229.95
798.68	229.93
799.00	229.92
799.32	229.84
799.64	229.85
799.96	229.83
800.28	229.83
800.60	229.81
800.92	229.79
801.24	229.77
801.56	229.77
801.89	229.74
802.21	229.73
802.53	229.69
802.85	229.70
803.17	229.74
803.49	229.70
803.81	229.67
804.13	229.65
804.45	229.61
804.77	229.61
805.09	229.60
805.41	229.58
805.73	229.55
806.05	229.50
806.37	229.48
806.69	229.46
807.01	229.43
807.33	229.42
807.65	229.35
807.97	229.39
808.28	229.36
808.60	229.35
808.92	229.32
809.24	229.39
809.56	229.36
809.88	229.30
810.20	229.30
810.52	229.31
810.84	229.28
811.16	229.26
811.48	229.23
811.80	229.27
812.12	229.25
812.43	229.26
812.75	229.26
813.07	229.23
813.39	229.22
813.71	229.20
814.03	229.19
814.35	229.20
814.67	229.14
814.98	229.11
815.30	229.09
815.62	229.06
815.94	228.97
816.26	228.97
816.58	228.94
816.89	228.93
817.21	228.90
817.53	228.91
817.85	228.91
818.17	228.91
818.48	228.84
