SpectraSuite Data File
++++++++++++++++++++++++++++++++++++
Date: Fri Oct 02 19:22:31 EDT 2015
User: lab3
Dark Spectrum Present: No
Reference Spectrum Present: No
Number of Sampled Component Spectra: 1
Spectrometers: USB2E7196
Integration Time (usec): 46000 (USB2E7196)
Spectra Averaged: 4500 (USB2E7196)
Boxcar Smoothing: 10 (USB2E7196)
Correct for Electrical Dark: No (USB2E7196)
Strobe/Lamp Enabled: No (USB2E7196)
Correct for Detector Non-linearity: No (USB2E7196)
Correct for Stray Light: No (USB2E7196)
Number of Pixels in Processed Spectrum: 2048
>>>>>Begin Processed Spectral Data<<<<<
339.09	0.00
339.48	215.23
339.86	216.69
340.24	218.05
340.63	219.46
341.01	222.79
341.39	222.23
341.78	223.52
342.16	224.80
342.54	225.19
342.93	213.60
343.31	224.40
343.69	224.93
344.07	225.40
344.46	225.83
344.84	226.22
345.22	226.44
345.60	226.69
345.99	226.89
346.37	227.02
346.75	227.13
347.13	227.20
347.52	227.27
347.90	227.36
348.28	227.40
348.66	227.46
349.05	227.45
349.43	227.51
349.81	227.57
350.19	227.62
350.57	227.68
350.96	227.76
351.34	227.86
351.72	227.95
352.10	228.05
352.48	228.12
352.87	228.17
353.25	228.23
353.63	228.30
354.01	228.36
354.39	228.44
354.77	228.52
355.15	228.62
355.54	228.67
355.92	228.70
356.30	228.77
356.68	228.92
357.06	229.00
357.44	229.04
357.82	229.10
358.20	229.22
358.58	229.28
358.97	229.34
359.35	229.42
359.73	229.51
360.11	229.56
360.49	229.61
360.87	229.66
361.25	229.73
361.63	229.81
362.01	229.87
362.39	229.90
362.77	229.94
363.15	229.96
363.53	229.99
363.91	230.03
364.29	230.05
364.67	229.95
365.05	229.97
365.43	230.01
365.81	230.04
366.19	230.05
366.57	230.11
366.95	230.11
367.33	230.08
367.71	230.07
368.09	230.10
368.47	230.09
368.85	230.08
369.23	230.09
369.61	230.02
369.99	230.04
370.37	230.04
370.75	230.11
371.13	230.08
371.51	230.03
371.89	230.02
372.27	229.99
372.65	229.97
373.03	229.93
373.41	229.89
373.78	229.84
374.16	229.73
374.54	229.65
374.92	229.60
375.30	229.57
375.68	229.50
376.06	229.45
376.44	229.40
376.82	229.36
377.19	229.31
377.57	229.27
377.95	229.18
378.33	229.12
378.71	228.96
379.09	228.91
379.47	228.88
379.84	228.82
380.22	228.76
380.60	228.69
380.98	228.64
381.36	228.59
381.73	228.52
382.11	228.50
382.49	228.46
382.87	228.40
383.25	228.35
383.62	228.45
384.00	228.38
384.38	228.35
384.76	228.34
385.13	228.33
385.51	228.28
385.89	228.23
386.27	228.19
386.64	228.17
387.02	228.13
387.40	228.08
387.78	228.06
388.15	228.03
388.53	228.00
388.91	227.97
389.29	227.94
389.66	227.93
390.04	227.89
390.42	227.89
390.79	227.88
391.17	227.86
391.55	227.71
391.92	227.70
392.30	227.69
392.68	227.66
393.05	227.64
393.43	227.64
393.81	227.65
394.18	227.63
394.56	227.64
394.94	227.67
395.31	227.67
395.69	227.71
396.06	227.74
396.44	227.77
396.82	227.78
397.19	227.87
397.57	227.88
397.95	227.93
398.32	227.92
398.70	227.96
399.07	228.02
399.45	228.06
399.82	228.11
400.20	228.14
400.58	228.20
400.95	228.21
401.33	228.29
401.70	228.44
402.08	228.54
402.45	228.61
402.83	228.73
403.20	228.84
403.58	228.93
403.95	229.07
404.33	229.21
404.71	229.35
405.08	229.55
405.46	229.71
405.83	229.88
406.21	230.07
406.58	230.28
406.96	230.48
407.33	230.72
407.70	230.99
408.08	231.37
408.45	231.69
408.83	232.03
409.20	232.35
409.58	232.62
409.95	233.01
410.33	233.44
410.70	233.83
411.08	234.29
411.45	234.79
411.82	235.29
412.20	235.86
412.57	236.55
412.95	237.08
413.32	237.79
413.69	238.50
414.07	239.27
414.44	240.10
414.82	240.94
415.19	241.94
415.56	242.94
415.94	243.98
416.31	245.14
416.68	246.32
417.06	247.67
417.43	248.95
417.81	250.42
418.18	251.91
418.55	253.54
418.93	255.23
419.30	257.00
419.67	258.88
420.04	260.80
420.42	262.81
420.79	265.14
421.16	267.48
421.54	269.87
421.91	272.36
422.28	274.95
422.66	277.74
423.03	280.40
423.40	283.18
423.77	286.17
424.15	289.23
424.52	292.43
424.89	295.89
425.26	299.32
425.64	302.51
426.01	306.10
426.38	309.77
426.75	313.55
427.13	317.44
427.50	321.50
427.87	325.73
428.24	329.99
428.61	334.09
428.99	338.52
429.36	343.39
429.73	348.04
430.10	352.70
430.47	357.48
430.85	362.39
431.22	367.66
431.59	373.09
431.96	378.38
432.33	384.25
432.70	389.85
433.08	396.46
433.45	402.72
433.82	408.89
434.19	415.79
434.56	422.59
434.93	429.15
435.30	435.65
435.68	442.99
436.05	450.17
436.42	457.32
436.79	463.86
437.16	470.91
437.53	478.44
437.90	485.98
438.27	493.34
438.64	501.29
439.01	508.50
439.38	515.09
439.75	521.44
440.13	528.59
440.50	535.38
440.87	540.75
441.24	546.63
441.61	553.05
441.98	557.71
442.35	563.23
442.72	568.85
443.09	574.18
443.46	577.51
443.83	579.92
444.20	581.89
444.57	584.90
444.94	586.53
445.31	588.23
445.68	589.63
446.05	590.61
446.42	590.06
446.79	589.32
447.16	588.64
447.53	588.00
447.90	585.48
448.27	583.06
448.64	579.53
449.01	577.01
449.37	572.18
449.74	567.80
450.11	562.24
450.48	556.17
450.85	550.12
451.22	544.93
451.59	539.87
451.96	535.29
452.33	528.70
452.70	522.86
453.07	515.77
453.43	508.71
453.80	501.86
454.17	495.33
454.54	489.33
454.91	482.56
455.28	476.23
455.65	470.27
456.02	463.99
456.38	458.94
456.75	452.44
457.12	447.22
457.49	441.96
457.86	437.00
458.23	432.68
458.59	427.89
458.96	422.98
459.33	418.68
459.70	414.30
460.07	410.99
460.43	407.09
460.80	403.45
461.17	400.29
461.54	396.87
461.91	393.67
462.27	390.42
462.64	387.81
463.01	384.78
463.38	381.74
463.74	378.98
464.11	376.56
464.48	374.39
464.85	372.03
465.21	370.25
465.58	368.25
465.95	365.95
466.32	364.13
466.68	362.34
467.05	360.53
467.42	358.77
467.78	356.86
468.15	355.11
468.52	353.84
468.88	352.12
469.25	350.56
469.62	349.32
469.98	347.96
470.35	346.75
470.72	345.66
471.08	344.54
471.45	343.61
471.82	342.57
472.18	341.46
472.55	340.75
472.92	339.85
473.28	339.15
473.65	338.39
474.02	337.67
474.38	337.07
474.75	336.72
475.11	336.24
475.48	336.01
475.85	335.76
476.21	335.63
476.58	335.54
476.94	335.67
477.31	335.73
477.67	335.82
478.04	336.02
478.41	336.30
478.77	336.72
479.14	336.97
479.50	337.47
479.87	338.11
480.23	338.75
480.60	339.38
480.96	340.02
481.33	340.96
481.69	341.90
482.06	342.83
482.42	343.68
482.79	344.75
483.15	345.98
483.52	347.39
483.88	348.73
484.25	350.18
484.61	351.69
484.98	353.32
485.34	355.15
485.71	357.06
486.07	359.10
486.44	361.13
486.80	363.41
487.17	365.77
487.53	368.36
487.90	371.07
488.26	374.03
488.62	377.15
488.99	380.27
489.35	383.55
489.72	387.12
490.08	390.87
490.44	394.74
490.81	398.76
491.17	402.90
491.54	407.34
491.90	411.92
492.26	416.82
492.63	421.95
492.99	427.31
493.36	432.86
493.72	438.71
494.08	444.69
494.45	451.05
494.81	457.64
495.17	464.42
495.54	471.58
495.90	479.03
496.26	486.65
496.63	494.52
496.99	502.70
497.35	511.26
497.72	520.10
498.08	529.14
498.44	538.51
498.80	548.43
499.17	558.59
499.53	569.07
499.89	579.92
500.26	590.99
500.62	602.35
500.98	614.33
501.34	626.49
501.71	639.16
502.07	652.03
502.43	665.44
502.79	679.06
503.16	693.12
503.52	707.39
503.88	722.09
504.24	737.21
504.60	752.55
504.97	768.38
505.33	784.61
505.69	801.73
506.05	819.18
506.41	836.56
506.78	854.16
507.14	872.27
507.50	890.81
507.86	909.70
508.22	928.84
508.59	947.84
508.95	967.63
509.31	988.14
509.67	1009.33
510.03	1030.50
510.39	1051.78
510.75	1073.26
511.12	1094.99
511.48	1116.88
511.84	1138.90
512.20	1161.31
512.56	1184.58
512.92	1207.88
513.28	1230.85
513.64	1254.09
514.00	1277.77
514.37	1301.72
514.73	1325.71
515.09	1349.61
515.45	1373.87
515.81	1398.26
516.17	1422.81
516.53	1446.92
516.89	1470.92
517.25	1495.11
517.61	1519.23
517.97	1543.82
518.33	1567.94
518.69	1592.02
519.05	1616.62
519.41	1641.47
519.77	1666.56
520.13	1690.92
520.49	1715.26
520.85	1739.91
521.21	1764.11
521.57	1788.70
521.93	1812.87
522.29	1837.50
522.65	1861.64
523.01	1885.73
523.37	1909.48
523.73	1933.96
524.09	1958.17
524.45	1982.20
524.81	2005.86
525.17	2029.36
525.53	2052.34
525.89	2075.76
526.25	2099.15
526.61	2121.52
526.97	2144.09
527.33	2166.59
527.68	2188.85
528.04	2210.31
528.40	2230.90
528.76	2251.82
529.12	2272.26
529.48	2292.30
529.84	2310.62
530.20	2329.59
530.56	2347.98
530.91	2366.52
531.27	2384.72
531.63	2402.09
531.99	2419.04
532.35	2435.38
532.71	2451.84
533.07	2468.92
533.42	2484.24
533.78	2500.55
534.14	2517.08
534.50	2532.65
534.86	2547.99
535.21	2561.44
535.57	2575.37
535.93	2589.09
536.29	2601.64
536.65	2614.07
537.00	2625.89
537.36	2638.60
537.72	2649.81
538.08	2660.57
538.44	2670.69
538.79	2680.41
539.15	2689.31
539.51	2697.79
539.87	2705.63
540.22	2711.51
540.58	2717.47
540.94	2724.63
541.29	2730.26
541.65	2734.19
542.01	2737.37
542.37	2739.87
542.72	2743.71
543.08	2745.89
543.44	2748.67
543.79	2750.36
544.15	2751.20
544.51	2752.47
544.87	2752.63
545.22	2752.11
545.58	2750.90
545.94	2749.66
546.29	2747.05
546.65	2744.46
547.01	2741.88
547.36	2739.99
547.72	2738.22
548.07	2734.69
548.43	2729.69
548.79	2723.74
549.14	2719.01
549.50	2714.58
549.86	2709.23
550.21	2702.73
550.57	2697.13
550.92	2689.22
551.28	2681.89
551.64	2674.88
551.99	2667.37
552.35	2659.18
552.70	2651.25
553.06	2643.62
553.41	2635.37
553.77	2626.96
554.13	2618.48
554.48	2609.07
554.84	2598.43
555.19	2588.27
555.55	2578.18
555.90	2568.14
556.26	2558.60
556.61	2547.98
556.97	2535.66
557.32	2523.88
557.68	2512.07
558.03	2499.98
558.39	2489.11
558.74	2478.52
559.10	2466.20
559.45	2454.09
559.81	2442.63
560.16	2430.46
560.52	2418.55
560.87	2406.98
561.23	2394.54
561.58	2382.21
561.94	2369.54
562.29	2356.33
562.64	2343.82
563.00	2330.99
563.35	2318.56
563.71	2305.93
564.06	2293.14
564.42	2281.12
564.77	2268.49
565.12	2255.68
565.48	2242.90
565.83	2230.04
566.19	2217.31
566.54	2204.52
566.89	2190.63
567.25	2176.82
567.60	2164.43
567.96	2151.08
568.31	2136.35
568.66	2122.39
569.02	2109.60
569.37	2096.72
569.72	2084.37
570.08	2070.70
570.43	2056.71
570.78	2042.52
571.14	2027.64
571.49	2013.45
571.84	1999.79
572.20	1984.86
572.55	1970.20
572.90	1955.46
573.26	1940.71
573.61	1925.44
573.96	1910.61
574.31	1896.00
574.67	1881.47
575.02	1865.85
575.37	1850.37
575.72	1835.75
576.08	1821.43
576.43	1805.89
576.78	1790.83
577.13	1776.03
577.49	1761.56
577.84	1747.67
578.19	1732.86
578.54	1718.22
578.90	1703.05
579.25	1687.78
579.60	1674.15
579.95	1660.39
580.30	1646.42
580.66	1632.23
581.01	1617.96
581.36	1603.61
581.71	1590.31
582.06	1576.90
582.42	1563.76
582.77	1550.62
583.12	1537.43
583.47	1524.12
583.82	1510.92
584.17	1497.37
584.53	1483.48
584.88	1470.01
585.23	1456.09
585.58	1442.99
585.93	1430.09
586.28	1417.94
586.63	1405.80
586.98	1393.16
587.34	1380.58
587.69	1367.69
588.04	1355.16
588.39	1342.99
588.74	1331.00
589.09	1318.74
589.44	1306.06
589.79	1294.00
590.14	1282.08
590.49	1270.07
590.84	1258.21
591.19	1246.76
591.54	1235.12
591.89	1223.63
592.25	1212.29
592.60	1200.61
592.95	1189.35
593.30	1178.30
593.65	1166.95
594.00	1155.69
594.35	1144.95
594.70	1133.81
595.05	1123.57
595.40	1113.21
595.75	1102.73
596.10	1092.78
596.45	1082.58
596.80	1072.70
597.15	1062.56
597.50	1052.57
597.85	1043.02
598.19	1033.29
598.54	1023.59
598.89	1014.37
599.24	1005.46
599.59	996.35
599.94	988.20
600.29	979.83
600.64	971.16
600.99	962.10
601.34	953.44
601.69	944.48
602.04	936.19
602.39	927.74
602.74	919.32
603.08	910.85
603.43	902.35
603.78	894.04
604.13	885.89
604.48	877.73
604.83	869.74
605.18	861.67
605.53	853.77
605.87	845.67
606.22	837.89
606.57	830.04
606.92	822.10
607.27	814.08
607.62	806.36
607.96	799.09
608.31	792.29
608.66	785.27
609.01	778.54
609.36	771.89
609.70	765.02
610.05	758.12
610.40	751.51
610.75	744.87
611.10	738.57
611.44	732.10
611.79	725.76
612.14	719.34
612.49	713.02
612.83	706.98
613.18	701.08
613.53	695.08
613.88	689.12
614.22	683.59
614.57	677.97
614.92	672.20
615.27	666.56
615.61	660.96
615.96	655.43
616.31	649.91
616.65	644.44
617.00	639.20
617.35	634.08
617.70	628.99
618.04	623.94
618.39	618.83
618.74	613.98
619.08	609.16
619.43	604.47
619.78	599.78
620.12	595.05
620.47	590.50
620.82	586.07
621.16	581.66
621.51	577.12
621.85	572.64
622.20	568.33
622.55	564.03
622.89	559.82
623.24	555.59
623.59	551.41
623.93	547.42
624.28	543.50
624.62	539.67
624.97	535.88
625.32	532.09
625.66	528.24
626.01	524.34
626.35	520.53
626.70	516.76
627.04	513.18
627.39	509.55
627.73	506.09
628.08	502.69
628.43	499.30
628.77	496.00
629.12	492.81
629.46	489.64
629.81	486.38
630.15	483.13
630.50	479.99
630.84	476.88
631.19	473.83
631.53	470.89
631.88	467.92
632.22	464.96
632.57	462.30
632.91	459.68
633.26	457.15
633.60	454.64
633.95	452.18
634.29	449.65
634.64	447.18
634.98	444.51
635.32	441.99
635.67	439.67
636.01	437.27
636.36	434.93
636.70	432.73
637.05	430.53
637.39	428.36
637.73	426.20
638.08	424.17
638.42	422.11
638.77	419.91
639.11	417.66
639.45	415.51
639.80	413.27
640.14	411.15
640.49	409.01
640.83	406.85
641.17	404.78
641.52	402.76
641.86	400.76
642.20	398.98
642.55	397.03
642.89	395.11
643.23	393.28
643.58	391.61
643.92	389.82
644.26	388.09
644.61	386.42
644.95	384.71
645.29	382.92
645.64	381.15
645.98	379.48
646.32	377.92
646.66	376.36
647.01	374.81
647.35	373.30
647.69	371.78
648.04	370.41
648.38	368.94
648.72	367.48
649.06	366.04
649.41	364.61
649.75	363.23
650.09	361.87
650.43	360.51
650.78	359.09
651.12	357.72
651.46	356.39
651.80	355.10
652.14	353.83
652.49	352.60
652.83	351.36
653.17	350.17
653.51	349.00
653.85	347.89
654.20	346.74
654.54	345.50
654.88	344.37
655.22	343.24
655.56	342.10
655.90	341.04
656.25	340.01
656.59	338.95
656.93	337.96
657.27	336.98
657.61	335.95
657.95	334.96
658.29	333.96
658.64	333.01
658.98	332.05
659.32	331.12
659.66	330.24
660.00	329.37
660.34	328.51
660.68	327.60
661.02	326.65
661.36	325.74
661.70	324.88
662.05	324.03
662.39	323.20
662.73	322.45
663.07	321.69
663.41	320.88
663.75	320.08
664.09	319.28
664.43	318.44
664.77	317.69
665.11	316.89
665.45	316.15
665.79	315.43
666.13	314.67
666.47	313.90
666.81	313.11
667.15	312.30
667.49	311.58
667.83	310.93
668.17	310.26
668.51	309.63
668.85	309.04
669.19	308.46
669.53	307.78
669.87	307.09
670.21	306.42
670.55	305.80
670.89	305.25
671.23	304.64
671.57	304.06
671.91	303.52
672.25	303.00
672.58	302.48
672.92	301.88
673.26	301.36
673.60	300.85
673.94	300.35
674.28	299.89
674.62	299.39
674.96	298.83
675.30	298.34
675.64	297.80
675.97	297.24
676.31	296.67
676.65	296.15
676.99	295.70
677.33	295.17
677.67	294.67
678.01	294.10
678.34	293.62
678.68	293.17
679.02	292.64
679.36	292.13
679.70	291.61
680.04	291.14
680.37	290.65
680.71	290.20
681.05	289.75
681.39	289.25
681.73	288.74
682.06	288.25
682.40	287.77
682.74	287.36
683.08	286.99
683.42	286.55
683.75	286.15
684.09	285.66
684.43	285.24
684.77	284.81
685.10	284.44
685.44	284.03
685.78	283.61
686.12	283.23
686.45	282.81
686.79	282.39
687.13	282.00
687.46	281.57
687.80	281.15
688.14	280.69
688.48	280.31
688.81	279.91
689.15	279.55
689.49	279.13
689.82	278.71
690.16	278.23
690.50	277.84
690.83	277.42
691.17	277.01
691.51	276.61
691.84	276.24
692.18	275.81
692.52	275.39
692.85	274.98
693.19	274.61
693.52	274.22
693.86	273.84
694.20	273.45
694.53	273.09
694.87	272.69
695.21	272.31
695.54	271.93
695.88	271.54
696.21	271.12
696.55	270.75
696.88	270.39
697.22	270.03
697.56	269.65
697.89	269.24
698.23	268.88
698.56	268.49
698.90	268.12
699.23	267.74
699.57	267.36
699.90	266.99
700.24	266.60
700.58	266.26
700.91	265.95
701.25	265.71
701.58	265.42
701.92	265.12
702.25	264.79
702.59	264.45
702.92	264.11
703.26	263.78
703.59	263.43
703.93	263.19
704.26	262.87
704.60	262.53
704.93	262.21
705.26	261.87
705.60	261.60
705.93	261.25
706.27	260.97
706.60	260.70
706.94	260.44
707.27	260.10
707.61	259.78
707.94	259.44
708.27	259.00
708.61	258.63
708.94	258.29
709.28	257.99
709.61	257.69
709.94	257.41
710.28	257.15
710.61	256.90
710.95	256.52
711.28	256.32
711.61	256.04
711.95	255.80
712.28	255.52
712.61	255.22
712.95	255.03
713.28	254.83
713.61	254.53
713.95	254.22
714.28	253.98
714.61	253.71
714.95	253.46
715.28	253.21
715.61	252.98
715.95	252.76
716.28	252.52
716.61	252.32
716.95	252.07
717.28	251.82
717.61	251.57
717.94	251.35
718.28	251.03
718.61	250.80
718.94	250.55
719.27	250.33
719.61	250.12
719.94	249.87
720.27	249.57
720.60	249.36
720.94	249.15
721.27	248.94
721.60	248.76
721.93	248.55
722.27	248.37
722.60	248.18
722.93	247.95
723.26	247.74
723.59	247.50
723.93	247.31
724.26	247.12
724.59	246.91
724.92	246.73
725.25	246.59
725.59	246.41
725.92	246.25
726.25	246.07
726.58	245.89
726.91	245.69
727.24	245.54
727.57	245.36
727.91	245.17
728.24	245.03
728.57	244.84
728.90	244.69
729.23	244.48
729.56	244.36
729.89	244.19
730.22	244.02
730.55	243.86
730.89	243.70
731.22	243.54
731.55	243.38
731.88	243.22
732.21	243.03
732.54	242.88
732.87	242.73
733.20	242.58
733.53	242.44
733.86	242.30
734.19	242.13
734.52	242.00
734.85	241.94
735.18	241.77
735.51	241.66
735.84	241.52
736.17	241.42
736.50	241.22
736.83	241.24
737.16	241.11
737.49	240.98
737.82	240.85
738.15	240.74
738.48	240.61
738.81	240.48
739.14	240.34
739.47	240.20
739.80	240.06
740.13	239.94
740.46	239.79
740.79	239.65
741.12	239.52
741.45	239.38
741.78	239.18
742.11	239.09
742.44	238.93
742.77	238.83
743.10	238.69
743.43	238.57
743.75	238.32
744.08	238.39
744.41	238.27
744.74	238.15
745.07	238.01
745.40	237.92
745.73	237.86
746.06	237.76
746.39	237.68
746.71	237.56
747.04	237.45
747.37	237.35
747.70	237.27
748.03	237.18
748.36	237.11
748.68	237.01
749.01	236.88
749.34	236.79
749.67	236.69
750.00	236.61
750.33	236.61
750.65	236.53
750.98	236.25
751.31	236.17
751.64	236.08
751.97	236.05
752.29	235.94
752.62	235.80
752.95	235.69
753.28	235.58
753.60	235.49
753.93	235.43
754.26	235.35
754.59	235.22
754.91	235.12
755.24	235.01
755.57	234.99
755.90	234.90
756.22	234.80
756.55	234.68
756.88	234.57
757.20	234.40
757.53	234.28
757.86	234.20
758.19	234.13
758.51	234.05
758.84	233.90
759.17	233.82
759.49	233.74
759.82	233.73
760.15	233.67
760.47	233.59
760.80	233.48
761.13	233.43
761.45	233.36
761.78	233.30
762.11	233.23
762.43	233.10
762.76	233.03
763.08	232.98
763.41	232.93
763.74	232.88
764.06	232.81
764.39	232.76
764.71	232.70
765.04	232.62
765.37	232.55
765.69	232.50
766.02	232.44
766.34	232.38
766.67	232.27
767.00	232.24
767.32	232.26
767.65	232.29
767.97	232.23
768.30	232.19
768.62	232.14
768.95	232.07
769.27	232.02
769.60	231.98
769.92	231.91
770.25	231.85
770.57	231.78
770.90	231.73
771.22	231.68
771.55	231.63
771.87	231.59
772.20	231.55
772.52	231.61
772.85	231.72
773.17	231.69
773.50	231.64
773.82	231.58
774.15	231.47
774.47	231.35
774.80	231.29
775.12	231.24
775.45	231.20
775.77	231.17
776.09	231.14
776.42	231.11
776.74	231.11
777.07	231.07
777.39	231.05
777.72	231.00
778.04	230.99
778.36	230.95
778.69	230.91
779.01	230.89
779.33	230.75
779.66	230.58
779.98	230.54
780.31	230.51
780.63	230.53
780.95	230.52
781.28	230.48
781.60	230.45
781.92	230.42
782.25	230.40
782.57	230.37
782.89	230.34
783.22	230.30
783.54	230.25
783.86	230.24
784.19	230.20
784.51	230.21
784.83	230.17
785.16	230.14
785.48	230.11
785.80	230.08
786.12	230.07
786.45	230.04
786.77	230.03
787.09	230.00
787.42	229.92
787.74	229.90
788.06	229.89
788.38	229.86
788.71	229.83
789.03	229.81
789.35	229.80
789.67	229.76
789.99	229.75
790.32	229.71
790.64	229.69
790.96	229.79
791.28	229.72
791.61	229.69
791.93	229.68
792.25	229.65
792.57	229.71
792.89	229.67
793.21	229.66
793.54	229.63
793.86	229.60
794.18	229.59
794.50	229.55
794.82	229.53
795.14	229.53
795.47	229.53
795.79	229.51
796.11	229.47
796.43	229.45
796.75	229.43
797.07	229.42
797.39	229.40
797.71	229.28
798.04	229.28
798.36	229.27
798.68	229.25
799.00	229.25
799.32	229.17
799.64	229.17
799.96	229.15
800.28	229.16
800.60	229.14
800.92	229.12
801.24	229.10
801.56	229.10
801.89	229.08
802.21	229.07
802.53	229.03
802.85	229.04
803.17	229.08
803.49	229.04
803.81	229.01
804.13	228.99
804.45	228.96
804.77	228.95
805.09	228.93
805.41	228.91
805.73	228.88
806.05	228.83
806.37	228.81
806.69	228.78
807.01	228.75
807.33	228.75
807.65	228.69
807.97	228.74
808.28	228.71
808.60	228.69
808.92	228.66
809.24	228.73
809.56	228.69
809.88	228.64
810.20	228.64
810.52	228.66
810.84	228.63
811.16	228.61
811.48	228.59
811.80	228.62
812.12	228.60
812.43	228.61
812.75	228.61
813.07	228.59
813.39	228.58
813.71	228.56
814.03	228.54
814.35	228.53
814.67	228.47
814.98	228.45
815.30	228.43
815.62	228.41
815.94	228.32
816.26	228.33
816.58	228.30
816.89	228.29
817.21	228.25
817.53	228.25
817.85	228.24
818.17	228.23
818.48	228.17
