SpectraSuite Data File
++++++++++++++++++++++++++++++++++++
Date: Fri Oct 02 17:22:39 EDT 2015
User: lab3
Dark Spectrum Present: No
Reference Spectrum Present: No
Number of Sampled Component Spectra: 1
Spectrometers: USB2E7196
Integration Time (usec): 46000 (USB2E7196)
Spectra Averaged: 600 (USB2E7196)
Boxcar Smoothing: 10 (USB2E7196)
Correct for Electrical Dark: No (USB2E7196)
Strobe/Lamp Enabled: No (USB2E7196)
Correct for Detector Non-linearity: No (USB2E7196)
Correct for Stray Light: No (USB2E7196)
Number of Pixels in Processed Spectrum: 2048
>>>>>Begin Processed Spectral Data<<<<<
339.09	0.00
339.48	214.95
339.86	216.37
340.24	217.92
340.63	219.18
341.01	222.53
341.39	221.84
341.78	223.40
342.16	224.58
342.54	225.03
342.93	213.36
343.31	224.15
343.69	224.69
344.07	225.15
344.46	225.57
344.84	225.98
345.22	226.20
345.60	226.46
345.99	226.65
346.37	226.77
346.75	226.87
347.13	226.96
347.52	227.03
347.90	227.13
348.28	227.16
348.66	227.21
349.05	227.20
349.43	227.26
349.81	227.33
350.19	227.39
350.57	227.46
350.96	227.55
351.34	227.64
351.72	227.75
352.10	227.85
352.48	227.93
352.87	227.97
353.25	228.03
353.63	228.09
354.01	228.15
354.39	228.24
354.77	228.32
355.15	228.41
355.54	228.45
355.92	228.47
356.30	228.56
356.68	228.71
357.06	228.78
357.44	228.83
357.82	228.90
358.20	229.02
358.58	229.08
358.97	229.13
359.35	229.20
359.73	229.27
360.11	229.33
360.49	229.40
360.87	229.45
361.25	229.50
361.63	229.59
362.01	229.64
362.39	229.67
362.77	229.72
363.15	229.74
363.53	229.79
363.91	229.84
364.29	229.84
364.67	229.73
365.05	229.75
365.43	229.78
365.81	229.79
366.19	229.80
366.57	229.85
366.95	229.85
367.33	229.82
367.71	229.82
368.09	229.82
368.47	229.81
368.85	229.80
369.23	229.82
369.61	229.76
369.99	229.78
370.37	229.78
370.75	229.85
371.13	229.82
371.51	229.76
371.89	229.73
372.27	229.72
372.65	229.70
373.03	229.67
373.41	229.62
373.78	229.56
374.16	229.46
374.54	229.39
374.92	229.34
375.30	229.30
375.68	229.22
376.06	229.17
376.44	229.12
376.82	229.08
377.19	229.01
377.57	228.95
377.95	228.87
378.33	228.80
378.71	228.63
379.09	228.58
379.47	228.56
379.84	228.49
380.22	228.42
380.60	228.36
380.98	228.30
381.36	228.25
381.73	228.20
382.11	228.19
382.49	228.15
382.87	228.09
383.25	228.04
383.62	228.16
384.00	228.10
384.38	228.05
384.76	228.04
385.13	228.04
385.51	228.01
385.89	227.95
386.27	227.94
386.64	227.95
387.02	227.92
387.40	227.87
387.78	227.86
388.15	227.83
388.53	227.81
388.91	227.79
389.29	227.76
389.66	227.76
390.04	227.72
390.42	227.71
390.79	227.71
391.17	227.69
391.55	227.53
391.92	227.53
392.30	227.54
392.68	227.50
393.05	227.49
393.43	227.49
393.81	227.49
394.18	227.46
394.56	227.45
394.94	227.48
395.31	227.48
395.69	227.51
396.06	227.54
396.44	227.56
396.82	227.58
397.19	227.66
397.57	227.65
397.95	227.69
398.32	227.69
398.70	227.73
399.07	227.80
399.45	227.84
399.82	227.88
400.20	227.92
400.58	227.97
400.95	227.98
401.33	228.06
401.70	228.22
402.08	228.32
402.45	228.40
402.83	228.51
403.20	228.63
403.58	228.73
403.95	228.87
404.33	229.01
404.71	229.14
405.08	229.34
405.46	229.51
405.83	229.69
406.21	229.87
406.58	230.10
406.96	230.30
407.33	230.55
407.70	230.82
408.08	231.19
408.45	231.52
408.83	231.88
409.20	232.20
409.58	232.49
409.95	232.88
410.33	233.31
410.70	233.71
411.08	234.20
411.45	234.70
411.82	235.21
412.20	235.81
412.57	236.51
412.95	237.05
413.32	237.77
413.69	238.51
414.07	239.29
414.44	240.13
414.82	241.00
415.19	242.02
415.56	243.04
415.94	244.11
416.31	245.30
416.68	246.50
417.06	247.88
417.43	249.18
417.81	250.68
418.18	252.22
418.55	253.89
418.93	255.61
419.30	257.43
419.67	259.35
420.04	261.31
420.42	263.36
420.79	265.77
421.16	268.17
421.54	270.62
421.91	273.17
422.28	275.82
422.66	278.67
423.03	281.39
423.40	284.24
423.77	287.30
424.15	290.45
424.52	293.72
424.89	297.26
425.26	300.79
425.64	304.06
426.01	307.74
426.38	311.50
426.75	315.37
427.13	319.36
427.50	323.54
427.87	327.87
428.24	332.26
428.61	336.47
428.99	341.03
429.36	346.02
429.73	350.83
430.10	355.61
430.47	360.53
430.85	365.60
431.22	371.04
431.59	376.62
431.96	382.06
432.33	388.14
432.70	393.91
433.08	400.71
433.45	407.14
433.82	413.48
434.19	420.57
434.56	427.55
434.93	434.29
435.30	440.96
435.68	448.50
436.05	455.88
436.42	463.24
436.79	469.95
437.16	477.19
437.53	484.94
437.90	492.70
438.27	500.29
438.64	508.46
439.01	515.88
439.38	522.67
439.75	529.19
440.13	536.52
440.50	543.50
440.87	549.05
441.24	555.09
441.61	561.73
441.98	566.52
442.35	572.21
442.72	577.99
443.09	583.48
443.46	586.92
443.83	589.41
444.20	591.46
444.57	594.53
444.94	596.19
445.31	597.90
445.68	599.34
446.05	600.30
446.42	599.72
446.79	598.94
447.16	598.21
447.53	597.52
447.90	594.91
448.27	592.40
448.64	588.76
449.01	586.15
449.37	581.14
449.74	576.62
450.11	570.89
450.48	564.66
450.85	558.40
451.22	553.06
451.59	547.82
451.96	543.10
452.33	536.38
452.70	530.40
453.07	523.12
453.43	515.86
453.80	508.84
454.17	502.13
454.54	495.94
454.91	489.01
455.28	482.51
455.65	476.40
456.02	469.97
456.38	464.77
456.75	458.12
457.12	452.77
457.49	447.40
457.86	442.34
458.23	437.90
458.59	433.00
458.96	427.99
459.33	423.58
459.70	419.10
460.07	415.67
460.43	411.65
460.80	407.90
461.17	404.67
461.54	401.17
461.91	397.87
462.27	394.55
462.64	391.86
463.01	388.76
463.38	385.64
463.74	382.83
464.11	380.33
464.48	378.12
464.85	375.70
465.21	373.86
465.58	371.79
465.95	369.42
466.32	367.57
466.68	365.72
467.05	363.88
467.42	362.06
467.78	360.12
468.15	358.34
468.52	357.07
468.88	355.29
469.25	353.68
469.62	352.42
469.98	351.04
470.35	349.81
470.72	348.70
471.08	347.56
471.45	346.61
471.82	345.54
472.18	344.38
472.55	343.64
472.92	342.73
473.28	342.02
473.65	341.26
474.02	340.52
474.38	339.90
474.75	339.55
475.11	339.04
475.48	338.80
475.85	338.55
476.21	338.43
476.58	338.35
476.94	338.49
477.31	338.55
477.67	338.64
478.04	338.83
478.41	339.13
478.77	339.56
479.14	339.84
479.50	340.35
479.87	341.03
480.23	341.70
480.60	342.34
480.96	343.01
481.33	343.98
481.69	344.96
482.06	345.93
482.42	346.83
482.79	347.92
483.15	349.20
483.52	350.64
483.88	352.02
484.25	353.49
484.61	355.04
484.98	356.73
485.34	358.63
485.71	360.61
486.07	362.73
486.44	364.81
486.80	367.13
487.17	369.55
487.53	372.20
487.90	375.00
488.26	378.04
488.62	381.24
488.99	384.44
489.35	387.81
489.72	391.46
490.08	395.29
490.44	399.27
490.81	403.38
491.17	407.62
491.54	412.16
491.90	416.89
492.26	421.92
492.63	427.17
492.99	432.66
493.36	438.35
493.72	444.33
494.08	450.46
494.45	457.00
494.81	463.77
495.17	470.73
495.54	478.05
495.90	485.67
496.26	493.46
496.63	501.50
496.99	509.85
497.35	518.61
497.72	527.62
498.08	536.86
498.44	546.42
498.80	556.54
499.17	566.93
499.53	577.60
499.89	588.65
500.26	599.94
500.62	611.49
500.98	623.69
501.34	636.02
501.71	648.89
502.07	661.95
502.43	675.55
502.79	689.38
503.16	703.66
503.52	718.10
503.88	733.00
504.24	748.35
504.60	763.91
504.97	779.92
505.33	796.37
505.69	813.68
506.05	831.35
506.41	848.92
506.78	866.66
507.14	884.95
507.50	903.66
507.86	922.69
508.22	941.96
508.59	961.08
508.95	981.03
509.31	1001.64
509.67	1022.98
510.03	1044.27
510.39	1065.62
510.75	1087.19
511.12	1109.01
511.48	1130.98
511.84	1152.98
512.20	1175.40
512.56	1198.69
512.92	1221.98
513.28	1244.88
513.64	1267.99
514.00	1291.55
514.37	1315.42
514.73	1339.32
515.09	1363.08
515.45	1387.20
515.81	1411.39
516.17	1435.77
516.53	1459.62
516.89	1483.40
517.25	1507.27
517.61	1531.13
517.97	1555.42
518.33	1579.15
518.69	1602.87
519.05	1627.08
519.41	1651.60
519.77	1676.21
520.13	1700.02
520.49	1723.85
520.85	1748.09
521.21	1771.81
521.57	1795.86
521.93	1819.46
522.29	1843.53
522.65	1867.07
523.01	1890.54
523.37	1913.71
523.73	1937.55
524.09	1961.17
524.45	1984.47
524.81	2007.41
525.17	2030.14
525.53	2052.28
525.89	2074.91
526.25	2097.53
526.61	2119.16
526.97	2140.86
527.33	2162.52
527.68	2183.93
528.04	2204.51
528.40	2224.13
528.76	2244.12
529.12	2263.60
529.48	2282.58
529.84	2299.92
530.20	2317.85
530.56	2335.23
530.91	2352.74
531.27	2369.75
531.63	2386.06
531.99	2402.07
532.35	2417.36
532.71	2432.66
533.07	2448.64
533.42	2462.86
533.78	2477.98
534.14	2493.29
534.50	2507.62
534.86	2521.76
535.21	2534.06
535.57	2546.77
535.93	2559.29
536.29	2570.66
536.65	2581.96
537.00	2592.66
537.36	2604.16
537.72	2614.19
538.08	2623.74
538.44	2632.59
538.79	2641.13
539.15	2648.84
539.51	2656.11
539.87	2662.70
540.22	2667.57
540.58	2672.45
540.94	2678.47
541.29	2682.94
541.65	2685.68
542.01	2687.83
542.37	2689.32
542.72	2692.06
543.08	2693.24
543.44	2694.93
543.79	2695.56
544.15	2695.33
544.51	2695.51
544.87	2694.57
545.22	2692.93
545.58	2690.71
545.94	2688.56
546.29	2685.10
546.65	2681.53
547.01	2677.96
547.36	2675.14
547.72	2672.28
548.07	2667.76
548.43	2661.80
548.79	2655.05
549.14	2649.50
549.50	2644.13
549.86	2637.87
550.21	2630.56
550.57	2624.15
550.92	2615.57
551.28	2607.48
551.64	2599.72
551.99	2591.54
552.35	2582.76
552.70	2574.29
553.06	2566.01
553.41	2557.17
553.77	2548.14
554.13	2539.03
554.48	2529.00
554.84	2517.89
555.19	2507.33
555.55	2496.79
555.90	2486.34
556.26	2476.31
556.61	2465.18
556.97	2452.52
557.32	2440.45
557.68	2428.26
558.03	2415.84
558.39	2404.54
558.74	2393.61
559.10	2380.98
559.45	2368.68
559.81	2356.92
560.16	2344.44
560.52	2332.25
560.87	2320.32
561.23	2307.62
561.58	2295.22
561.94	2282.43
562.29	2269.05
562.64	2256.39
563.00	2243.42
563.35	2230.89
563.71	2218.11
564.06	2205.24
564.42	2193.14
564.77	2180.38
565.12	2167.53
565.48	2154.68
565.83	2141.82
566.19	2129.00
566.54	2116.26
566.89	2102.24
567.25	2088.49
567.60	2076.09
567.96	2062.83
568.31	2048.32
568.66	2034.49
569.02	2021.62
569.37	2008.77
569.72	1996.42
570.08	1982.81
570.43	1968.91
570.78	1954.79
571.14	1940.13
571.49	1926.19
571.84	1912.68
572.20	1897.98
572.55	1883.61
572.90	1869.04
573.26	1854.50
573.61	1839.53
573.96	1824.93
574.31	1810.63
574.67	1796.29
575.02	1781.05
575.37	1765.91
575.72	1751.57
576.08	1737.52
576.43	1722.38
576.78	1707.65
577.13	1693.27
577.49	1679.21
577.84	1665.72
578.19	1651.32
578.54	1637.11
578.90	1622.42
579.25	1607.63
579.60	1594.38
579.95	1580.94
580.30	1567.40
580.66	1553.61
581.01	1539.76
581.36	1525.90
581.71	1513.09
582.06	1500.17
582.42	1487.42
582.77	1474.64
583.12	1461.84
583.47	1449.01
583.82	1436.23
584.17	1423.20
584.53	1409.75
584.88	1396.74
585.23	1383.30
585.58	1370.69
585.93	1358.28
586.28	1346.55
586.63	1334.89
586.98	1322.71
587.34	1310.60
587.69	1298.25
588.04	1286.22
588.39	1274.54
588.74	1263.01
589.09	1251.23
589.44	1239.04
589.79	1227.53
590.14	1216.15
590.49	1204.71
590.84	1193.33
591.19	1182.45
591.54	1171.33
591.89	1160.43
592.25	1149.60
592.60	1138.51
592.95	1127.79
593.30	1117.23
593.65	1106.41
594.00	1095.62
594.35	1085.51
594.70	1075.01
595.05	1065.33
595.40	1055.53
595.75	1045.66
596.10	1036.22
596.45	1026.54
596.80	1017.19
597.15	1007.57
597.50	998.16
597.85	989.11
598.19	979.94
598.54	970.75
598.89	962.03
599.24	953.60
599.59	945.01
599.94	937.31
600.29	929.42
600.64	921.26
600.99	912.74
601.34	904.62
601.69	896.11
602.04	888.26
602.39	880.30
602.74	872.37
603.08	864.37
603.43	856.40
603.78	848.54
604.13	840.93
604.48	833.31
604.83	825.79
605.18	818.19
605.53	810.74
605.87	803.13
606.22	795.87
606.57	788.52
606.92	781.08
607.27	773.54
607.62	766.28
607.96	759.46
608.31	753.07
608.66	746.47
609.01	740.18
609.36	733.99
609.70	727.53
610.05	721.10
610.40	714.90
610.75	708.72
611.10	702.85
611.44	696.79
611.79	690.87
612.14	684.87
612.49	678.99
612.83	673.37
613.18	667.90
613.53	662.28
613.88	656.73
614.22	651.58
614.57	646.37
614.92	641.02
615.27	635.77
615.61	630.53
615.96	625.37
616.31	620.21
616.65	615.14
617.00	610.30
617.35	605.54
617.70	600.84
618.04	596.12
618.39	591.39
618.74	586.89
619.08	582.41
619.43	578.05
619.78	573.73
620.12	569.36
620.47	565.14
620.82	561.05
621.16	556.94
621.51	552.73
621.85	548.57
622.20	544.57
622.55	540.60
622.89	536.73
623.24	532.85
623.59	529.00
623.93	525.28
624.28	521.64
624.62	518.12
624.97	514.63
625.32	511.15
625.66	507.58
626.01	503.98
626.35	500.45
626.70	496.99
627.04	493.65
627.39	490.28
627.73	487.10
628.08	483.97
628.43	480.84
628.77	477.80
629.12	474.84
629.46	471.91
629.81	468.91
630.15	465.89
630.50	462.99
630.84	460.15
631.19	457.36
631.53	454.66
631.88	451.92
632.22	449.18
632.57	446.73
632.91	444.32
633.26	442.02
633.60	439.71
633.95	437.46
634.29	435.12
634.64	432.87
634.98	430.38
635.32	428.09
635.67	425.97
636.01	423.78
636.36	421.66
636.70	419.68
637.05	417.66
637.39	415.69
637.73	413.72
638.08	411.84
638.42	409.94
638.77	407.93
639.11	405.88
639.45	403.92
639.80	401.87
640.14	399.95
640.49	397.99
640.83	396.01
641.17	394.10
641.52	392.25
641.86	390.41
642.20	388.79
642.55	386.98
642.89	385.21
643.23	383.53
643.58	381.99
643.92	380.32
644.26	378.73
644.61	377.20
644.95	375.63
645.29	374.02
645.64	372.39
645.98	370.84
646.32	369.41
646.66	367.95
647.01	366.52
647.35	365.11
647.69	363.71
648.04	362.44
648.38	361.09
648.72	359.77
649.06	358.46
649.41	357.14
649.75	355.88
650.09	354.63
650.43	353.38
650.78	352.09
651.12	350.83
651.46	349.59
651.80	348.39
652.14	347.23
652.49	346.09
652.83	344.96
653.17	343.85
653.51	342.78
653.85	341.76
654.20	340.71
654.54	339.59
654.88	338.53
655.22	337.51
655.56	336.47
655.90	335.50
656.25	334.52
656.59	333.54
656.93	332.62
657.27	331.71
657.61	330.74
657.95	329.79
658.29	328.85
658.64	327.97
658.98	327.08
659.32	326.21
659.66	325.39
660.00	324.61
660.34	323.82
660.68	322.97
661.02	322.08
661.36	321.23
661.70	320.41
662.05	319.64
662.39	318.85
662.73	318.14
663.07	317.42
663.41	316.68
663.75	315.93
664.09	315.18
664.43	314.39
664.77	313.70
665.11	312.97
665.45	312.31
665.79	311.65
666.13	310.92
666.47	310.19
666.81	309.44
667.15	308.65
667.49	307.98
667.83	307.38
668.17	306.74
668.51	306.16
668.85	305.62
669.19	305.06
669.53	304.43
669.87	303.79
670.21	303.16
670.55	302.59
670.89	302.08
671.23	301.54
671.57	300.99
671.91	300.48
672.25	299.99
672.58	299.48
672.92	298.91
673.26	298.45
673.60	297.96
673.94	297.51
674.28	297.09
674.62	296.60
674.96	296.06
675.30	295.61
675.64	295.09
675.97	294.55
676.31	294.03
676.65	293.53
676.99	293.09
677.33	292.57
677.67	292.09
678.01	291.54
678.34	291.05
678.68	290.63
679.02	290.12
679.36	289.63
679.70	289.15
680.04	288.70
680.37	288.21
680.71	287.78
681.05	287.34
681.39	286.85
681.73	286.36
682.06	285.88
682.40	285.42
682.74	285.02
683.08	284.67
683.42	284.22
683.75	283.83
684.09	283.36
684.43	282.95
684.77	282.52
685.10	282.15
685.44	281.75
685.78	281.34
686.12	280.98
686.45	280.57
686.79	280.15
687.13	279.76
687.46	279.36
687.80	278.95
688.14	278.51
688.48	278.14
688.81	277.74
689.15	277.40
689.49	277.00
689.82	276.61
690.16	276.14
690.50	275.78
690.83	275.39
691.17	274.99
691.51	274.62
691.84	274.25
692.18	273.85
692.52	273.45
692.85	273.05
693.19	272.68
693.52	272.30
693.86	271.90
694.20	271.54
694.53	271.19
694.87	270.79
695.21	270.42
695.54	270.03
695.88	269.66
696.21	269.24
696.55	268.87
696.88	268.51
697.22	268.14
697.56	267.77
697.89	267.35
698.23	267.00
698.56	266.60
698.90	266.26
699.23	265.90
699.57	265.53
699.90	265.19
700.24	264.82
700.58	264.50
700.91	264.22
701.25	263.98
701.58	263.70
701.92	263.43
702.25	263.11
702.59	262.80
702.92	262.48
703.26	262.16
703.59	261.82
703.93	261.59
704.26	261.29
704.60	260.97
704.93	260.66
705.26	260.34
705.60	260.09
705.93	259.74
706.27	259.49
706.60	259.24
706.94	258.98
707.27	258.64
707.61	258.34
707.94	258.00
708.27	257.58
708.61	257.22
708.94	256.89
709.28	256.59
709.61	256.28
709.94	256.04
710.28	255.79
710.61	255.56
710.95	255.20
711.28	255.02
711.61	254.75
711.95	254.52
712.28	254.24
712.61	253.94
712.95	253.76
713.28	253.53
713.61	253.23
713.95	252.92
714.28	252.68
714.61	252.43
714.95	252.19
715.28	251.95
715.61	251.72
715.95	251.50
716.28	251.28
716.61	251.09
716.95	250.84
717.28	250.60
717.61	250.36
717.94	250.13
718.28	249.82
718.61	249.59
718.94	249.34
719.27	249.14
719.61	248.96
719.94	248.72
720.27	248.44
720.60	248.24
720.94	248.06
721.27	247.87
721.60	247.70
721.93	247.49
722.27	247.34
722.60	247.18
722.93	246.96
723.26	246.76
723.59	246.53
723.93	246.34
724.26	246.16
724.59	245.97
724.92	245.81
725.25	245.67
725.59	245.50
725.92	245.35
726.25	245.20
726.58	245.02
726.91	244.83
727.24	244.68
727.57	244.51
727.91	244.33
728.24	244.16
728.57	243.98
728.90	243.83
729.23	243.61
729.56	243.49
729.89	243.33
730.22	243.17
730.55	243.02
730.89	242.87
731.22	242.71
731.55	242.53
731.88	242.36
732.21	242.17
732.54	242.01
732.87	241.87
733.20	241.72
733.53	241.59
733.86	241.46
734.19	241.30
734.52	241.18
734.85	241.12
735.18	240.95
735.51	240.84
735.84	240.70
736.17	240.61
736.50	240.41
736.83	240.43
737.16	240.30
737.49	240.20
737.82	240.06
738.15	239.97
738.48	239.86
738.81	239.75
739.14	239.63
739.47	239.50
739.80	239.35
740.13	239.23
740.46	239.09
740.79	238.93
741.12	238.82
741.45	238.67
741.78	238.47
742.11	238.40
742.44	238.25
742.77	238.17
743.10	238.02
743.43	237.90
743.75	237.67
744.08	237.74
744.41	237.61
744.74	237.50
745.07	237.34
745.40	237.27
745.73	237.21
746.06	237.12
746.39	237.03
746.71	236.93
747.04	236.82
747.37	236.71
747.70	236.65
748.03	236.55
748.36	236.47
748.68	236.39
749.01	236.26
749.34	236.17
749.67	236.08
750.00	236.01
750.33	236.02
750.65	235.92
750.98	235.65
751.31	235.56
751.64	235.48
751.97	235.46
752.29	235.36
752.62	235.20
752.95	235.10
753.28	234.99
753.60	234.91
753.93	234.85
754.26	234.79
754.59	234.67
754.91	234.57
755.24	234.48
755.57	234.46
755.90	234.39
756.22	234.28
756.55	234.19
756.88	234.07
757.20	233.91
757.53	233.80
757.86	233.73
758.19	233.65
758.51	233.58
758.84	233.45
759.17	233.35
759.49	233.28
759.82	233.26
760.15	233.22
760.47	233.15
760.80	233.05
761.13	233.00
761.45	232.93
761.78	232.87
762.11	232.80
762.43	232.66
762.76	232.58
763.08	232.54
763.41	232.48
763.74	232.43
764.06	232.37
764.39	232.31
764.71	232.25
765.04	232.21
765.37	232.13
765.69	232.09
766.02	232.04
766.34	231.98
766.67	231.89
767.00	231.85
767.32	231.87
767.65	231.90
767.97	231.83
768.30	231.79
768.62	231.73
768.95	231.67
769.27	231.61
769.60	231.59
769.92	231.52
770.25	231.46
770.57	231.39
770.90	231.34
771.22	231.28
771.55	231.24
771.87	231.19
772.20	231.14
772.52	231.20
772.85	231.32
773.17	231.28
773.50	231.24
773.82	231.17
774.15	231.08
774.47	230.96
774.80	230.91
775.12	230.88
775.45	230.85
775.77	230.82
776.09	230.79
776.42	230.75
776.74	230.76
777.07	230.72
777.39	230.70
777.72	230.66
778.04	230.65
778.36	230.60
778.69	230.58
779.01	230.57
779.33	230.43
779.66	230.26
779.98	230.23
780.31	230.21
780.63	230.23
780.95	230.21
781.28	230.18
781.60	230.14
781.92	230.12
782.25	230.09
782.57	230.08
782.89	230.06
783.22	230.02
783.54	229.97
783.86	229.95
784.19	229.92
784.51	229.95
784.83	229.92
785.16	229.89
785.48	229.88
785.80	229.85
786.12	229.83
786.45	229.79
786.77	229.77
787.09	229.73
787.42	229.67
787.74	229.65
788.06	229.65
788.38	229.63
788.71	229.60
789.03	229.59
789.35	229.57
789.67	229.53
789.99	229.55
790.32	229.50
790.64	229.49
790.96	229.59
791.28	229.51
791.61	229.48
791.93	229.47
792.25	229.44
792.57	229.50
792.89	229.46
793.21	229.45
793.54	229.43
793.86	229.40
794.18	229.40
794.50	229.36
794.82	229.36
795.14	229.35
795.47	229.36
795.79	229.35
796.11	229.30
796.43	229.27
796.75	229.24
797.07	229.23
797.39	229.21
797.71	229.09
798.04	229.10
798.36	229.11
798.68	229.09
799.00	229.06
799.32	228.98
799.64	228.99
799.96	228.97
800.28	228.98
800.60	228.95
800.92	228.94
801.24	228.92
801.56	228.89
801.89	228.86
802.21	228.85
802.53	228.80
802.85	228.83
803.17	228.88
803.49	228.84
803.81	228.83
804.13	228.81
804.45	228.78
804.77	228.76
805.09	228.74
805.41	228.71
805.73	228.69
806.05	228.65
806.37	228.61
806.69	228.59
807.01	228.57
807.33	228.57
807.65	228.51
807.97	228.54
808.28	228.51
808.60	228.48
808.92	228.45
809.24	228.51
809.56	228.47
809.88	228.40
810.20	228.39
810.52	228.39
810.84	228.36
811.16	228.33
811.48	228.31
811.80	228.32
812.12	228.31
812.43	228.31
812.75	228.32
813.07	228.30
813.39	228.30
813.71	228.26
814.03	228.25
814.35	228.25
814.67	228.17
814.98	228.17
815.30	228.17
815.62	228.14
815.94	228.04
816.26	228.04
816.58	228.00
816.89	228.00
817.21	227.95
817.53	227.96
817.85	227.96
818.17	227.96
818.48	227.90
