SpectraSuite Data File
++++++++++++++++++++++++++++++++++++
Date: Fri Oct 02 17:03:47 EDT 2015
User: lab3
Dark Spectrum Present: No
Reference Spectrum Present: No
Number of Sampled Component Spectra: 1
Spectrometers: USB2E7196
Integration Time (usec): 46000 (USB2E7196)
Spectra Averaged: 1200 (USB2E7196)
Boxcar Smoothing: 10 (USB2E7196)
Correct for Electrical Dark: No (USB2E7196)
Strobe/Lamp Enabled: No (USB2E7196)
Correct for Detector Non-linearity: No (USB2E7196)
Correct for Stray Light: No (USB2E7196)
Number of Pixels in Processed Spectrum: 2048
>>>>>Begin Processed Spectral Data<<<<<
339.09	0.00
339.48	214.60
339.86	216.06
340.24	217.42
340.63	218.88
341.01	222.02
341.39	221.56
341.78	222.83
342.16	224.20
342.54	224.77
342.93	213.06
343.31	223.84
343.69	224.37
344.07	224.84
344.46	225.27
344.84	225.66
345.22	225.88
345.60	226.14
345.99	226.35
346.37	226.48
346.75	226.57
347.13	226.65
347.52	226.72
347.90	226.81
348.28	226.84
348.66	226.90
349.05	226.89
349.43	226.94
349.81	227.00
350.19	227.04
350.57	227.10
350.96	227.18
351.34	227.27
351.72	227.37
352.10	227.48
352.48	227.56
352.87	227.61
353.25	227.69
353.63	227.74
354.01	227.81
354.39	227.89
354.77	227.98
355.15	228.08
355.54	228.12
355.92	228.16
356.30	228.23
356.68	228.38
357.06	228.46
357.44	228.51
357.82	228.56
358.20	228.68
358.58	228.76
358.97	228.82
359.35	228.90
359.73	228.98
360.11	229.03
360.49	229.08
360.87	229.13
361.25	229.18
361.63	229.28
362.01	229.33
362.39	229.36
362.77	229.40
363.15	229.43
363.53	229.47
363.91	229.50
364.29	229.53
364.67	229.44
365.05	229.46
365.43	229.49
365.81	229.53
366.19	229.54
366.57	229.59
366.95	229.59
367.33	229.56
367.71	229.56
368.09	229.58
368.47	229.58
368.85	229.56
369.23	229.57
369.61	229.51
369.99	229.52
370.37	229.52
370.75	229.60
371.13	229.56
371.51	229.52
371.89	229.50
372.27	229.48
372.65	229.44
373.03	229.40
373.41	229.36
373.78	229.31
374.16	229.20
374.54	229.12
374.92	229.08
375.30	229.04
375.68	228.97
376.06	228.92
376.44	228.86
376.82	228.83
377.19	228.78
377.57	228.72
377.95	228.63
378.33	228.57
378.71	228.41
379.09	228.37
379.47	228.34
379.84	228.28
380.22	228.22
380.60	228.16
380.98	228.10
381.36	228.05
381.73	227.99
382.11	227.96
382.49	227.92
382.87	227.85
383.25	227.81
383.62	227.91
384.00	227.84
384.38	227.81
384.76	227.78
385.13	227.77
385.51	227.73
385.89	227.68
386.27	227.64
386.64	227.63
387.02	227.57
387.40	227.53
387.78	227.51
388.15	227.48
388.53	227.45
388.91	227.43
389.29	227.39
389.66	227.38
390.04	227.35
390.42	227.35
390.79	227.33
391.17	227.31
391.55	227.16
391.92	227.14
392.30	227.13
392.68	227.10
393.05	227.09
393.43	227.10
393.81	227.11
394.18	227.10
394.56	227.10
394.94	227.13
395.31	227.13
395.69	227.18
396.06	227.22
396.44	227.24
396.82	227.25
397.19	227.33
397.57	227.34
397.95	227.38
398.32	227.38
398.70	227.42
399.07	227.48
399.45	227.53
399.82	227.58
400.20	227.63
400.58	227.68
400.95	227.69
401.33	227.78
401.70	227.94
402.08	228.03
402.45	228.11
402.83	228.23
403.20	228.33
403.58	228.42
403.95	228.55
404.33	228.71
404.71	228.85
405.08	229.06
405.46	229.23
405.83	229.42
406.21	229.60
406.58	229.83
406.96	230.06
407.33	230.31
407.70	230.58
408.08	230.96
408.45	231.29
408.83	231.65
409.20	231.98
409.58	232.27
409.95	232.68
410.33	233.12
410.70	233.53
411.08	234.03
411.45	234.55
411.82	235.06
412.20	235.66
412.57	236.38
412.95	236.93
413.32	237.67
413.69	238.41
414.07	239.23
414.44	240.09
414.82	240.98
415.19	242.02
415.56	243.07
415.94	244.18
416.31	245.40
416.68	246.63
417.06	248.06
417.43	249.40
417.81	250.94
418.18	252.51
418.55	254.22
418.93	256.00
419.30	257.86
419.67	259.84
420.04	261.88
420.42	263.98
420.79	266.43
421.16	268.90
421.54	271.42
421.91	274.04
422.28	276.76
422.66	279.69
423.03	282.50
423.40	285.44
423.77	288.58
424.15	291.81
424.52	295.18
424.89	298.81
425.26	302.43
425.64	305.79
426.01	309.57
426.38	313.43
426.75	317.42
427.13	321.52
427.50	325.82
427.87	330.26
428.24	334.77
428.61	339.11
428.99	343.78
429.36	348.90
429.73	353.82
430.10	358.74
430.47	363.77
430.85	368.94
431.22	374.50
431.59	380.23
431.96	385.83
432.33	392.03
432.70	397.96
433.08	404.93
433.45	411.56
433.82	418.09
434.19	425.38
434.56	432.55
434.93	439.46
435.30	446.32
435.68	454.08
436.05	461.68
436.42	469.25
436.79	476.17
437.16	483.64
437.53	491.63
437.90	499.62
438.27	507.45
438.64	515.91
439.01	523.57
439.38	530.55
439.75	537.27
440.13	544.85
440.50	552.04
440.87	557.75
441.24	563.99
441.61	570.78
441.98	575.70
442.35	581.56
442.72	587.51
443.09	593.17
443.46	596.73
443.83	599.28
444.20	601.37
444.57	604.57
444.94	606.29
445.31	608.07
445.68	609.54
446.05	610.53
446.42	609.92
446.79	609.12
447.16	608.39
447.53	607.70
447.90	605.04
448.27	602.46
448.64	598.71
449.01	596.01
449.37	590.90
449.74	586.29
450.11	580.39
450.48	573.97
450.85	567.55
451.22	562.03
451.59	556.66
451.96	551.79
452.33	544.80
452.70	538.61
453.07	531.12
453.43	523.67
453.80	516.43
454.17	509.52
454.54	503.17
454.91	496.01
455.28	489.32
455.65	483.01
456.02	476.37
456.38	471.02
456.75	464.17
457.12	458.66
457.49	453.09
457.86	447.87
458.23	443.32
458.59	438.28
458.96	433.11
459.33	428.57
459.70	423.96
460.07	420.47
460.43	416.36
460.80	412.51
461.17	409.17
461.54	405.56
461.91	402.19
462.27	398.75
462.64	395.99
463.01	392.79
463.38	389.58
463.74	386.68
464.11	384.14
464.48	381.86
464.85	379.38
465.21	377.51
465.58	375.41
465.95	372.98
466.32	371.08
466.68	369.20
467.05	367.31
467.42	365.46
467.78	363.45
468.15	361.60
468.52	360.27
468.88	358.46
469.25	356.81
469.62	355.52
469.98	354.10
470.35	352.84
470.72	351.70
471.08	350.55
471.45	349.59
471.82	348.49
472.18	347.32
472.55	346.56
472.92	345.60
473.28	344.87
473.65	344.07
474.02	343.31
474.38	342.67
474.75	342.31
475.11	341.81
475.48	341.58
475.85	341.34
476.21	341.21
476.58	341.14
476.94	341.29
477.31	341.37
477.67	341.47
478.04	341.68
478.41	341.99
478.77	342.42
479.14	342.69
479.50	343.21
479.87	343.90
480.23	344.58
480.60	345.27
480.96	345.95
481.33	346.95
481.69	347.94
482.06	348.94
482.42	349.84
482.79	350.96
483.15	352.26
483.52	353.74
483.88	355.17
484.25	356.69
484.61	358.27
484.98	359.97
485.34	361.90
485.71	363.91
486.07	366.05
486.44	368.21
486.80	370.61
487.17	373.10
487.53	375.82
487.90	378.66
488.26	381.77
488.62	385.06
488.99	388.34
489.35	391.78
489.72	395.51
490.08	399.47
490.44	403.54
490.81	407.77
491.17	412.09
491.54	416.73
491.90	421.53
492.26	426.66
492.63	432.04
492.99	437.64
493.36	443.46
493.72	449.56
494.08	455.82
494.45	462.47
494.81	469.38
495.17	476.46
495.54	483.92
495.90	491.69
496.26	499.63
496.63	507.81
496.99	516.32
497.35	525.22
497.72	534.38
498.08	543.76
498.44	553.47
498.80	563.77
499.17	574.33
499.53	585.21
499.89	596.44
500.26	607.87
500.62	619.60
500.98	631.97
501.34	644.51
501.71	657.55
502.07	670.78
502.43	684.54
502.79	698.56
503.16	713.00
503.52	727.63
503.88	742.69
504.24	758.22
504.60	773.93
504.97	790.09
505.33	806.70
505.69	824.19
506.05	841.97
506.41	859.67
506.78	877.56
507.14	895.95
507.50	914.79
507.86	933.95
508.22	953.38
508.59	972.57
508.95	992.59
509.31	1013.34
509.67	1034.75
510.03	1056.12
510.39	1077.50
510.75	1099.13
511.12	1121.00
511.48	1143.04
511.84	1165.08
512.20	1187.51
512.56	1210.75
512.92	1234.00
513.28	1256.85
513.64	1279.90
514.00	1303.36
514.37	1327.15
514.73	1350.89
515.09	1374.49
515.45	1398.40
515.81	1422.43
516.17	1446.62
516.53	1470.27
516.89	1493.74
517.25	1517.39
517.61	1540.96
517.97	1564.94
518.33	1588.33
518.69	1611.63
519.05	1635.44
519.41	1659.45
519.77	1683.64
520.13	1707.13
520.49	1730.49
520.85	1754.22
521.21	1777.43
521.57	1801.06
521.93	1824.13
522.29	1847.66
522.65	1870.67
523.01	1893.65
523.37	1916.13
523.73	1939.32
524.09	1962.26
524.45	1984.94
524.81	2007.15
525.17	2029.12
525.53	2050.55
525.89	2072.42
526.25	2094.28
526.61	2115.08
526.97	2135.98
527.33	2156.79
527.68	2177.29
528.04	2196.98
528.40	2215.68
528.76	2234.72
529.12	2253.18
529.48	2271.27
529.84	2287.59
530.20	2304.54
530.56	2320.86
530.91	2337.35
531.27	2353.39
531.63	2368.56
531.99	2383.42
532.35	2397.61
532.71	2411.95
533.07	2426.80
533.42	2439.84
533.78	2453.80
534.14	2467.97
534.50	2481.21
534.86	2494.21
535.21	2505.32
535.57	2516.94
535.93	2528.40
536.29	2538.63
536.65	2548.77
537.00	2558.23
537.36	2568.58
537.72	2577.52
538.08	2585.94
538.44	2593.70
538.79	2601.17
539.15	2607.85
539.51	2614.05
539.87	2619.62
540.22	2623.36
540.58	2627.20
540.94	2632.29
541.29	2635.77
541.65	2637.54
542.01	2638.72
542.37	2639.18
542.72	2640.95
543.08	2641.16
543.44	2641.81
543.79	2641.54
544.15	2640.43
544.51	2639.69
544.87	2637.88
545.22	2635.33
545.58	2632.16
545.94	2629.06
546.29	2624.62
546.65	2620.23
547.01	2615.77
547.36	2612.00
547.72	2608.28
548.07	2602.98
548.43	2596.21
548.79	2588.69
549.14	2582.28
549.50	2576.16
549.86	2569.18
550.21	2561.15
550.57	2553.94
550.92	2544.65
551.28	2535.91
551.64	2527.44
551.99	2518.58
552.35	2509.18
552.70	2500.08
553.06	2491.31
553.41	2481.95
553.77	2472.40
554.13	2462.69
554.48	2452.27
554.84	2440.75
555.19	2429.70
555.55	2418.71
555.90	2407.83
556.26	2397.33
556.61	2385.90
556.97	2372.93
557.32	2360.55
557.68	2348.07
558.03	2335.40
558.39	2323.86
558.74	2312.56
559.10	2299.72
559.45	2287.00
559.81	2274.99
560.16	2262.32
560.52	2249.87
560.87	2237.72
561.23	2224.83
561.58	2212.19
561.94	2199.21
562.29	2185.74
562.64	2172.92
563.00	2159.81
563.35	2147.11
563.71	2134.24
564.06	2121.31
564.42	2109.03
564.77	2096.18
565.12	2083.29
565.48	2070.38
565.83	2057.46
566.19	2044.74
566.54	2031.91
566.89	2018.15
567.25	2004.50
567.60	1992.06
567.96	1978.87
568.31	1964.43
568.66	1950.71
569.02	1937.99
569.37	1925.26
569.72	1913.02
570.08	1899.59
570.43	1885.84
570.78	1871.90
571.14	1857.44
571.49	1843.61
571.84	1830.30
572.20	1815.86
572.55	1801.70
572.90	1787.42
573.26	1773.17
573.61	1758.40
573.96	1744.18
574.31	1730.12
574.67	1716.08
575.02	1701.20
575.37	1686.31
575.72	1672.33
576.08	1658.64
576.43	1643.92
576.78	1629.64
577.13	1615.61
577.49	1601.94
577.84	1588.82
578.19	1574.91
578.54	1561.15
578.90	1546.92
579.25	1532.62
579.60	1519.81
579.95	1506.88
580.30	1493.76
580.66	1480.43
581.01	1467.07
581.36	1453.68
581.71	1441.28
582.06	1428.78
582.42	1416.54
582.77	1404.36
583.12	1392.10
583.47	1379.71
583.82	1367.45
584.17	1354.86
584.53	1341.96
584.88	1329.44
585.23	1316.55
585.58	1304.46
585.93	1292.52
586.28	1281.27
586.63	1270.04
586.98	1258.37
587.34	1246.75
587.69	1234.97
588.04	1223.52
588.39	1212.43
588.74	1201.45
589.09	1190.26
589.44	1178.69
589.79	1167.65
590.14	1156.77
590.49	1145.83
590.84	1135.04
591.19	1124.62
591.54	1114.03
591.89	1103.62
592.25	1093.39
592.60	1082.88
592.95	1072.67
593.30	1062.65
593.65	1052.39
594.00	1042.22
594.35	1032.61
594.70	1022.59
595.05	1013.37
595.40	1004.06
595.75	994.62
596.10	985.65
596.45	976.46
596.80	967.58
597.15	958.51
597.50	949.58
597.85	941.02
598.19	932.31
598.54	923.67
598.89	915.41
599.24	907.42
599.59	899.27
599.94	891.97
600.29	884.51
600.64	876.81
600.99	868.78
601.34	861.12
601.69	853.07
602.04	845.71
602.39	838.20
602.74	830.74
603.08	823.25
603.43	815.74
603.78	808.37
604.13	801.18
604.48	793.95
604.83	786.89
605.18	779.73
605.53	772.74
605.87	765.58
606.22	758.75
606.57	751.84
606.92	744.84
607.27	737.78
607.62	731.00
607.96	724.61
608.31	718.60
608.66	712.41
609.01	706.50
609.36	700.68
609.70	694.67
610.05	688.61
610.40	682.80
610.75	677.01
611.10	671.51
611.44	665.86
611.79	660.33
612.14	654.72
612.49	649.23
612.83	643.97
613.18	638.85
613.53	633.63
613.88	628.44
614.22	623.66
614.57	618.80
614.92	613.78
615.27	608.87
615.61	604.02
615.96	599.23
616.31	594.43
616.65	589.70
617.00	585.14
617.35	580.69
617.70	576.31
618.04	571.97
618.39	567.57
618.74	563.40
619.08	559.24
619.43	555.20
619.78	551.17
620.12	547.11
620.47	543.21
620.82	539.38
621.16	535.58
621.51	531.67
621.85	527.84
622.20	524.17
622.55	520.49
622.89	516.88
623.24	513.28
623.59	509.73
623.93	506.29
624.28	502.93
624.62	499.69
624.97	496.46
625.32	493.21
625.66	489.91
626.01	486.58
626.35	483.33
626.70	480.12
627.04	477.04
627.39	473.95
627.73	470.99
628.08	468.10
628.43	465.22
628.77	462.42
629.12	459.70
629.46	456.97
629.81	454.20
630.15	451.43
630.50	448.74
630.84	446.12
631.19	443.54
631.53	441.06
631.88	438.53
632.22	436.02
632.57	433.75
632.91	431.54
633.26	429.40
633.60	427.26
633.95	425.19
634.29	423.05
634.64	420.96
634.98	418.68
635.32	416.56
635.67	414.61
636.01	412.57
636.36	410.58
636.70	408.76
637.05	406.91
637.39	405.08
637.73	403.26
638.08	401.54
638.42	399.81
638.77	397.97
639.11	396.07
639.45	394.24
639.80	392.38
640.14	390.58
640.49	388.80
640.83	386.97
641.17	385.22
641.52	383.52
641.86	381.83
642.20	380.34
642.55	378.70
642.89	377.08
643.23	375.54
643.58	374.15
643.92	372.62
644.26	371.15
644.61	369.73
644.95	368.27
645.29	366.75
645.64	365.25
645.98	363.82
646.32	362.49
646.66	361.16
647.01	359.83
647.35	358.56
647.69	357.25
648.04	356.09
648.38	354.85
648.72	353.61
649.06	352.38
649.41	351.15
649.75	349.97
650.09	348.82
650.43	347.65
650.78	346.43
651.12	345.25
651.46	344.13
651.80	343.03
652.14	341.95
652.49	340.92
652.83	339.85
653.17	338.83
653.51	337.84
653.85	336.90
654.20	335.90
654.54	334.83
654.88	333.85
655.22	332.88
655.56	331.90
655.90	330.97
656.25	330.09
656.59	329.18
656.93	328.31
657.27	327.46
657.61	326.56
657.95	325.69
658.29	324.82
658.64	323.99
658.98	323.14
659.32	322.32
659.66	321.54
660.00	320.79
660.34	320.02
660.68	319.23
661.02	318.41
661.36	317.62
661.70	316.87
662.05	316.12
662.39	315.38
662.73	314.73
663.07	314.08
663.41	313.38
663.75	312.67
664.09	311.98
664.43	311.23
664.77	310.56
665.11	309.85
665.45	309.22
665.79	308.58
666.13	307.90
666.47	307.21
666.81	306.50
667.15	305.75
667.49	305.13
667.83	304.55
668.17	303.93
668.51	303.35
668.85	302.81
669.19	302.29
669.53	301.68
669.87	301.06
670.21	300.45
670.55	299.88
670.89	299.38
671.23	298.83
671.57	298.30
671.91	297.84
672.25	297.38
672.58	296.90
672.92	296.35
673.26	295.88
673.60	295.43
673.94	294.98
674.28	294.56
674.62	294.10
674.96	293.58
675.30	293.13
675.64	292.65
675.97	292.15
676.31	291.63
676.65	291.15
676.99	290.73
677.33	290.23
677.67	289.78
678.01	289.25
678.34	288.80
678.68	288.39
679.02	287.89
679.36	287.41
679.70	286.94
680.04	286.50
680.37	286.06
680.71	285.62
681.05	285.20
681.39	284.74
681.73	284.25
682.06	283.78
682.40	283.34
682.74	282.95
683.08	282.61
683.42	282.20
683.75	281.81
684.09	281.36
684.43	280.97
684.77	280.55
685.10	280.19
685.44	279.81
685.78	279.40
686.12	279.04
686.45	278.64
686.79	278.24
687.13	277.87
687.46	277.45
687.80	277.08
688.14	276.64
688.48	276.27
688.81	275.88
689.15	275.57
689.49	275.16
689.82	274.76
690.16	274.29
690.50	273.92
690.83	273.53
691.17	273.14
691.51	272.77
691.84	272.43
692.18	272.04
692.52	271.62
692.85	271.24
693.19	270.91
693.52	270.54
693.86	270.16
694.20	269.79
694.53	269.44
694.87	269.06
695.21	268.71
695.54	268.34
695.88	267.98
696.21	267.58
696.55	267.24
696.88	266.88
697.22	266.54
697.56	266.19
697.89	265.80
698.23	265.46
698.56	265.08
698.90	264.73
699.23	264.36
699.57	264.00
699.90	263.64
700.24	263.27
700.58	262.95
700.91	262.66
701.25	262.45
701.58	262.18
701.92	261.90
702.25	261.58
702.59	261.26
702.92	260.94
703.26	260.62
703.59	260.29
703.93	260.07
704.26	259.76
704.60	259.45
704.93	259.14
705.26	258.83
705.60	258.57
705.93	258.24
706.27	257.98
706.60	257.73
706.94	257.49
707.27	257.17
707.61	256.87
707.94	256.54
708.27	256.13
708.61	255.79
708.94	255.47
709.28	255.20
709.61	254.90
709.94	254.65
710.28	254.40
710.61	254.17
710.95	253.80
711.28	253.62
711.61	253.36
711.95	253.14
712.28	252.86
712.61	252.58
712.95	252.42
713.28	252.23
713.61	251.95
713.95	251.66
714.28	251.43
714.61	251.18
714.95	250.95
715.28	250.72
715.61	250.49
715.95	250.28
716.28	250.06
716.61	249.89
716.95	249.64
717.28	249.42
717.61	249.18
717.94	248.97
718.28	248.67
718.61	248.45
718.94	248.21
719.27	248.02
719.61	247.83
719.94	247.58
720.27	247.30
720.60	247.11
720.94	246.91
721.27	246.72
721.60	246.55
721.93	246.34
722.27	246.18
722.60	246.00
722.93	245.79
723.26	245.60
723.59	245.37
723.93	245.20
724.26	245.04
724.59	244.84
724.92	244.67
725.25	244.55
725.59	244.38
725.92	244.23
726.25	244.06
726.58	243.89
726.91	243.72
727.24	243.58
727.57	243.41
727.91	243.23
728.24	243.08
728.57	242.90
728.90	242.77
729.23	242.57
729.56	242.47
729.89	242.32
730.22	242.16
730.55	242.00
730.89	241.86
731.22	241.69
731.55	241.55
731.88	241.40
732.21	241.22
732.54	241.07
732.87	240.93
733.20	240.80
733.53	240.66
733.86	240.54
734.19	240.38
734.52	240.26
734.85	240.22
735.18	240.07
735.51	239.97
735.84	239.83
736.17	239.75
736.50	239.57
736.83	239.60
737.16	239.48
737.49	239.37
737.82	239.23
738.15	239.13
738.48	239.02
738.81	238.89
739.14	238.77
739.47	238.65
739.80	238.53
740.13	238.41
740.46	238.27
740.79	238.14
741.12	238.01
741.45	237.88
741.78	237.69
742.11	237.61
742.44	237.47
742.77	237.38
743.10	237.24
743.43	237.12
743.75	236.87
744.08	236.97
744.41	236.85
744.74	236.75
745.07	236.62
745.40	236.53
745.73	236.49
746.06	236.39
746.39	236.31
746.71	236.20
747.04	236.10
747.37	236.01
747.70	235.94
748.03	235.86
748.36	235.78
748.68	235.69
749.01	235.58
749.34	235.49
749.67	235.40
750.00	235.33
750.33	235.33
750.65	235.25
750.98	234.96
751.31	234.88
751.64	234.80
751.97	234.78
752.29	234.69
752.62	234.54
752.95	234.44
753.28	234.34
753.60	234.25
753.93	234.19
754.26	234.12
754.59	233.99
754.91	233.90
755.24	233.82
755.57	233.80
755.90	233.72
756.22	233.62
756.55	233.53
756.88	233.43
757.20	233.28
757.53	233.17
757.86	233.11
758.19	233.04
758.51	232.96
758.84	232.84
759.17	232.76
759.49	232.70
759.82	232.70
760.15	232.66
760.47	232.60
760.80	232.50
761.13	232.45
761.45	232.39
761.78	232.33
762.11	232.26
762.43	232.14
762.76	232.07
763.08	232.03
763.41	231.98
763.74	231.93
764.06	231.86
764.39	231.83
764.71	231.78
765.04	231.70
765.37	231.64
765.69	231.59
766.02	231.54
766.34	231.48
766.67	231.38
767.00	231.33
767.32	231.34
767.65	231.37
767.97	231.31
768.30	231.29
768.62	231.25
768.95	231.19
769.27	231.14
769.60	231.12
769.92	231.06
770.25	230.99
770.57	230.93
770.90	230.88
771.22	230.83
771.55	230.78
771.87	230.75
772.20	230.71
772.52	230.77
772.85	230.88
773.17	230.84
773.50	230.79
773.82	230.73
774.15	230.64
774.47	230.52
774.80	230.46
775.12	230.41
775.45	230.38
775.77	230.35
776.09	230.32
776.42	230.29
776.74	230.29
777.07	230.25
777.39	230.22
777.72	230.18
778.04	230.16
778.36	230.12
778.69	230.09
779.01	230.08
779.33	229.94
779.66	229.77
779.98	229.74
780.31	229.73
780.63	229.74
780.95	229.73
781.28	229.70
781.60	229.67
781.92	229.65
782.25	229.62
782.57	229.60
782.89	229.58
783.22	229.54
783.54	229.49
783.86	229.47
784.19	229.45
784.51	229.47
784.83	229.43
785.16	229.40
785.48	229.38
785.80	229.35
786.12	229.33
786.45	229.30
786.77	229.28
787.09	229.24
787.42	229.18
787.74	229.16
788.06	229.15
788.38	229.13
788.71	229.09
789.03	229.07
789.35	229.06
789.67	229.02
789.99	229.02
790.32	228.99
790.64	228.98
790.96	229.08
791.28	229.01
791.61	228.98
791.93	228.98
792.25	228.94
792.57	229.01
792.89	228.97
793.21	228.98
793.54	228.96
793.86	228.92
794.18	228.91
794.50	228.87
794.82	228.86
795.14	228.85
795.47	228.86
795.79	228.84
796.11	228.80
796.43	228.78
796.75	228.76
797.07	228.76
797.39	228.73
797.71	228.61
798.04	228.61
798.36	228.61
798.68	228.58
799.00	228.59
799.32	228.51
799.64	228.52
799.96	228.49
800.28	228.50
800.60	228.49
800.92	228.48
801.24	228.47
801.56	228.47
801.89	228.44
802.21	228.43
802.53	228.40
802.85	228.42
803.17	228.46
803.49	228.41
803.81	228.40
804.13	228.38
804.45	228.35
804.77	228.35
805.09	228.32
805.41	228.29
805.73	228.26
806.05	228.21
806.37	228.18
806.69	228.16
807.01	228.15
807.33	228.13
807.65	228.07
807.97	228.11
808.28	228.08
808.60	228.08
808.92	228.05
809.24	228.12
809.56	228.10
809.88	228.04
810.20	228.04
810.52	228.04
810.84	228.01
811.16	227.99
811.48	227.97
811.80	228.02
812.12	228.01
812.43	228.02
812.75	228.02
813.07	228.01
813.39	228.01
813.71	227.97
814.03	227.95
814.35	227.95
814.67	227.88
814.98	227.86
815.30	227.85
815.62	227.81
815.94	227.72
816.26	227.71
816.58	227.67
816.89	227.67
817.21	227.64
817.53	227.64
817.85	227.65
818.17	227.63
818.48	227.57
