SpectraSuite Data File
++++++++++++++++++++++++++++++++++++
Date: Sat Oct 03 02:55:52 EDT 2015
User: lab3
Dark Spectrum Present: No
Reference Spectrum Present: No
Number of Sampled Component Spectra: 1
Spectrometers: USB2E7196
Integration Time (usec): 46000 (USB2E7196)
Spectra Averaged: 12000 (USB2E7196)
Boxcar Smoothing: 10 (USB2E7196)
Correct for Electrical Dark: No (USB2E7196)
Strobe/Lamp Enabled: No (USB2E7196)
Correct for Detector Non-linearity: No (USB2E7196)
Correct for Stray Light: No (USB2E7196)
Number of Pixels in Processed Spectrum: 2048
>>>>>Begin Processed Spectral Data<<<<<
339.09	0.00
339.48	213.60
339.86	215.04
340.24	216.38
340.63	217.77
341.01	221.10
341.39	220.55
341.78	221.94
342.16	223.13
342.54	223.52
342.93	212.01
343.31	222.73
343.69	223.26
344.07	223.72
344.46	224.16
344.84	224.55
345.22	224.77
345.60	225.03
345.99	225.22
346.37	225.35
346.75	225.46
347.13	225.54
347.52	225.61
347.90	225.70
348.28	225.74
348.66	225.80
349.05	225.80
349.43	225.86
349.81	225.92
350.19	225.97
350.57	226.04
350.96	226.12
351.34	226.22
351.72	226.31
352.10	226.42
352.48	226.49
352.87	226.54
353.25	226.61
353.63	226.67
354.01	226.73
354.39	226.81
354.77	226.88
355.15	226.99
355.54	227.04
355.92	227.06
356.30	227.14
356.68	227.29
357.06	227.36
357.44	227.41
357.82	227.46
358.20	227.59
358.58	227.65
358.97	227.71
359.35	227.79
359.73	227.88
360.11	227.93
360.49	227.99
360.87	228.04
361.25	228.11
361.63	228.20
362.01	228.25
362.39	228.28
362.77	228.33
363.15	228.35
363.53	228.39
363.91	228.43
364.29	228.45
364.67	228.35
365.05	228.38
365.43	228.42
365.81	228.45
366.19	228.46
366.57	228.52
366.95	228.52
367.33	228.49
367.71	228.48
368.09	228.50
368.47	228.49
368.85	228.48
369.23	228.49
369.61	228.44
369.99	228.46
370.37	228.46
370.75	228.53
371.13	228.50
371.51	228.45
371.89	228.44
372.27	228.41
372.65	228.39
373.03	228.35
373.41	228.30
373.78	228.26
374.16	228.15
374.54	228.07
374.92	228.03
375.30	227.99
375.68	227.92
376.06	227.87
376.44	227.82
376.82	227.78
377.19	227.73
377.57	227.68
377.95	227.59
378.33	227.52
378.71	227.36
379.09	227.32
379.47	227.29
379.84	227.22
380.22	227.16
380.60	227.09
380.98	227.04
381.36	226.98
381.73	226.92
382.11	226.90
382.49	226.86
382.87	226.79
383.25	226.75
383.62	226.85
384.00	226.78
384.38	226.74
384.76	226.73
385.13	226.72
385.51	226.68
385.89	226.63
386.27	226.60
386.64	226.58
387.02	226.53
387.40	226.48
387.78	226.46
388.15	226.44
388.53	226.41
388.91	226.38
389.29	226.35
389.66	226.34
390.04	226.30
390.42	226.30
390.79	226.29
391.17	226.27
391.55	226.11
391.92	226.10
392.30	226.10
392.68	226.07
393.05	226.04
393.43	226.04
393.81	226.05
394.18	226.03
394.56	226.03
394.94	226.06
395.31	226.06
395.69	226.11
396.06	226.13
396.44	226.16
396.82	226.17
397.19	226.26
397.57	226.27
397.95	226.32
398.32	226.31
398.70	226.35
399.07	226.42
399.45	226.46
399.82	226.51
400.20	226.54
400.58	226.60
400.95	226.61
401.33	226.70
401.70	226.86
402.08	226.96
402.45	227.04
402.83	227.15
403.20	227.27
403.58	227.35
403.95	227.50
404.33	227.64
404.71	227.79
405.08	227.99
405.46	228.16
405.83	228.34
406.21	228.53
406.58	228.76
406.96	228.97
407.33	229.22
407.70	229.50
408.08	229.88
408.45	230.21
408.83	230.57
409.20	230.89
409.58	231.19
409.95	231.59
410.33	232.04
410.70	232.45
411.08	232.93
411.45	233.45
411.82	233.97
412.20	234.56
412.57	235.27
412.95	235.82
413.32	236.55
413.69	237.30
414.07	238.09
414.44	238.95
414.82	239.83
415.19	240.86
415.56	241.90
415.94	242.98
416.31	244.19
416.68	245.40
417.06	246.81
417.43	248.13
417.81	249.65
418.18	251.20
418.55	252.88
418.93	254.64
419.30	256.47
419.67	258.41
420.04	260.40
420.42	262.48
420.79	264.89
421.16	267.32
421.54	269.79
421.91	272.37
422.28	275.04
422.66	277.92
423.03	280.67
423.40	283.55
423.77	286.64
424.15	289.80
424.52	293.10
424.89	296.67
425.26	300.22
425.64	303.52
426.01	307.22
426.38	311.02
426.75	314.93
427.13	318.94
427.50	323.14
427.87	327.50
428.24	331.91
428.61	336.14
428.99	340.72
429.36	345.74
429.73	350.54
430.10	355.35
430.47	360.26
430.85	365.31
431.22	370.75
431.59	376.33
431.96	381.78
432.33	387.83
432.70	393.59
433.08	400.39
433.45	406.82
433.82	413.16
434.19	420.23
434.56	427.21
434.93	433.95
435.30	440.61
435.68	448.14
436.05	455.52
436.42	462.87
436.79	469.58
437.16	476.81
437.53	484.56
437.90	492.31
438.27	499.90
438.64	508.10
439.01	515.53
439.38	522.32
439.75	528.87
440.13	536.25
440.50	543.26
440.87	548.82
441.24	554.91
441.61	561.55
441.98	566.38
442.35	572.11
442.72	577.95
443.09	583.51
443.46	587.01
443.83	589.56
444.20	591.66
444.57	594.84
444.94	596.62
445.31	598.46
445.68	600.00
446.05	601.09
446.42	600.63
446.79	599.98
447.16	599.38
447.53	598.83
447.90	596.35
448.27	593.97
448.64	590.44
449.01	587.94
449.37	583.08
449.74	578.67
450.11	573.03
450.48	566.87
450.85	560.72
451.22	555.46
451.59	550.32
451.96	545.68
452.33	538.94
452.70	532.98
453.07	525.71
453.43	518.47
453.80	511.44
454.17	504.72
454.54	498.55
454.91	491.57
455.28	485.04
455.65	478.90
456.02	472.42
456.38	467.20
456.75	460.48
457.12	455.08
457.49	449.64
457.86	444.50
458.23	440.03
458.59	435.06
458.96	429.97
459.33	425.50
459.70	420.95
460.07	417.50
460.43	413.43
460.80	409.65
461.17	406.36
461.54	402.79
461.91	399.46
462.27	396.06
462.64	393.34
463.01	390.18
463.38	387.01
463.74	384.14
464.11	381.61
464.48	379.34
464.85	376.86
465.21	375.00
465.58	372.92
465.95	370.50
466.32	368.60
466.68	366.73
467.05	364.85
467.42	363.01
467.78	361.01
468.15	359.17
468.52	357.84
468.88	356.03
469.25	354.38
469.62	353.09
469.98	351.66
470.35	350.39
470.72	349.24
471.08	348.07
471.45	347.08
471.82	345.98
472.18	344.81
472.55	344.06
472.92	343.11
473.28	342.36
473.65	341.56
474.02	340.79
474.38	340.14
474.75	339.76
475.11	339.23
475.48	338.98
475.85	338.71
476.21	338.56
476.58	338.45
476.94	338.58
477.31	338.62
477.67	338.70
478.04	338.89
478.41	339.17
478.77	339.58
479.14	339.83
479.50	340.33
479.87	340.98
480.23	341.62
480.60	342.26
480.96	342.91
481.33	343.87
481.69	344.83
482.06	345.79
482.42	346.67
482.79	347.76
483.15	349.02
483.52	350.46
483.88	351.84
484.25	353.32
484.61	354.86
484.98	356.52
485.34	358.40
485.71	360.37
486.07	362.47
486.44	364.56
486.80	366.90
487.17	369.32
487.53	371.99
487.90	374.77
488.26	377.80
488.62	381.00
488.99	384.19
489.35	387.56
489.72	391.20
490.08	395.04
490.44	399.01
490.81	403.14
491.17	407.38
491.54	411.94
491.90	416.64
492.26	421.66
492.63	426.93
492.99	432.41
493.36	438.10
493.72	444.08
494.08	450.21
494.45	456.72
494.81	463.48
495.17	470.42
495.54	477.74
495.90	485.38
496.26	493.19
496.63	501.25
496.99	509.60
497.35	518.36
497.72	527.41
498.08	536.66
498.44	546.22
498.80	556.36
499.17	566.74
499.53	577.46
499.89	588.54
500.26	599.86
500.62	611.46
500.98	623.70
501.34	636.12
501.71	649.06
502.07	662.17
502.43	675.82
502.79	689.71
503.16	704.05
503.52	718.59
503.88	733.55
504.24	748.97
504.60	764.60
504.97	780.71
505.33	797.23
505.69	814.66
506.05	832.42
506.41	850.14
506.78	868.03
507.14	886.44
507.50	905.29
507.86	924.49
508.22	943.93
508.59	963.21
508.95	983.27
509.31	1004.06
509.67	1025.57
510.03	1047.10
510.39	1068.67
510.75	1090.42
511.12	1112.47
511.48	1134.71
511.84	1156.99
512.20	1179.65
512.56	1203.18
512.92	1226.75
513.28	1249.97
513.64	1273.43
514.00	1297.34
514.37	1321.59
514.73	1345.80
515.09	1369.89
515.45	1394.29
515.81	1418.92
516.17	1443.67
516.53	1467.99
516.89	1492.20
517.25	1516.54
517.61	1540.79
517.97	1565.53
518.33	1589.78
518.69	1613.94
519.05	1638.55
519.41	1663.43
519.77	1688.63
520.13	1713.05
520.49	1737.41
520.85	1762.06
521.21	1786.37
521.57	1811.01
521.93	1835.15
522.29	1859.85
522.65	1883.98
523.01	1908.11
523.37	1931.83
523.73	1956.24
524.09	1980.38
524.45	2004.35
524.81	2027.93
525.17	2051.38
525.53	2074.26
525.89	2097.59
526.25	2120.91
526.61	2143.24
526.97	2165.74
527.33	2188.08
527.68	2210.22
528.04	2231.57
528.40	2252.05
528.76	2272.63
529.12	2292.83
529.48	2312.78
529.84	2330.87
530.20	2349.58
530.56	2367.71
530.91	2385.96
531.27	2403.91
531.63	2420.98
531.99	2437.56
532.35	2453.51
532.71	2469.63
533.07	2486.41
533.42	2501.37
533.78	2517.30
534.14	2533.42
534.50	2548.66
534.86	2563.66
535.21	2576.75
535.57	2590.33
535.93	2603.65
536.29	2615.94
536.65	2627.98
537.00	2639.26
537.36	2651.52
537.72	2662.42
538.08	2672.80
538.44	2682.49
538.79	2691.80
539.15	2700.31
539.51	2708.53
539.87	2716.13
540.22	2721.62
540.58	2727.15
540.94	2733.85
541.29	2739.07
541.65	2742.60
542.01	2745.25
542.37	2747.25
542.72	2750.62
543.08	2752.29
543.44	2754.59
543.79	2755.78
544.15	2756.15
544.51	2756.95
544.87	2756.57
545.22	2755.54
545.58	2753.80
545.94	2752.04
546.29	2748.99
546.65	2745.92
547.01	2742.69
547.36	2740.16
547.72	2737.93
548.07	2733.90
548.43	2728.48
548.79	2722.02
549.14	2716.75
549.50	2711.92
549.86	2706.14
550.21	2699.19
550.57	2693.17
550.92	2684.88
551.28	2677.13
551.64	2669.73
551.99	2661.88
552.35	2653.43
552.70	2645.14
553.06	2637.23
553.41	2628.70
553.77	2619.91
554.13	2611.10
554.48	2601.50
554.84	2590.61
555.19	2580.10
555.55	2569.68
555.90	2559.32
556.26	2549.53
556.61	2538.70
556.97	2526.21
557.32	2514.21
557.68	2502.19
558.03	2489.85
558.39	2478.72
558.74	2467.92
559.10	2455.34
559.45	2442.95
559.81	2431.18
560.16	2418.82
560.52	2406.70
560.87	2394.92
561.23	2382.36
561.58	2369.81
561.94	2356.95
562.29	2343.61
562.64	2330.95
563.00	2317.98
563.35	2305.38
563.71	2292.63
564.06	2279.76
564.42	2267.59
564.77	2254.85
565.12	2241.95
565.48	2229.09
565.83	2216.13
566.19	2203.30
566.54	2190.51
566.89	2176.56
567.25	2162.72
567.60	2150.27
567.96	2136.87
568.31	2122.13
568.66	2108.04
569.02	2095.19
569.37	2082.27
569.72	2069.82
570.08	2056.13
570.43	2042.11
570.78	2027.98
571.14	2013.09
571.49	1998.81
571.84	1985.07
572.20	1970.15
572.55	1955.42
572.90	1940.68
573.26	1925.94
573.61	1910.72
573.96	1895.91
574.31	1881.31
574.67	1866.84
575.02	1851.25
575.37	1835.79
575.72	1821.14
576.08	1806.88
576.43	1791.45
576.78	1776.42
577.13	1761.64
577.49	1747.23
577.84	1733.43
578.19	1718.69
578.54	1704.10
578.90	1689.06
579.25	1673.91
579.60	1660.30
579.95	1646.64
580.30	1632.78
580.66	1618.68
581.01	1604.44
581.36	1590.12
581.71	1576.86
582.06	1563.51
582.42	1550.37
582.77	1537.31
583.12	1524.23
583.47	1510.97
583.82	1497.85
584.17	1484.41
584.53	1470.64
584.88	1457.25
585.23	1443.39
585.58	1430.33
585.93	1417.48
586.28	1405.39
586.63	1393.29
586.98	1380.77
587.34	1368.29
587.69	1355.45
588.04	1342.95
588.39	1330.85
588.74	1318.95
589.09	1306.80
589.44	1294.19
589.79	1282.24
590.14	1270.39
590.49	1258.46
590.84	1246.73
591.19	1235.35
591.54	1223.77
591.89	1212.34
592.25	1201.09
592.60	1189.47
592.95	1178.29
593.30	1167.33
593.65	1156.05
594.00	1144.91
594.35	1134.27
594.70	1123.21
595.05	1113.06
595.40	1102.83
595.75	1092.45
596.10	1082.58
596.45	1072.45
596.80	1062.68
597.15	1052.61
597.50	1042.72
597.85	1033.26
598.19	1023.60
598.54	1013.96
598.89	1004.82
599.24	995.98
599.59	986.93
599.94	978.84
600.29	970.52
600.64	961.94
600.99	952.99
601.34	944.39
601.69	935.47
602.04	927.24
602.39	918.83
602.74	910.46
603.08	902.06
603.43	893.60
603.78	885.32
604.13	877.20
604.48	869.13
604.83	861.20
605.18	853.16
605.53	845.30
605.87	837.28
606.22	829.54
606.57	821.75
606.92	813.90
607.27	805.96
607.62	798.31
607.96	791.08
608.31	784.30
608.66	777.31
609.01	770.59
609.36	763.96
609.70	757.15
610.05	750.30
610.40	743.72
610.75	737.13
611.10	730.89
611.44	724.46
611.79	718.15
612.14	711.78
612.49	705.47
612.83	699.48
613.18	693.61
613.53	687.64
613.88	681.71
614.22	676.18
614.57	670.59
614.92	664.86
615.27	659.24
615.61	653.67
615.96	648.15
616.31	642.66
616.65	637.20
617.00	631.97
617.35	626.85
617.70	621.76
618.04	616.74
618.39	611.63
618.74	606.79
619.08	601.98
619.43	597.29
619.78	592.61
620.12	587.88
620.47	583.31
620.82	578.88
621.16	574.48
621.51	569.96
621.85	565.47
622.20	561.15
622.55	556.85
622.89	552.65
623.24	548.45
623.59	544.28
623.93	540.28
624.28	536.36
624.62	532.53
624.97	528.75
625.32	524.92
625.66	521.07
626.01	517.16
626.35	513.35
626.70	509.57
627.04	505.98
627.39	502.32
627.73	498.84
628.08	495.43
628.43	492.02
628.77	488.68
629.12	485.48
629.46	482.30
629.81	479.03
630.15	475.74
630.50	472.55
630.84	469.42
631.19	466.36
631.53	463.41
631.88	460.41
632.22	457.44
632.57	454.76
632.91	452.12
633.26	449.57
633.60	447.02
633.95	444.53
634.29	441.97
634.64	439.48
634.98	436.80
635.32	434.26
635.67	431.92
636.01	429.50
636.36	427.13
636.70	424.89
637.05	422.66
637.39	420.46
637.73	418.29
638.08	416.25
638.42	414.16
638.77	411.94
639.11	409.65
639.45	407.46
639.80	405.20
640.14	403.05
640.49	400.90
640.83	398.72
641.17	396.63
641.52	394.58
641.86	392.56
642.20	390.75
642.55	388.78
642.89	386.83
643.23	384.98
643.58	383.28
643.92	381.47
644.26	379.71
644.61	378.02
644.95	376.28
645.29	374.46
645.64	372.67
645.98	370.98
646.32	369.41
646.66	367.83
647.01	366.26
647.35	364.73
647.69	363.18
648.04	361.78
648.38	360.29
648.72	358.83
649.06	357.38
649.41	355.92
649.75	354.52
650.09	353.15
650.43	351.77
650.78	350.35
651.12	348.96
651.46	347.63
651.80	346.32
652.14	345.04
652.49	343.83
652.83	342.57
653.17	341.37
653.51	340.19
653.85	339.08
654.20	337.92
654.54	336.69
654.88	335.54
655.22	334.42
655.56	333.29
655.90	332.21
656.25	331.17
656.59	330.12
656.93	329.13
657.27	328.14
657.61	327.10
657.95	326.11
658.29	325.11
658.64	324.16
658.98	323.21
659.32	322.28
659.66	321.39
660.00	320.53
660.34	319.67
660.68	318.78
661.02	317.85
661.36	316.96
661.70	316.12
662.05	315.29
662.39	314.48
662.73	313.74
663.07	313.01
663.41	312.23
663.75	311.45
664.09	310.67
664.43	309.86
664.77	309.13
665.11	308.37
665.45	307.66
665.79	306.96
666.13	306.24
666.47	305.50
666.81	304.74
667.15	303.96
667.49	303.28
667.83	302.66
668.17	302.01
668.51	301.40
668.85	300.83
669.19	300.29
669.53	299.64
669.87	298.99
670.21	298.35
670.55	297.76
670.89	297.24
671.23	296.68
671.57	296.12
671.91	295.62
672.25	295.14
672.58	294.66
672.92	294.10
673.26	293.62
673.60	293.14
673.94	292.68
674.28	292.25
674.62	291.78
674.96	291.26
675.30	290.80
675.64	290.31
675.97	289.80
676.31	289.26
676.65	288.77
676.99	288.36
677.33	287.87
677.67	287.41
678.01	286.89
678.34	286.44
678.68	286.02
679.02	285.53
679.36	285.06
679.70	284.59
680.04	284.17
680.37	283.73
680.71	283.31
681.05	282.91
681.39	282.46
681.73	282.00
682.06	281.56
682.40	281.13
682.74	280.75
683.08	280.43
683.42	280.03
683.75	279.68
684.09	279.24
684.43	278.86
684.77	278.47
685.10	278.13
685.44	277.77
685.78	277.40
686.12	277.06
686.45	276.69
686.79	276.30
687.13	275.95
687.46	275.56
687.80	275.20
688.14	274.78
688.48	274.43
688.81	274.08
689.15	273.76
689.49	273.39
689.82	273.01
690.16	272.57
690.50	272.22
690.83	271.85
691.17	271.48
691.51	271.13
691.84	270.80
692.18	270.42
692.52	270.04
692.85	269.67
693.19	269.35
693.52	269.00
693.86	268.66
694.20	268.32
694.53	267.99
694.87	267.63
695.21	267.29
695.54	266.95
695.88	266.60
696.21	266.22
696.55	265.89
696.88	265.56
697.22	265.23
697.56	264.90
697.89	264.53
698.23	264.21
698.56	263.86
698.90	263.53
699.23	263.19
699.57	262.86
699.90	262.52
700.24	262.16
700.58	261.87
700.91	261.59
701.25	261.39
701.58	261.14
701.92	260.88
702.25	260.59
702.59	260.28
702.92	259.99
703.26	259.69
703.59	259.38
703.93	259.18
704.26	258.89
704.60	258.59
704.93	258.30
705.26	257.99
705.60	257.75
705.93	257.43
706.27	257.19
706.60	256.95
706.94	256.72
707.27	256.41
707.61	256.11
707.94	255.80
708.27	255.39
708.61	255.05
708.94	254.74
709.28	254.47
709.61	254.19
709.94	253.93
710.28	253.69
710.61	253.47
710.95	253.11
711.28	252.93
711.61	252.68
711.95	252.47
712.28	252.21
712.61	251.94
712.95	251.78
713.28	251.60
713.61	251.32
713.95	251.04
714.28	250.82
714.61	250.57
714.95	250.34
715.28	250.12
715.61	249.90
715.95	249.70
716.28	249.48
716.61	249.30
716.95	249.07
717.28	248.85
717.61	248.62
717.94	248.41
718.28	248.11
718.61	247.89
718.94	247.66
719.27	247.46
719.61	247.27
719.94	247.03
720.27	246.74
720.60	246.54
720.94	246.35
721.27	246.15
721.60	245.98
721.93	245.79
722.27	245.63
722.60	245.46
722.93	245.25
723.26	245.06
723.59	244.83
723.93	244.65
724.26	244.47
724.59	244.28
724.92	244.11
725.25	243.98
725.59	243.81
725.92	243.66
726.25	243.49
726.58	243.32
726.91	243.14
727.24	243.00
727.57	242.84
727.91	242.66
728.24	242.52
728.57	242.35
728.90	242.21
729.23	242.00
729.56	241.89
729.89	241.74
730.22	241.57
730.55	241.42
730.89	241.26
731.22	241.11
731.55	240.95
731.88	240.80
732.21	240.62
732.54	240.47
732.87	240.33
733.20	240.20
733.53	240.05
733.86	239.92
734.19	239.76
734.52	239.64
734.85	239.60
735.18	239.43
735.51	239.33
735.84	239.20
736.17	239.11
736.50	238.91
736.83	238.93
737.16	238.81
737.49	238.70
737.82	238.57
738.15	238.47
738.48	238.35
738.81	238.22
739.14	238.09
739.47	237.96
739.80	237.83
740.13	237.72
740.46	237.58
740.79	237.45
741.12	237.33
741.45	237.19
741.78	237.00
742.11	236.92
742.44	236.77
742.77	236.68
743.10	236.54
743.43	236.43
743.75	236.18
744.08	236.27
744.41	236.15
744.74	236.04
745.07	235.90
745.40	235.82
745.73	235.77
746.06	235.68
746.39	235.61
746.71	235.50
747.04	235.39
747.37	235.30
747.70	235.23
748.03	235.14
748.36	235.07
748.68	234.97
749.01	234.84
749.34	234.75
749.67	234.66
750.00	234.59
750.33	234.60
750.65	234.51
750.98	234.23
751.31	234.15
751.64	234.07
751.97	234.05
752.29	233.95
752.62	233.81
752.95	233.71
753.28	233.61
753.60	233.52
753.93	233.46
754.26	233.39
754.59	233.26
754.91	233.16
755.24	233.07
755.57	233.05
755.90	232.97
756.22	232.87
756.55	232.77
756.88	232.66
757.20	232.49
757.53	232.38
757.86	232.30
758.19	232.23
758.51	232.15
758.84	232.02
759.17	231.93
759.49	231.86
759.82	231.85
760.15	231.80
760.47	231.73
760.80	231.62
761.13	231.57
761.45	231.51
761.78	231.45
762.11	231.39
762.43	231.26
762.76	231.20
763.08	231.15
763.41	231.10
763.74	231.05
764.06	230.99
764.39	230.94
764.71	230.88
765.04	230.81
765.37	230.75
765.69	230.69
766.02	230.64
766.34	230.58
766.67	230.47
767.00	230.44
767.32	230.46
767.65	230.49
767.97	230.42
768.30	230.38
768.62	230.33
768.95	230.26
769.27	230.21
769.60	230.18
769.92	230.11
770.25	230.04
770.57	229.97
770.90	229.93
771.22	229.87
771.55	229.83
771.87	229.79
772.20	229.74
772.52	229.81
772.85	229.92
773.17	229.88
773.50	229.83
773.82	229.77
774.15	229.67
774.47	229.54
774.80	229.49
775.12	229.45
775.45	229.41
775.77	229.39
776.09	229.36
776.42	229.33
776.74	229.34
777.07	229.30
777.39	229.28
777.72	229.24
778.04	229.22
778.36	229.18
778.69	229.15
779.01	229.13
779.33	228.99
779.66	228.82
779.98	228.78
780.31	228.76
780.63	228.78
780.95	228.77
781.28	228.74
781.60	228.71
781.92	228.68
782.25	228.65
782.57	228.62
782.89	228.58
783.22	228.54
783.54	228.48
783.86	228.46
784.19	228.43
784.51	228.45
784.83	228.41
785.16	228.38
785.48	228.36
785.80	228.33
786.12	228.32
786.45	228.30
786.77	228.28
787.09	228.25
787.42	228.18
787.74	228.17
788.06	228.15
788.38	228.13
788.71	228.10
789.03	228.08
789.35	228.08
789.67	228.05
789.99	228.03
790.32	228.00
790.64	228.00
790.96	228.09
791.28	228.03
791.61	228.01
791.93	228.00
792.25	227.97
792.57	228.03
792.89	227.99
793.21	227.99
793.54	227.95
793.86	227.92
794.18	227.91
794.50	227.87
794.82	227.85
795.14	227.85
795.47	227.85
795.79	227.83
796.11	227.78
796.43	227.76
796.75	227.75
797.07	227.74
797.39	227.71
797.71	227.59
798.04	227.58
798.36	227.57
798.68	227.55
799.00	227.54
799.32	227.46
799.64	227.47
799.96	227.45
800.28	227.46
800.60	227.44
800.92	227.43
801.24	227.41
801.56	227.41
801.89	227.38
802.21	227.37
802.53	227.33
802.85	227.35
803.17	227.39
803.49	227.35
803.81	227.32
804.13	227.30
804.45	227.27
804.77	227.27
805.09	227.25
805.41	227.23
805.73	227.19
806.05	227.14
806.37	227.12
806.69	227.09
807.01	227.06
807.33	227.06
807.65	227.00
807.97	227.04
808.28	227.02
808.60	227.01
808.92	226.97
809.24	227.04
809.56	227.01
809.88	226.95
810.20	226.95
810.52	226.97
810.84	226.94
811.16	226.92
811.48	226.89
811.80	226.93
812.12	226.92
812.43	226.94
812.75	226.94
813.07	226.92
813.39	226.92
813.71	226.89
814.03	226.87
814.35	226.87
814.67	226.81
814.98	226.79
815.30	226.77
815.62	226.74
815.94	226.65
816.26	226.65
816.58	226.62
816.89	226.62
817.21	226.59
817.53	226.59
817.85	226.59
818.17	226.58
818.48	226.51
