SpectraSuite Data File
++++++++++++++++++++++++++++++++++++
Date: Fri Oct 02 18:29:30 EDT 2015
User: lab3
Dark Spectrum Present: No
Reference Spectrum Present: No
Number of Sampled Component Spectra: 1
Spectrometers: USB2E7196
Integration Time (usec): 46000 (USB2E7196)
Spectra Averaged: 1500 (USB2E7196)
Boxcar Smoothing: 10 (USB2E7196)
Correct for Electrical Dark: No (USB2E7196)
Strobe/Lamp Enabled: No (USB2E7196)
Correct for Detector Non-linearity: No (USB2E7196)
Correct for Stray Light: No (USB2E7196)
Number of Pixels in Processed Spectrum: 2048
>>>>>Begin Processed Spectral Data<<<<<
339.09	0.00
339.48	215.52
339.86	216.95
340.24	218.20
340.63	219.49
341.01	222.77
341.39	222.40
341.78	223.72
342.16	224.98
342.54	225.34
342.93	213.77
343.31	224.57
343.69	225.11
344.07	225.56
344.46	225.99
344.84	226.39
345.22	226.62
345.60	226.87
345.99	227.06
346.37	227.19
346.75	227.30
347.13	227.38
347.52	227.45
347.90	227.54
348.28	227.58
348.66	227.62
349.05	227.61
349.43	227.66
349.81	227.73
350.19	227.78
350.57	227.85
350.96	227.93
351.34	228.02
351.72	228.11
352.10	228.22
352.48	228.30
352.87	228.35
353.25	228.42
353.63	228.48
354.01	228.55
354.39	228.64
354.77	228.71
355.15	228.82
355.54	228.88
355.92	228.90
356.30	228.98
356.68	229.14
357.06	229.23
357.44	229.27
357.82	229.32
358.20	229.44
358.58	229.51
358.97	229.58
359.35	229.66
359.73	229.75
360.11	229.79
360.49	229.85
360.87	229.90
361.25	229.97
361.63	230.06
362.01	230.11
362.39	230.14
362.77	230.19
363.15	230.21
363.53	230.25
363.91	230.30
364.29	230.32
364.67	230.23
365.05	230.25
365.43	230.29
365.81	230.32
366.19	230.34
366.57	230.39
366.95	230.39
367.33	230.36
367.71	230.36
368.09	230.38
368.47	230.38
368.85	230.37
369.23	230.38
369.61	230.32
369.99	230.34
370.37	230.33
370.75	230.40
371.13	230.38
371.51	230.32
371.89	230.29
372.27	230.26
372.65	230.24
373.03	230.20
373.41	230.16
373.78	230.10
374.16	229.99
374.54	229.91
374.92	229.86
375.30	229.82
375.68	229.74
376.06	229.71
376.44	229.65
376.82	229.60
377.19	229.56
377.57	229.51
377.95	229.42
378.33	229.36
378.71	229.20
379.09	229.15
379.47	229.12
379.84	229.06
380.22	229.00
380.60	228.93
380.98	228.89
381.36	228.84
381.73	228.78
382.11	228.77
382.49	228.73
382.87	228.67
383.25	228.63
383.62	228.73
384.00	228.66
384.38	228.60
384.76	228.59
385.13	228.59
385.51	228.54
385.89	228.50
386.27	228.46
386.64	228.44
387.02	228.39
387.40	228.34
387.78	228.32
388.15	228.29
388.53	228.26
388.91	228.22
389.29	228.18
389.66	228.17
390.04	228.12
390.42	228.13
390.79	228.12
391.17	228.09
391.55	227.94
391.92	227.93
392.30	227.94
392.68	227.91
393.05	227.89
393.43	227.88
393.81	227.89
394.18	227.87
394.56	227.87
394.94	227.91
395.31	227.90
395.69	227.95
396.06	227.97
396.44	228.00
396.82	228.01
397.19	228.10
397.57	228.12
397.95	228.16
398.32	228.15
398.70	228.19
399.07	228.25
399.45	228.29
399.82	228.33
400.20	228.36
400.58	228.42
400.95	228.43
401.33	228.52
401.70	228.67
402.08	228.77
402.45	228.86
402.83	228.97
403.20	229.08
403.58	229.16
403.95	229.30
404.33	229.44
404.71	229.58
405.08	229.77
405.46	229.92
405.83	230.10
406.21	230.28
406.58	230.49
406.96	230.69
407.33	230.93
407.70	231.20
408.08	231.57
408.45	231.89
408.83	232.23
409.20	232.54
409.58	232.82
409.95	233.20
410.33	233.62
410.70	234.00
411.08	234.48
411.45	234.99
411.82	235.49
412.20	236.06
412.57	236.76
412.95	237.30
413.32	238.00
413.69	238.71
414.07	239.48
414.44	240.31
414.82	241.16
415.19	242.14
415.56	243.15
415.94	244.18
416.31	245.35
416.68	246.52
417.06	247.86
417.43	249.13
417.81	250.59
418.18	252.07
418.55	253.70
418.93	255.39
419.30	257.15
419.67	259.02
420.04	260.93
420.42	262.92
420.79	265.24
421.16	267.56
421.54	269.95
421.91	272.43
422.28	274.99
422.66	277.76
423.03	280.40
423.40	283.17
423.77	286.13
424.15	289.17
424.52	292.34
424.89	295.78
425.26	299.17
425.64	302.34
426.01	305.91
426.38	309.56
426.75	313.31
427.13	317.16
427.50	321.19
427.87	325.38
428.24	329.60
428.61	333.65
428.99	338.05
429.36	342.85
429.73	347.45
430.10	352.07
430.47	356.79
430.85	361.66
431.22	366.88
431.59	372.25
431.96	377.49
432.33	383.30
432.70	388.81
433.08	395.37
433.45	401.55
433.82	407.62
434.19	414.42
434.56	421.13
434.93	427.60
435.30	434.02
435.68	441.26
436.05	448.35
436.42	455.42
436.79	461.86
437.16	468.82
437.53	476.27
437.90	483.72
438.27	490.99
438.64	498.83
439.01	505.94
439.38	512.45
439.75	518.69
440.13	525.74
440.50	532.45
440.87	537.75
441.24	543.57
441.61	549.92
441.98	554.52
442.35	559.99
442.72	565.57
443.09	570.86
443.46	574.16
443.83	576.56
444.20	578.56
444.57	581.57
444.94	583.22
445.31	584.93
445.68	586.36
446.05	587.36
446.42	586.86
446.79	586.18
447.16	585.57
447.53	585.00
447.90	582.59
448.27	580.27
448.64	576.84
449.01	574.41
449.37	569.72
449.74	565.47
450.11	560.01
450.48	554.07
450.85	548.12
451.22	543.05
451.59	538.10
451.96	533.61
452.33	527.13
452.70	521.40
453.07	514.42
453.43	507.47
453.80	500.73
454.17	494.31
454.54	488.39
454.91	481.71
455.28	475.46
455.65	469.58
456.02	463.39
456.38	458.38
456.75	451.96
457.12	446.79
457.49	441.58
457.86	436.67
458.23	432.39
458.59	427.64
458.96	422.78
459.33	418.51
459.70	414.17
460.07	410.89
460.43	407.00
460.80	403.39
461.17	400.24
461.54	396.84
461.91	393.66
462.27	390.43
462.64	387.82
463.01	384.81
463.38	381.78
463.74	379.03
464.11	376.62
464.48	374.46
464.85	372.09
465.21	370.32
465.58	368.34
465.95	366.05
466.32	364.25
466.68	362.48
467.05	360.70
467.42	358.94
467.78	357.04
468.15	355.30
468.52	354.04
468.88	352.33
469.25	350.77
469.62	349.54
469.98	348.19
470.35	347.00
470.72	345.91
471.08	344.79
471.45	343.86
471.82	342.83
472.18	341.72
472.55	341.02
472.92	340.11
473.28	339.40
473.65	338.65
474.02	337.93
474.38	337.32
474.75	336.97
475.11	336.46
475.48	336.24
475.85	335.99
476.21	335.85
476.58	335.76
476.94	335.88
477.31	335.93
477.67	336.01
478.04	336.19
478.41	336.47
478.77	336.88
479.14	337.14
479.50	337.62
479.87	338.25
480.23	338.88
480.60	339.51
480.96	340.15
481.33	341.07
481.69	342.01
482.06	342.94
482.42	343.78
482.79	344.84
483.15	346.06
483.52	347.45
483.88	348.79
484.25	350.24
484.61	351.74
484.98	353.37
485.34	355.20
485.71	357.11
486.07	359.13
486.44	361.15
486.80	363.42
487.17	365.78
487.53	368.36
487.90	371.05
488.26	373.98
488.62	377.07
488.99	380.18
489.35	383.45
489.72	387.00
490.08	390.73
490.44	394.58
490.81	398.58
491.17	402.67
491.54	407.08
491.90	411.64
492.26	416.52
492.63	421.61
492.99	426.94
493.36	432.46
493.72	438.27
494.08	444.23
494.45	450.55
494.81	457.12
495.17	463.88
495.54	471.03
495.90	478.46
496.26	486.06
496.63	493.90
496.99	502.05
497.35	510.58
497.72	519.39
498.08	528.39
498.44	537.74
498.80	547.64
499.17	557.77
499.53	568.20
499.89	579.01
500.26	590.04
500.62	601.35
500.98	613.27
501.34	625.39
501.71	638.01
502.07	650.82
502.43	664.15
502.79	677.70
503.16	691.68
503.52	705.88
503.88	720.51
504.24	735.59
504.60	750.89
504.97	766.65
505.33	782.81
505.69	799.89
506.05	817.24
506.41	834.56
506.78	852.12
507.14	870.14
507.50	888.60
507.86	907.44
508.22	926.51
508.59	945.42
508.95	965.14
509.31	985.58
509.67	1006.66
510.03	1027.75
510.39	1048.96
510.75	1070.38
511.12	1092.05
511.48	1113.88
511.84	1135.81
512.20	1158.15
512.56	1181.32
512.92	1204.54
513.28	1227.41
513.64	1250.59
514.00	1274.18
514.37	1298.04
514.73	1321.95
515.09	1345.78
515.45	1369.99
515.81	1394.29
516.17	1418.84
516.53	1442.86
516.89	1466.77
517.25	1490.95
517.61	1515.03
517.97	1539.56
518.33	1563.61
518.69	1587.59
519.05	1612.13
519.41	1636.91
519.77	1661.85
520.13	1686.17
520.49	1710.44
520.85	1735.07
521.21	1759.18
521.57	1783.75
521.93	1807.87
522.29	1832.49
522.65	1856.59
523.01	1880.64
523.37	1904.37
523.73	1928.75
524.09	1952.95
524.45	1976.96
524.81	2000.56
525.17	2024.05
525.53	2046.98
525.89	2070.32
526.25	2093.73
526.61	2116.09
526.97	2138.65
527.33	2161.20
527.68	2183.42
528.04	2204.91
528.40	2225.42
528.76	2246.39
529.12	2266.75
529.48	2286.77
529.84	2305.09
530.20	2324.13
530.56	2342.54
530.91	2361.10
531.27	2379.31
531.63	2396.72
531.99	2413.73
532.35	2430.13
532.71	2446.58
533.07	2463.68
533.42	2479.11
533.78	2495.50
534.14	2512.06
534.50	2527.59
534.86	2542.93
535.21	2556.42
535.57	2570.40
535.93	2584.19
536.29	2596.77
536.65	2609.33
537.00	2621.20
537.36	2633.98
537.72	2645.16
538.08	2656.01
538.44	2666.23
538.79	2676.06
539.15	2684.99
539.51	2693.53
539.87	2701.38
540.22	2707.42
540.58	2713.53
540.94	2720.85
541.29	2726.53
541.65	2730.49
542.01	2733.79
542.37	2736.45
542.72	2740.47
543.08	2742.75
543.44	2745.60
543.79	2747.39
544.15	2748.32
544.51	2749.71
544.87	2749.94
545.22	2749.45
545.58	2748.22
545.94	2747.05
546.29	2744.54
546.65	2742.08
547.01	2739.61
547.36	2737.83
547.72	2736.02
548.07	2732.51
548.43	2727.47
548.79	2721.61
549.14	2717.02
549.50	2712.66
549.86	2707.33
550.21	2700.81
550.57	2695.27
550.92	2687.45
551.28	2680.26
551.64	2673.33
551.99	2665.84
552.35	2657.72
552.70	2649.93
553.06	2642.39
553.41	2634.17
553.77	2625.74
554.13	2617.26
554.48	2607.86
554.84	2597.29
555.19	2587.31
555.55	2577.33
555.90	2567.36
556.26	2557.85
556.61	2547.24
556.97	2535.00
557.32	2523.27
557.68	2511.47
558.03	2499.48
558.39	2488.64
558.74	2478.05
559.10	2465.73
559.45	2453.74
559.81	2442.34
560.16	2430.23
560.52	2418.35
560.87	2406.82
561.23	2394.42
561.58	2382.15
561.94	2369.55
562.29	2356.34
562.64	2343.78
563.00	2330.92
563.35	2318.54
563.71	2305.96
564.06	2293.21
564.42	2281.17
564.77	2268.54
565.12	2255.78
565.48	2242.94
565.83	2230.13
566.19	2217.37
566.54	2204.54
566.89	2190.53
567.25	2176.72
567.60	2164.29
567.96	2150.98
568.31	2136.26
568.66	2122.36
569.02	2109.53
569.37	2096.63
569.72	2084.28
570.08	2070.65
570.43	2056.67
570.78	2042.45
571.14	2027.54
571.49	2013.33
571.84	1999.71
572.20	1984.77
572.55	1970.16
572.90	1955.39
573.26	1940.60
573.61	1925.26
573.96	1910.43
574.31	1895.89
574.67	1881.31
575.02	1865.67
575.37	1850.15
575.72	1835.52
576.08	1821.14
576.43	1805.60
576.78	1790.52
577.13	1775.73
577.49	1761.21
577.84	1747.32
578.19	1732.47
578.54	1717.82
578.90	1702.70
579.25	1687.43
579.60	1673.80
579.95	1659.99
580.30	1646.03
580.66	1631.82
581.01	1617.57
581.36	1603.25
581.71	1589.95
582.06	1576.53
582.42	1563.40
582.77	1550.24
583.12	1537.01
583.47	1523.72
583.82	1510.51
584.17	1496.95
584.53	1483.01
584.88	1469.49
585.23	1455.51
585.58	1442.40
585.93	1429.50
586.28	1417.35
586.63	1405.22
586.98	1392.56
587.34	1379.97
587.69	1367.08
588.04	1354.53
588.39	1342.38
588.74	1330.39
589.09	1318.11
589.44	1305.45
589.79	1293.42
590.14	1281.51
590.49	1269.54
590.84	1257.67
591.19	1246.26
591.54	1234.63
591.89	1223.16
592.25	1211.90
592.60	1200.26
592.95	1189.03
593.30	1178.01
593.65	1166.65
594.00	1155.34
594.35	1144.66
594.70	1133.59
595.05	1123.41
595.40	1113.09
595.75	1102.59
596.10	1092.67
596.45	1082.47
596.80	1072.59
597.15	1062.48
597.50	1052.51
597.85	1042.95
598.19	1033.22
598.54	1023.53
598.89	1014.29
599.24	1005.38
599.59	996.27
599.94	988.15
600.29	979.76
600.64	971.03
600.99	961.97
601.34	953.34
601.69	944.37
602.04	936.03
602.39	927.54
602.74	919.09
603.08	910.62
603.43	902.11
603.78	893.79
604.13	885.65
604.48	877.47
604.83	869.47
605.18	861.40
605.53	853.47
605.87	845.36
606.22	837.61
606.57	829.78
606.92	821.82
607.27	813.78
607.62	806.09
607.96	798.87
608.31	792.05
608.66	785.02
609.01	778.30
609.36	771.67
609.70	764.80
610.05	757.96
610.40	751.37
610.75	744.74
611.10	738.45
611.44	732.01
611.79	725.68
612.14	719.28
612.49	712.96
612.83	706.97
613.18	701.09
613.53	695.09
613.88	689.13
614.22	683.61
614.57	678.01
614.92	672.23
615.27	666.62
615.61	661.04
615.96	655.51
616.31	649.97
616.65	644.50
617.00	639.28
617.35	634.16
617.70	629.09
618.04	624.06
618.39	618.94
618.74	614.10
619.08	609.28
619.43	604.59
619.78	599.94
620.12	595.21
620.47	590.69
620.82	586.26
621.16	581.83
621.51	577.29
621.85	572.81
622.20	568.53
622.55	564.23
622.89	560.02
623.24	555.81
623.59	551.67
623.93	547.68
624.28	543.77
624.62	539.95
624.97	536.17
625.32	532.39
625.66	528.55
626.01	524.67
626.35	520.88
626.70	517.15
627.04	513.56
627.39	509.93
627.73	506.47
628.08	503.12
628.43	499.77
628.77	496.49
629.12	493.33
629.46	490.17
629.81	486.92
630.15	483.70
630.50	480.58
630.84	477.48
631.19	474.44
631.53	471.51
631.88	468.55
632.22	465.62
632.57	462.98
632.91	460.38
633.26	457.86
633.60	455.34
633.95	452.89
634.29	450.36
634.64	447.89
634.98	445.22
635.32	442.70
635.67	440.39
636.01	438.00
636.36	435.66
636.70	433.47
637.05	431.28
637.39	429.11
637.73	426.97
638.08	424.94
638.42	422.88
638.77	420.70
639.11	418.47
639.45	416.31
639.80	414.08
640.14	411.99
640.49	409.86
640.83	407.71
641.17	405.65
641.52	403.63
641.86	401.65
642.20	399.89
642.55	397.96
642.89	396.04
643.23	394.23
643.58	392.58
643.92	390.78
644.26	389.05
644.61	387.38
644.95	385.66
645.29	383.88
645.64	382.13
645.98	380.45
646.32	378.88
646.66	377.33
647.01	375.80
647.35	374.28
647.69	372.76
648.04	371.39
648.38	369.91
648.72	368.47
649.06	367.03
649.41	365.60
649.75	364.22
650.09	362.85
650.43	361.50
650.78	360.07
651.12	358.71
651.46	357.39
651.80	356.08
652.14	354.82
652.49	353.61
652.83	352.37
653.17	351.17
653.51	350.01
653.85	348.91
654.20	347.75
654.54	346.52
654.88	345.40
655.22	344.28
655.56	343.15
655.90	342.10
656.25	341.08
656.59	340.02
656.93	339.03
657.27	338.05
657.61	337.01
657.95	336.01
658.29	335.00
658.64	334.05
658.98	333.10
659.32	332.17
659.66	331.29
660.00	330.43
660.34	329.56
660.68	328.67
661.02	327.71
661.36	326.80
661.70	325.94
662.05	325.08
662.39	324.23
662.73	323.47
663.07	322.71
663.41	321.90
663.75	321.09
664.09	320.27
664.43	319.44
664.77	318.69
665.11	317.89
665.45	317.16
665.79	316.43
666.13	315.66
666.47	314.87
666.81	314.06
667.15	313.23
667.49	312.51
667.83	311.85
668.17	311.17
668.51	310.54
668.85	309.92
669.19	309.33
669.53	308.66
669.87	307.97
670.21	307.30
670.55	306.67
670.89	306.11
671.23	305.52
671.57	304.93
671.91	304.39
672.25	303.87
672.58	303.33
672.92	302.72
673.26	302.21
673.60	301.70
673.94	301.21
674.28	300.74
674.62	300.24
674.96	299.66
675.30	299.16
675.64	298.62
675.97	298.07
676.31	297.49
676.65	296.97
676.99	296.51
677.33	295.97
677.67	295.47
678.01	294.90
678.34	294.40
678.68	293.94
679.02	293.41
679.36	292.89
679.70	292.38
680.04	291.90
680.37	291.42
680.71	290.95
681.05	290.50
681.39	290.00
681.73	289.48
682.06	288.98
682.40	288.51
682.74	288.08
683.08	287.71
683.42	287.27
683.75	286.86
684.09	286.36
684.43	285.93
684.77	285.49
685.10	285.11
685.44	284.71
685.78	284.29
686.12	283.90
686.45	283.47
686.79	283.04
687.13	282.64
687.46	282.21
687.80	281.79
688.14	281.33
688.48	280.95
688.81	280.54
689.15	280.17
689.49	279.75
689.82	279.34
690.16	278.85
690.50	278.46
690.83	278.04
691.17	277.64
691.51	277.25
691.84	276.86
692.18	276.43
692.52	275.99
692.85	275.58
693.19	275.21
693.52	274.81
693.86	274.42
694.20	274.03
694.53	273.66
694.87	273.25
695.21	272.86
695.54	272.46
695.88	272.08
696.21	271.66
696.55	271.29
696.88	270.91
697.22	270.54
697.56	270.15
697.89	269.73
698.23	269.36
698.56	268.96
698.90	268.59
699.23	268.20
699.57	267.81
699.90	267.43
700.24	267.02
700.58	266.70
700.91	266.38
701.25	266.13
701.58	265.83
701.92	265.53
702.25	265.20
702.59	264.86
702.92	264.52
703.26	264.17
703.59	263.83
703.93	263.58
704.26	263.26
704.60	262.93
704.93	262.60
705.26	262.26
705.60	261.98
705.93	261.62
706.27	261.34
706.60	261.06
706.94	260.80
707.27	260.46
707.61	260.12
707.94	259.78
708.27	259.35
708.61	258.98
708.94	258.64
709.28	258.34
709.61	258.03
709.94	257.76
710.28	257.50
710.61	257.24
710.95	256.87
711.28	256.67
711.61	256.39
711.95	256.15
712.28	255.87
712.61	255.58
712.95	255.39
713.28	255.20
713.61	254.90
713.95	254.59
714.28	254.36
714.61	254.08
714.95	253.83
715.28	253.58
715.61	253.35
715.95	253.12
716.28	252.89
716.61	252.69
716.95	252.42
717.28	252.18
717.61	251.93
717.94	251.69
718.28	251.36
718.61	251.13
718.94	250.87
719.27	250.65
719.61	250.45
719.94	250.19
720.27	249.89
720.60	249.68
720.94	249.47
721.27	249.27
721.60	249.08
721.93	248.86
722.27	248.69
722.60	248.50
722.93	248.28
723.26	248.07
723.59	247.84
723.93	247.65
724.26	247.46
724.59	247.25
724.92	247.06
725.25	246.92
725.59	246.73
725.92	246.57
726.25	246.40
726.58	246.22
726.91	246.03
727.24	245.87
727.57	245.70
727.91	245.51
728.24	245.36
728.57	245.18
728.90	245.03
729.23	244.82
729.56	244.69
729.89	244.51
730.22	244.33
730.55	244.17
730.89	244.01
731.22	243.84
731.55	243.68
731.88	243.52
732.21	243.34
732.54	243.18
732.87	243.02
733.20	242.87
733.53	242.71
733.86	242.56
734.19	242.39
734.52	242.26
734.85	242.20
735.18	242.02
735.51	241.90
735.84	241.76
736.17	241.65
736.50	241.45
736.83	241.46
737.16	241.33
737.49	241.21
737.82	241.07
738.15	240.95
738.48	240.84
738.81	240.70
739.14	240.56
739.47	240.43
739.80	240.29
740.13	240.17
740.46	240.03
740.79	239.89
741.12	239.76
741.45	239.62
741.78	239.42
742.11	239.32
742.44	239.16
742.77	239.05
743.10	238.91
743.43	238.79
743.75	238.54
744.08	238.61
744.41	238.49
744.74	238.37
745.07	238.23
745.40	238.13
745.73	238.08
746.06	237.98
746.39	237.88
746.71	237.78
747.04	237.66
747.37	237.55
747.70	237.47
748.03	237.38
748.36	237.30
748.68	237.19
749.01	237.06
749.34	236.98
749.67	236.90
750.00	236.82
750.33	236.82
750.65	236.74
750.98	236.46
751.31	236.37
751.64	236.29
751.97	236.26
752.29	236.16
752.62	236.00
752.95	235.90
753.28	235.79
753.60	235.70
753.93	235.64
754.26	235.56
754.59	235.44
754.91	235.34
755.24	235.24
755.57	235.23
755.90	235.14
756.22	235.05
756.55	234.93
756.88	234.83
757.20	234.66
757.53	234.54
757.86	234.46
758.19	234.38
758.51	234.31
758.84	234.17
759.17	234.08
759.49	234.01
759.82	234.00
760.15	233.95
760.47	233.87
760.80	233.77
761.13	233.72
761.45	233.65
761.78	233.58
762.11	233.52
762.43	233.39
762.76	233.33
763.08	233.28
763.41	233.22
763.74	233.17
764.06	233.10
764.39	233.05
764.71	232.99
765.04	232.91
765.37	232.83
765.69	232.78
766.02	232.72
766.34	232.65
766.67	232.55
767.00	232.51
767.32	232.53
767.65	232.55
767.97	232.49
768.30	232.45
768.62	232.40
768.95	232.33
769.27	232.26
769.60	232.22
769.92	232.14
770.25	232.07
770.57	231.99
770.90	231.95
771.22	231.90
771.55	231.85
771.87	231.81
772.20	231.76
772.52	231.82
772.85	231.94
773.17	231.90
773.50	231.85
773.82	231.78
774.15	231.66
774.47	231.54
774.80	231.49
775.12	231.44
775.45	231.40
775.77	231.37
776.09	231.36
776.42	231.33
776.74	231.34
777.07	231.31
777.39	231.29
777.72	231.24
778.04	231.22
778.36	231.17
778.69	231.15
779.01	231.13
779.33	230.99
779.66	230.82
779.98	230.77
780.31	230.76
780.63	230.78
780.95	230.78
781.28	230.75
781.60	230.71
781.92	230.68
782.25	230.66
782.57	230.62
782.89	230.58
783.22	230.55
783.54	230.49
783.86	230.47
784.19	230.44
784.51	230.45
784.83	230.41
785.16	230.38
785.48	230.36
785.80	230.33
786.12	230.31
786.45	230.28
786.77	230.27
787.09	230.23
787.42	230.16
787.74	230.13
788.06	230.12
788.38	230.09
788.71	230.07
789.03	230.05
789.35	230.05
789.67	230.02
789.99	230.01
790.32	229.98
790.64	229.97
790.96	230.06
791.28	230.00
791.61	229.97
791.93	229.95
792.25	229.92
792.57	229.99
792.89	229.95
793.21	229.94
793.54	229.90
793.86	229.87
794.18	229.87
794.50	229.83
794.82	229.81
795.14	229.81
795.47	229.80
795.79	229.78
796.11	229.73
796.43	229.70
796.75	229.68
797.07	229.68
797.39	229.66
797.71	229.54
798.04	229.53
798.36	229.51
798.68	229.49
799.00	229.49
799.32	229.41
799.64	229.42
799.96	229.40
800.28	229.40
800.60	229.39
800.92	229.36
801.24	229.35
801.56	229.34
801.89	229.31
802.21	229.30
802.53	229.26
802.85	229.28
803.17	229.32
803.49	229.28
803.81	229.24
804.13	229.22
804.45	229.18
804.77	229.18
805.09	229.17
805.41	229.15
805.73	229.11
806.05	229.06
806.37	229.03
806.69	229.01
807.01	228.99
807.33	228.97
807.65	228.93
807.97	228.97
808.28	228.93
808.60	228.93
808.92	228.90
809.24	228.97
809.56	228.94
809.88	228.88
810.20	228.89
810.52	228.90
810.84	228.87
811.16	228.85
811.48	228.83
811.80	228.87
812.12	228.86
812.43	228.87
812.75	228.87
813.07	228.86
813.39	228.86
813.71	228.84
814.03	228.83
814.35	228.82
814.67	228.76
814.98	228.75
815.30	228.74
815.62	228.71
815.94	228.61
816.26	228.61
816.58	228.59
816.89	228.59
817.21	228.55
817.53	228.56
817.85	228.56
818.17	228.55
818.48	228.49
