SpectraSuite Data File
++++++++++++++++++++++++++++++++++++
Date: Fri Oct 02 22:13:16 EDT 2015
User: lab3
Dark Spectrum Present: No
Reference Spectrum Present: No
Number of Sampled Component Spectra: 1
Spectrometers: USB2E7196
Integration Time (usec): 46000 (USB2E7196)
Spectra Averaged: 12000 (USB2E7196)
Boxcar Smoothing: 10 (USB2E7196)
Correct for Electrical Dark: No (USB2E7196)
Strobe/Lamp Enabled: No (USB2E7196)
Correct for Detector Non-linearity: No (USB2E7196)
Correct for Stray Light: No (USB2E7196)
Number of Pixels in Processed Spectrum: 2048
>>>>>Begin Processed Spectral Data<<<<<
339.09	0.00
339.48	215.26
339.86	216.73
340.24	218.10
340.63	219.56
341.01	222.76
341.39	222.24
341.78	223.61
342.16	224.89
342.54	225.20
342.93	213.64
343.31	224.43
343.69	224.97
344.07	225.43
344.46	225.87
344.84	226.25
345.22	226.48
345.60	226.73
345.99	226.93
346.37	227.06
346.75	227.17
347.13	227.25
347.52	227.32
347.90	227.41
348.28	227.45
348.66	227.51
349.05	227.51
349.43	227.56
349.81	227.62
350.19	227.67
350.57	227.74
350.96	227.82
351.34	227.91
351.72	228.01
352.10	228.11
352.48	228.18
352.87	228.23
353.25	228.30
353.63	228.36
354.01	228.42
354.39	228.50
354.77	228.57
355.15	228.68
355.54	228.73
355.92	228.75
356.30	228.83
356.68	228.97
357.06	229.05
357.44	229.09
357.82	229.15
358.20	229.27
358.58	229.32
358.97	229.38
359.35	229.46
359.73	229.55
360.11	229.60
360.49	229.65
360.87	229.70
361.25	229.77
361.63	229.85
362.01	229.90
362.39	229.93
362.77	229.97
363.15	229.99
363.53	230.02
363.91	230.06
364.29	230.08
364.67	229.98
365.05	230.01
365.43	230.04
365.81	230.07
366.19	230.08
366.57	230.14
366.95	230.14
367.33	230.11
367.71	230.10
368.09	230.12
368.47	230.11
368.85	230.10
369.23	230.11
369.61	230.05
369.99	230.07
370.37	230.07
370.75	230.14
371.13	230.11
371.51	230.07
371.89	230.05
372.27	230.03
372.65	230.01
373.03	229.97
373.41	229.92
373.78	229.88
374.16	229.77
374.54	229.69
374.92	229.64
375.30	229.60
375.68	229.53
376.06	229.49
376.44	229.43
376.82	229.38
377.19	229.34
377.57	229.29
377.95	229.19
378.33	229.13
378.71	228.97
379.09	228.92
379.47	228.89
379.84	228.83
380.22	228.76
380.60	228.69
380.98	228.64
381.36	228.59
381.73	228.52
382.11	228.50
382.49	228.46
382.87	228.40
383.25	228.36
383.62	228.46
384.00	228.39
384.38	228.36
384.76	228.35
385.13	228.34
385.51	228.30
385.89	228.25
386.27	228.22
386.64	228.21
387.02	228.16
387.40	228.12
387.78	228.09
388.15	228.07
388.53	228.04
388.91	228.01
389.29	227.98
389.66	227.98
390.04	227.94
390.42	227.94
390.79	227.92
391.17	227.90
391.55	227.75
391.92	227.74
392.30	227.74
392.68	227.70
393.05	227.68
393.43	227.68
393.81	227.69
394.18	227.67
394.56	227.67
394.94	227.71
395.31	227.71
395.69	227.75
396.06	227.79
396.44	227.81
396.82	227.82
397.19	227.91
397.57	227.92
397.95	227.96
398.32	227.96
398.70	228.00
399.07	228.07
399.45	228.11
399.82	228.15
400.20	228.19
400.58	228.25
400.95	228.26
401.33	228.34
401.70	228.49
402.08	228.59
402.45	228.68
402.83	228.79
403.20	228.90
403.58	228.99
403.95	229.13
404.33	229.27
404.71	229.42
405.08	229.62
405.46	229.78
405.83	229.96
406.21	230.15
406.58	230.37
406.96	230.58
407.33	230.82
407.70	231.10
408.08	231.47
408.45	231.80
408.83	232.15
409.20	232.47
409.58	232.75
409.95	233.15
410.33	233.58
410.70	233.98
411.08	234.46
411.45	234.97
411.82	235.48
412.20	236.06
412.57	236.76
412.95	237.30
413.32	238.02
413.69	238.75
414.07	239.53
414.44	240.37
414.82	241.23
415.19	242.24
415.56	243.26
415.94	244.32
416.31	245.51
416.68	246.70
417.06	248.08
417.43	249.38
417.81	250.87
418.18	252.38
418.55	254.03
418.93	255.75
419.30	257.54
419.67	259.45
420.04	261.40
420.42	263.44
420.79	265.80
421.16	268.18
421.54	270.60
421.91	273.13
422.28	275.74
422.66	278.56
423.03	281.26
423.40	284.08
423.77	287.10
424.15	290.20
424.52	293.43
424.89	296.92
425.26	300.39
425.64	303.61
426.01	307.24
426.38	310.95
426.75	314.78
427.13	318.70
427.50	322.81
427.87	327.07
428.24	331.39
428.61	335.52
428.99	340.00
429.36	344.90
429.73	349.60
430.10	354.30
430.47	359.10
430.85	364.05
431.22	369.37
431.59	374.84
431.96	380.17
432.33	386.09
432.70	391.73
433.08	398.39
433.45	404.68
433.82	410.88
434.19	417.82
434.56	424.65
434.93	431.24
435.30	437.77
435.68	445.15
436.05	452.36
436.42	459.55
436.79	466.11
437.16	473.19
437.53	480.77
437.90	488.35
438.27	495.77
438.64	503.78
439.01	511.03
439.38	517.66
439.75	524.03
440.13	531.24
440.50	538.07
440.87	543.49
441.24	549.43
441.61	555.90
441.98	560.59
442.35	566.18
442.72	571.86
443.09	577.27
443.46	580.67
443.83	583.14
444.20	585.18
444.57	588.27
444.94	589.97
445.31	591.74
445.68	593.22
446.05	594.26
446.42	593.77
446.79	593.10
447.16	592.50
447.53	591.93
447.90	589.50
448.27	587.15
448.64	583.67
449.01	581.21
449.37	576.45
449.74	572.13
450.11	566.59
450.48	560.56
450.85	554.54
451.22	549.37
451.59	544.33
451.96	539.77
452.33	533.18
452.70	527.35
453.07	520.24
453.43	513.15
453.80	506.28
454.17	499.72
454.54	493.68
454.91	486.87
455.28	480.50
455.65	474.48
456.02	468.15
456.38	463.06
456.75	456.49
457.12	451.21
457.49	445.88
457.86	440.88
458.23	436.50
458.59	431.64
458.96	426.67
459.33	422.31
459.70	417.86
460.07	414.51
460.43	410.54
460.80	406.85
461.17	403.65
461.54	400.16
461.91	396.92
462.27	393.61
462.64	390.96
463.01	387.87
463.38	384.77
463.74	381.97
464.11	379.50
464.48	377.30
464.85	374.89
465.21	373.08
465.58	371.05
465.95	368.71
466.32	366.86
466.68	365.04
467.05	363.20
467.42	361.42
467.78	359.47
468.15	357.69
468.52	356.40
468.88	354.64
469.25	353.05
469.62	351.79
469.98	350.40
470.35	349.17
470.72	348.06
471.08	346.92
471.45	345.97
471.82	344.91
472.18	343.77
472.55	343.05
472.92	342.13
473.28	341.41
473.65	340.63
474.02	339.89
474.38	339.27
474.75	338.90
475.11	338.40
475.48	338.16
475.85	337.90
476.21	337.76
476.58	337.67
476.94	337.80
477.31	337.85
477.67	337.93
478.04	338.13
478.41	338.42
478.77	338.82
479.14	339.08
479.50	339.56
479.87	340.21
480.23	340.86
480.60	341.49
480.96	342.13
481.33	343.09
481.69	344.04
482.06	344.98
482.42	345.85
482.79	346.93
483.15	348.17
483.52	349.59
483.88	350.95
484.25	352.41
484.61	353.93
484.98	355.58
485.34	357.43
485.71	359.37
486.07	361.43
486.44	363.50
486.80	365.81
487.17	368.20
487.53	370.81
487.90	373.55
488.26	376.53
488.62	379.67
488.99	382.82
489.35	386.14
489.72	389.74
490.08	393.52
490.44	397.43
490.81	401.50
491.17	405.66
491.54	410.15
491.90	414.79
492.26	419.74
492.63	424.91
492.99	430.31
493.36	435.91
493.72	441.80
494.08	447.84
494.45	454.25
494.81	460.92
495.17	467.76
495.54	474.99
495.90	482.51
496.26	490.20
496.63	498.15
496.99	506.40
497.35	515.04
497.72	523.95
498.08	533.08
498.44	542.52
498.80	552.52
499.17	562.77
499.53	573.31
499.89	584.25
500.26	595.40
500.62	606.87
500.98	618.92
501.34	631.17
501.71	643.92
502.07	656.87
502.43	670.36
502.79	684.05
503.16	698.19
503.52	712.55
503.88	727.33
504.24	742.54
504.60	757.97
504.97	773.88
505.33	790.22
505.69	807.46
506.05	824.99
506.41	842.46
506.78	860.15
507.14	878.35
507.50	896.98
507.86	915.98
508.22	935.16
508.59	954.22
508.95	974.11
509.31	994.75
509.67	1016.01
510.03	1037.27
510.39	1058.63
510.75	1080.21
511.12	1102.04
511.48	1124.02
511.84	1146.11
512.20	1168.63
512.56	1191.97
512.92	1215.30
513.28	1238.29
513.64	1261.57
514.00	1285.29
514.37	1309.28
514.73	1333.33
515.09	1357.29
515.45	1381.58
515.81	1406.00
516.17	1430.62
516.53	1454.68
516.89	1478.65
517.25	1502.86
517.61	1527.02
517.97	1551.63
518.33	1575.72
518.69	1599.76
519.05	1624.32
519.41	1649.17
519.77	1674.14
520.13	1698.46
520.49	1722.70
520.85	1747.33
521.21	1771.41
521.57	1795.99
521.93	1820.09
522.29	1844.64
522.65	1868.73
523.01	1892.78
523.37	1916.47
523.73	1940.84
524.09	1965.00
524.45	1988.97
524.81	2012.49
525.17	2035.89
525.53	2058.71
525.89	2081.99
526.25	2105.30
526.61	2127.60
526.97	2150.05
527.33	2172.48
527.68	2194.57
528.04	2215.93
528.40	2236.32
528.76	2257.19
529.12	2277.43
529.48	2297.30
529.84	2315.46
530.20	2334.25
530.56	2352.45
530.91	2370.86
531.27	2388.89
531.63	2406.08
531.99	2422.86
532.35	2439.03
532.71	2455.22
533.07	2472.10
533.42	2487.21
533.78	2503.34
534.14	2519.61
534.50	2534.84
534.86	2549.90
535.21	2563.14
535.57	2576.84
535.93	2590.35
536.29	2602.62
536.65	2614.84
537.00	2626.45
537.36	2638.92
537.72	2649.83
538.08	2660.39
538.44	2670.29
538.79	2679.74
539.15	2688.38
539.51	2696.59
539.87	2704.12
540.22	2709.86
540.58	2715.65
540.94	2722.71
541.29	2727.99
541.65	2731.55
542.01	2734.57
542.37	2736.86
542.72	2740.49
543.08	2742.43
543.44	2744.91
543.79	2746.35
544.15	2746.91
544.51	2747.88
544.87	2747.75
545.22	2746.92
545.58	2745.39
545.94	2743.87
546.29	2741.07
546.65	2738.28
547.01	2735.51
547.36	2733.44
547.72	2731.27
548.07	2727.45
548.43	2722.07
548.79	2715.92
549.14	2711.10
549.50	2706.36
549.86	2700.74
550.21	2693.98
550.57	2688.14
550.92	2680.10
551.28	2672.70
551.64	2665.55
551.99	2657.85
552.35	2649.52
552.70	2641.51
553.06	2633.80
553.41	2625.41
553.77	2616.76
554.13	2608.04
554.48	2598.41
554.84	2587.67
555.19	2577.54
555.55	2567.33
555.90	2557.14
556.26	2547.47
556.61	2536.71
556.97	2524.37
557.32	2512.59
557.68	2500.64
558.03	2488.55
558.39	2477.57
558.74	2466.83
559.10	2454.38
559.45	2442.24
559.81	2430.73
560.16	2418.52
560.52	2406.51
560.87	2394.83
561.23	2382.36
561.58	2370.07
561.94	2357.39
562.29	2344.10
562.64	2331.52
563.00	2318.63
563.35	2306.28
563.71	2293.68
564.06	2280.87
564.42	2268.82
564.77	2256.10
565.12	2243.36
565.48	2230.53
565.83	2217.74
566.19	2204.99
566.54	2192.23
566.89	2178.30
567.25	2164.55
567.60	2152.08
567.96	2138.74
568.31	2124.10
568.66	2110.28
569.02	2097.48
569.37	2084.63
569.72	2072.32
570.08	2058.73
570.43	2044.87
570.78	2030.66
571.14	2015.80
571.49	2001.70
571.84	1988.12
572.20	1973.25
572.55	1958.73
572.90	1943.98
573.26	1929.21
573.61	1913.96
573.96	1899.15
574.31	1884.62
574.67	1870.05
575.02	1854.56
575.37	1839.15
575.72	1824.58
576.08	1810.26
576.43	1794.79
576.78	1779.79
577.13	1765.07
577.49	1750.65
577.84	1736.80
578.19	1722.03
578.54	1707.51
578.90	1692.49
579.25	1677.33
579.60	1663.79
579.95	1650.02
580.30	1636.17
580.66	1622.07
581.01	1607.86
581.36	1593.68
581.71	1580.52
582.06	1567.20
582.42	1554.09
582.77	1540.98
583.12	1527.80
583.47	1514.55
583.82	1501.41
584.17	1487.94
584.53	1474.09
584.88	1460.63
585.23	1446.68
585.58	1433.66
585.93	1420.83
586.28	1408.72
586.63	1396.65
586.98	1384.05
587.34	1371.51
587.69	1358.70
588.04	1346.23
588.39	1334.17
588.74	1322.19
589.09	1309.97
589.44	1297.38
589.79	1285.46
590.14	1273.64
590.49	1261.76
590.84	1250.00
591.19	1238.67
591.54	1227.13
591.89	1215.75
592.25	1204.52
592.60	1193.00
592.95	1181.83
593.30	1170.83
593.65	1159.52
594.00	1148.30
594.35	1137.71
594.70	1126.74
595.05	1116.66
595.40	1106.44
595.75	1096.05
596.10	1086.24
596.45	1076.07
596.80	1066.23
597.15	1056.18
597.50	1046.28
597.85	1036.75
598.19	1027.08
598.54	1017.47
598.89	1008.29
599.24	999.43
599.59	990.43
599.94	982.36
600.29	974.04
600.64	965.42
600.99	956.43
601.34	947.85
601.69	938.93
602.04	930.67
602.39	922.25
602.74	913.83
603.08	905.43
603.43	896.98
603.78	888.72
604.13	880.65
604.48	872.51
604.83	864.59
605.18	856.56
605.53	848.69
605.87	840.60
606.22	832.90
606.57	825.11
606.92	817.20
607.27	809.19
607.62	801.58
607.96	794.37
608.31	787.60
608.66	780.63
609.01	773.94
609.36	767.35
609.70	760.47
610.05	753.63
610.40	747.04
610.75	740.44
611.10	734.19
611.44	727.79
611.79	721.48
612.14	715.09
612.49	708.84
612.83	702.88
613.18	697.04
613.53	691.05
613.88	685.15
614.22	679.69
614.57	674.11
614.92	668.35
615.27	662.74
615.61	657.18
615.96	651.66
616.31	646.14
616.65	640.70
617.00	635.51
617.35	630.40
617.70	625.36
618.04	620.32
618.39	615.24
618.74	610.42
619.08	605.63
619.43	600.96
619.78	596.30
620.12	591.58
620.47	587.07
620.82	582.65
621.16	578.21
621.51	573.63
621.85	569.17
622.20	564.88
622.55	560.60
622.89	556.39
623.24	552.19
623.59	548.05
623.93	544.07
624.28	540.15
624.62	536.33
624.97	532.55
625.32	528.77
625.66	524.91
626.01	521.02
626.35	517.23
626.70	513.47
627.04	509.87
627.39	506.24
627.73	502.77
628.08	499.39
628.43	496.00
628.77	492.72
629.12	489.54
629.46	486.35
629.81	483.09
630.15	479.84
630.50	476.69
630.84	473.58
631.19	470.55
631.53	467.63
631.88	464.66
632.22	461.72
632.57	459.07
632.91	456.45
633.26	453.92
633.60	451.38
633.95	448.92
634.29	446.38
634.64	443.91
634.98	441.21
635.32	438.70
635.67	436.38
636.01	433.98
636.36	431.63
636.70	429.45
637.05	427.24
637.39	425.05
637.73	422.90
638.08	420.86
638.42	418.77
638.77	416.56
639.11	414.29
639.45	412.13
639.80	409.90
640.14	407.78
640.49	405.64
640.83	403.49
641.17	401.42
641.52	399.39
641.86	397.39
642.20	395.61
642.55	393.66
642.89	391.73
643.23	389.89
643.58	388.23
643.92	386.41
644.26	384.67
644.61	382.99
644.95	381.26
645.29	379.47
645.64	377.70
645.98	376.01
646.32	374.46
646.66	372.87
647.01	371.31
647.35	369.79
647.69	368.27
648.04	366.89
648.38	365.41
648.72	363.96
649.06	362.53
649.41	361.09
649.75	359.71
650.09	358.34
650.43	356.98
650.78	355.56
651.12	354.18
651.46	352.85
651.80	351.55
652.14	350.29
652.49	349.07
652.83	347.84
653.17	346.65
653.51	345.48
653.85	344.38
654.20	343.22
654.54	342.00
654.88	340.86
655.22	339.74
655.56	338.61
655.90	337.55
656.25	336.51
656.59	335.45
656.93	334.46
657.27	333.49
657.61	332.45
657.95	331.46
658.29	330.47
658.64	329.53
658.98	328.58
659.32	327.65
659.66	326.77
660.00	325.90
660.34	325.05
660.68	324.14
661.02	323.20
661.36	322.31
661.70	321.45
662.05	320.60
662.39	319.77
662.73	319.02
663.07	318.26
663.41	317.47
663.75	316.68
664.09	315.89
664.43	315.07
664.77	314.33
665.11	313.55
665.45	312.84
665.79	312.12
666.13	311.37
666.47	310.60
666.81	309.83
667.15	309.03
667.49	308.34
667.83	307.71
668.17	307.05
668.51	306.43
668.85	305.84
669.19	305.27
669.53	304.62
669.87	303.94
670.21	303.29
670.55	302.68
670.89	302.14
671.23	301.56
671.57	301.00
671.91	300.47
672.25	299.97
672.58	299.45
672.92	298.86
673.26	298.38
673.60	297.89
673.94	297.41
674.28	296.97
674.62	296.48
674.96	295.94
675.30	295.46
675.64	294.94
675.97	294.42
676.31	293.87
676.65	293.37
676.99	292.94
677.33	292.42
677.67	291.96
678.01	291.42
678.34	290.95
678.68	290.51
679.02	290.00
679.36	289.51
679.70	289.03
680.04	288.58
680.37	288.12
680.71	287.68
681.05	287.25
681.39	286.78
681.73	286.29
682.06	285.81
682.40	285.37
682.74	284.98
683.08	284.63
683.42	284.21
683.75	283.83
684.09	283.37
684.43	282.97
684.77	282.56
685.10	282.20
685.44	281.81
685.78	281.42
686.12	281.06
686.45	280.66
686.79	280.26
687.13	279.88
687.46	279.48
687.80	279.09
688.14	278.66
688.48	278.30
688.81	277.92
689.15	277.58
689.49	277.19
689.82	276.79
690.16	276.33
690.50	275.96
690.83	275.58
691.17	275.19
691.51	274.81
691.84	274.45
692.18	274.05
692.52	273.64
692.85	273.25
693.19	272.91
693.52	272.54
693.86	272.17
694.20	271.81
694.53	271.46
694.87	271.07
695.21	270.70
695.54	270.34
695.88	269.97
696.21	269.58
696.55	269.23
696.88	268.88
697.22	268.52
697.56	268.17
697.89	267.77
698.23	267.43
698.56	267.06
698.90	266.71
699.23	266.35
699.57	265.99
699.90	265.64
700.24	265.27
700.58	264.95
700.91	264.66
701.25	264.44
701.58	264.17
701.92	263.89
702.25	263.58
702.59	263.25
702.92	262.94
703.26	262.61
703.59	262.28
703.93	262.06
704.26	261.77
704.60	261.45
704.93	261.14
705.26	260.82
705.60	260.56
705.93	260.22
706.27	259.97
706.60	259.72
706.94	259.47
707.27	259.15
707.61	258.84
707.94	258.51
708.27	258.09
708.61	257.74
708.94	257.42
709.28	257.14
709.61	256.84
709.94	256.58
710.28	256.33
710.61	256.09
710.95	255.72
711.28	255.53
711.61	255.26
711.95	255.04
712.28	254.77
712.61	254.48
712.95	254.31
713.28	254.11
713.61	253.82
713.95	253.52
714.28	253.29
714.61	253.03
714.95	252.78
715.28	252.55
715.61	252.32
715.95	252.11
716.28	251.88
716.61	251.69
716.95	251.44
717.28	251.20
717.61	250.96
717.94	250.74
718.28	250.43
718.61	250.20
718.94	249.96
719.27	249.75
719.61	249.56
719.94	249.30
720.27	249.01
720.60	248.81
720.94	248.60
721.27	248.40
721.60	248.23
721.93	248.02
722.27	247.85
722.60	247.67
722.93	247.45
723.26	247.26
723.59	247.02
723.93	246.84
724.26	246.66
724.59	246.47
724.92	246.29
725.25	246.16
725.59	245.98
725.92	245.83
726.25	245.66
726.58	245.48
726.91	245.30
727.24	245.15
727.57	244.99
727.91	244.80
728.24	244.66
728.57	244.48
728.90	244.33
729.23	244.12
729.56	244.01
729.89	243.85
730.22	243.68
730.55	243.53
730.89	243.37
731.22	243.21
731.55	243.05
731.88	242.89
732.21	242.71
732.54	242.56
732.87	242.40
733.20	242.26
733.53	242.11
733.86	241.98
734.19	241.82
734.52	241.69
734.85	241.63
735.18	241.46
735.51	241.36
735.84	241.22
736.17	241.13
736.50	240.93
736.83	240.94
737.16	240.82
737.49	240.70
737.82	240.56
738.15	240.45
738.48	240.33
738.81	240.20
739.14	240.07
739.47	239.93
739.80	239.80
740.13	239.68
740.46	239.54
740.79	239.40
741.12	239.27
741.45	239.13
741.78	238.93
742.11	238.85
742.44	238.70
742.77	238.59
743.10	238.45
743.43	238.34
743.75	238.09
744.08	238.16
744.41	238.04
744.74	237.92
745.07	237.78
745.40	237.70
745.73	237.65
746.06	237.55
746.39	237.46
746.71	237.36
747.04	237.24
747.37	237.15
747.70	237.08
748.03	236.98
748.36	236.91
748.68	236.81
749.01	236.69
749.34	236.60
749.67	236.51
750.00	236.43
750.33	236.43
750.65	236.35
750.98	236.07
751.31	235.99
751.64	235.90
751.97	235.89
752.29	235.78
752.62	235.64
752.95	235.54
753.28	235.43
753.60	235.34
753.93	235.29
754.26	235.21
754.59	235.08
754.91	234.99
755.24	234.89
755.57	234.86
755.90	234.78
756.22	234.68
756.55	234.58
756.88	234.47
757.20	234.31
757.53	234.20
757.86	234.11
758.19	234.04
758.51	233.96
758.84	233.82
759.17	233.73
759.49	233.67
759.82	233.66
760.15	233.60
760.47	233.52
760.80	233.42
761.13	233.37
761.45	233.30
761.78	233.24
762.11	233.18
762.43	233.05
762.76	232.99
763.08	232.94
763.41	232.89
763.74	232.84
764.06	232.78
764.39	232.73
764.71	232.67
765.04	232.60
765.37	232.53
765.69	232.48
766.02	232.43
766.34	232.36
766.67	232.26
767.00	232.23
767.32	232.25
767.65	232.27
767.97	232.21
768.30	232.16
768.62	232.11
768.95	232.04
769.27	231.99
769.60	231.95
769.92	231.88
770.25	231.81
770.57	231.74
770.90	231.69
771.22	231.63
771.55	231.58
771.87	231.55
772.20	231.50
772.52	231.57
772.85	231.67
773.17	231.64
773.50	231.59
773.82	231.52
774.15	231.42
774.47	231.30
774.80	231.24
775.12	231.20
775.45	231.16
775.77	231.14
776.09	231.11
776.42	231.07
776.74	231.08
777.07	231.05
777.39	231.02
777.72	230.98
778.04	230.97
778.36	230.93
778.69	230.89
779.01	230.87
779.33	230.73
779.66	230.55
779.98	230.51
780.31	230.49
780.63	230.51
780.95	230.50
781.28	230.47
781.60	230.44
781.92	230.41
782.25	230.38
782.57	230.35
782.89	230.31
783.22	230.27
783.54	230.22
783.86	230.20
784.19	230.17
784.51	230.18
784.83	230.14
785.16	230.11
785.48	230.08
785.80	230.06
786.12	230.04
786.45	230.02
786.77	230.00
787.09	229.97
787.42	229.90
787.74	229.88
788.06	229.86
788.38	229.84
788.71	229.81
789.03	229.79
789.35	229.79
789.67	229.76
789.99	229.74
790.32	229.71
790.64	229.70
790.96	229.80
791.28	229.74
791.61	229.71
791.93	229.70
792.25	229.67
792.57	229.74
792.89	229.70
793.21	229.68
793.54	229.65
793.86	229.62
794.18	229.61
794.50	229.56
794.82	229.55
795.14	229.54
795.47	229.55
795.79	229.53
796.11	229.48
796.43	229.46
796.75	229.44
797.07	229.43
797.39	229.40
797.71	229.28
798.04	229.27
798.36	229.27
798.68	229.25
799.00	229.24
799.32	229.17
799.64	229.17
799.96	229.15
800.28	229.16
800.60	229.15
800.92	229.14
801.24	229.12
801.56	229.11
801.89	229.09
802.21	229.08
802.53	229.04
802.85	229.06
803.17	229.10
803.49	229.07
803.81	229.04
804.13	229.02
804.45	228.99
804.77	228.99
805.09	228.97
805.41	228.95
805.73	228.91
806.05	228.87
806.37	228.84
806.69	228.82
807.01	228.79
807.33	228.78
807.65	228.73
807.97	228.77
808.28	228.74
808.60	228.73
808.92	228.70
809.24	228.77
809.56	228.73
809.88	228.67
810.20	228.67
810.52	228.68
810.84	228.65
811.16	228.63
811.48	228.61
811.80	228.64
812.12	228.62
812.43	228.64
812.75	228.64
813.07	228.62
813.39	228.61
813.71	228.59
814.03	228.57
814.35	228.57
814.67	228.51
814.98	228.49
815.30	228.48
815.62	228.45
815.94	228.36
816.26	228.37
816.58	228.33
816.89	228.33
817.21	228.29
817.53	228.30
817.85	228.29
818.17	228.28
818.48	228.22
