SpectraSuite Data File
++++++++++++++++++++++++++++++++++++
Date: Fri Oct 02 21:16:45 EDT 2015
User: lab3
Dark Spectrum Present: No
Reference Spectrum Present: No
Number of Sampled Component Spectra: 1
Spectrometers: USB2E7196
Integration Time (usec): 46000 (USB2E7196)
Spectra Averaged: 12000 (USB2E7196)
Boxcar Smoothing: 10 (USB2E7196)
Correct for Electrical Dark: No (USB2E7196)
Strobe/Lamp Enabled: No (USB2E7196)
Correct for Detector Non-linearity: No (USB2E7196)
Correct for Stray Light: No (USB2E7196)
Number of Pixels in Processed Spectrum: 2048
>>>>>Begin Processed Spectral Data<<<<<
339.09	0.00
339.48	215.42
339.86	216.92
340.24	218.20
340.63	219.63
341.01	222.85
341.39	222.39
341.78	223.74
342.16	224.93
342.54	225.38
342.93	213.77
343.31	224.57
343.69	225.10
344.07	225.56
344.46	226.00
344.84	226.39
345.22	226.61
345.60	226.87
345.99	227.06
346.37	227.20
346.75	227.31
347.13	227.38
347.52	227.45
347.90	227.54
348.28	227.58
348.66	227.64
349.05	227.63
349.43	227.69
349.81	227.75
350.19	227.81
350.57	227.87
350.96	227.95
351.34	228.04
351.72	228.13
352.10	228.24
352.48	228.31
352.87	228.36
353.25	228.43
353.63	228.49
354.01	228.55
354.39	228.62
354.77	228.69
355.15	228.80
355.54	228.84
355.92	228.87
356.30	228.94
356.68	229.09
357.06	229.16
357.44	229.21
357.82	229.26
358.20	229.38
358.58	229.44
358.97	229.50
359.35	229.58
359.73	229.67
360.11	229.71
360.49	229.77
360.87	229.82
361.25	229.88
361.63	229.97
362.01	230.01
362.39	230.04
362.77	230.09
363.15	230.12
363.53	230.15
363.91	230.18
364.29	230.20
364.67	230.11
365.05	230.13
365.43	230.16
365.81	230.19
366.19	230.21
366.57	230.26
366.95	230.26
367.33	230.23
367.71	230.22
368.09	230.25
368.47	230.24
368.85	230.23
369.23	230.24
369.61	230.18
369.99	230.20
370.37	230.20
370.75	230.27
371.13	230.24
371.51	230.19
371.89	230.17
372.27	230.15
372.65	230.13
373.03	230.09
373.41	230.04
373.78	229.99
374.16	229.89
374.54	229.81
374.92	229.76
375.30	229.71
375.68	229.65
376.06	229.60
376.44	229.55
376.82	229.51
377.19	229.46
377.57	229.41
377.95	229.32
378.33	229.27
378.71	229.11
379.09	229.06
379.47	229.03
379.84	228.97
380.22	228.90
380.60	228.83
380.98	228.79
381.36	228.73
381.73	228.67
382.11	228.65
382.49	228.61
382.87	228.55
383.25	228.51
383.62	228.61
384.00	228.54
384.38	228.51
384.76	228.49
385.13	228.49
385.51	228.45
385.89	228.40
386.27	228.36
386.64	228.35
387.02	228.30
387.40	228.26
387.78	228.23
388.15	228.21
388.53	228.19
388.91	228.16
389.29	228.13
389.66	228.12
390.04	228.08
390.42	228.08
390.79	228.07
391.17	228.05
391.55	227.90
391.92	227.88
392.30	227.88
392.68	227.84
393.05	227.82
393.43	227.82
393.81	227.82
394.18	227.80
394.56	227.80
394.94	227.84
395.31	227.83
395.69	227.88
396.06	227.91
396.44	227.93
396.82	227.94
397.19	228.03
397.57	228.04
397.95	228.08
398.32	228.08
398.70	228.13
399.07	228.19
399.45	228.22
399.82	228.27
400.20	228.30
400.58	228.37
400.95	228.37
401.33	228.46
401.70	228.61
402.08	228.71
402.45	228.79
402.83	228.91
403.20	229.02
403.58	229.11
403.95	229.24
404.33	229.39
404.71	229.53
405.08	229.74
405.46	229.90
405.83	230.08
406.21	230.27
406.58	230.48
406.96	230.69
407.33	230.94
407.70	231.21
408.08	231.59
408.45	231.91
408.83	232.26
409.20	232.58
409.58	232.87
409.95	233.26
410.33	233.69
410.70	234.09
411.08	234.56
411.45	235.07
411.82	235.58
412.20	236.16
412.57	236.85
412.95	237.39
413.32	238.10
413.69	238.83
414.07	239.61
414.44	240.45
414.82	241.31
415.19	242.31
415.56	243.33
415.94	244.38
416.31	245.57
416.68	246.75
417.06	248.13
417.43	249.41
417.81	250.90
418.18	252.41
418.55	254.06
418.93	255.77
419.30	257.56
419.67	259.45
420.04	261.39
420.42	263.42
420.79	265.78
421.16	268.15
421.54	270.56
421.91	273.07
422.28	275.68
422.66	278.49
423.03	281.18
423.40	283.99
423.77	287.00
424.15	290.09
424.52	293.31
424.89	296.80
425.26	300.27
425.64	303.48
426.01	307.10
426.38	310.80
426.75	314.62
427.13	318.53
427.50	322.63
427.87	326.89
428.24	331.19
428.61	335.32
428.99	339.79
429.36	344.69
429.73	349.38
430.10	354.07
430.47	358.87
430.85	363.81
431.22	369.13
431.59	374.59
431.96	379.92
432.33	385.84
432.70	391.48
433.08	398.13
433.45	404.43
433.82	410.63
434.19	417.55
434.56	424.39
434.93	430.99
435.30	437.51
435.68	444.89
436.05	452.11
436.42	459.29
436.79	465.85
437.16	472.94
437.53	480.51
437.90	488.10
438.27	495.52
438.64	503.51
439.01	510.76
439.38	517.38
439.75	523.76
440.13	530.95
440.50	537.77
440.87	543.17
441.24	549.10
441.61	555.56
441.98	560.24
442.35	565.80
442.72	571.47
443.09	576.86
443.46	580.24
443.83	582.69
444.20	584.70
444.57	587.76
444.94	589.43
445.31	591.16
445.68	592.61
446.05	593.61
446.42	593.09
446.79	592.40
447.16	591.76
447.53	591.15
447.90	588.68
448.27	586.29
448.64	582.78
449.01	580.29
449.37	575.50
449.74	571.15
450.11	565.59
450.48	559.53
450.85	553.48
451.22	548.30
451.59	543.23
451.96	538.66
452.33	532.06
452.70	526.22
453.07	519.10
453.43	512.02
453.80	505.15
454.17	498.59
454.54	492.56
454.91	485.74
455.28	479.38
455.65	473.38
456.02	467.07
456.38	461.98
456.75	455.43
457.12	450.16
457.49	444.85
457.86	439.85
458.23	435.49
458.59	430.65
458.96	425.70
459.33	421.36
459.70	416.94
460.07	413.59
460.43	409.64
460.80	405.97
461.17	402.77
461.54	399.30
461.91	396.07
462.27	392.78
462.64	390.14
463.01	387.07
463.38	383.98
463.74	381.20
464.11	378.75
464.48	376.56
464.85	374.17
465.21	372.37
465.58	370.36
465.95	368.03
466.32	366.19
466.68	364.37
467.05	362.54
467.42	360.76
467.78	358.83
468.15	357.05
468.52	355.77
468.88	354.03
469.25	352.44
469.62	351.19
469.98	349.81
470.35	348.59
470.72	347.49
471.08	346.35
471.45	345.41
471.82	344.35
472.18	343.22
472.55	342.50
472.92	341.58
473.28	340.87
473.65	340.09
474.02	339.36
474.38	338.74
474.75	338.39
475.11	337.89
475.48	337.65
475.85	337.40
476.21	337.26
476.58	337.17
476.94	337.31
477.31	337.37
477.67	337.46
478.04	337.66
478.41	337.94
478.77	338.35
479.14	338.61
479.50	339.10
479.87	339.75
480.23	340.39
480.60	341.03
480.96	341.67
481.33	342.62
481.69	343.57
482.06	344.51
482.42	345.38
482.79	346.45
483.15	347.70
483.52	349.11
483.88	350.47
484.25	351.93
484.61	353.44
484.98	355.08
485.34	356.92
485.71	358.85
486.07	360.91
486.44	362.97
486.80	365.27
487.17	367.66
487.53	370.26
487.90	372.99
488.26	375.97
488.62	379.12
488.99	382.26
489.35	385.57
489.72	389.16
490.08	392.93
490.44	396.84
490.81	400.89
491.17	405.05
491.54	409.51
491.90	414.14
492.26	419.07
492.63	424.24
492.99	429.64
493.36	435.22
493.72	441.10
494.08	447.13
494.45	453.53
494.81	460.18
495.17	467.02
495.54	474.23
495.90	481.73
496.26	489.41
496.63	497.34
496.99	505.57
497.35	514.21
497.72	523.10
498.08	532.21
498.44	541.64
498.80	551.63
499.17	561.87
499.53	572.40
499.89	583.33
500.26	594.46
500.62	605.90
500.98	617.95
501.34	630.18
501.71	642.92
502.07	655.86
502.43	669.32
502.79	682.99
503.16	697.12
503.52	711.46
503.88	726.21
504.24	741.40
504.60	756.82
504.97	772.71
505.33	789.04
505.69	806.25
506.05	823.77
506.41	841.22
506.78	858.89
507.14	877.08
507.50	895.70
507.86	914.68
508.22	933.88
508.59	952.92
508.95	972.79
509.31	993.39
509.67	1014.63
510.03	1035.88
510.39	1057.24
510.75	1078.80
511.12	1100.63
511.48	1122.60
511.84	1144.70
512.20	1167.20
512.56	1190.52
512.92	1213.84
513.28	1236.84
513.64	1260.13
514.00	1283.85
514.37	1307.84
514.73	1331.88
515.09	1355.83
515.45	1380.12
515.81	1404.53
516.17	1429.15
516.53	1453.23
516.89	1477.23
517.25	1501.45
517.61	1525.61
517.97	1550.23
518.33	1574.33
518.69	1598.37
519.05	1622.97
519.41	1647.83
519.77	1672.80
520.13	1697.16
520.49	1721.43
520.85	1746.07
521.21	1770.17
521.57	1794.75
521.93	1818.89
522.29	1843.47
522.65	1867.57
523.01	1891.64
523.37	1915.36
523.73	1939.75
524.09	1963.94
524.45	1987.92
524.81	2011.50
525.17	2034.94
525.53	2057.80
525.89	2081.13
526.25	2104.47
526.61	2126.80
526.97	2149.29
527.33	2171.76
527.68	2193.88
528.04	2215.27
528.40	2235.71
528.76	2256.61
529.12	2276.90
529.48	2296.80
529.84	2315.02
530.20	2333.88
530.56	2352.13
530.91	2370.57
531.27	2388.67
531.63	2405.92
531.99	2422.75
532.35	2438.95
532.71	2455.20
533.07	2472.10
533.42	2487.27
533.78	2503.46
534.14	2519.79
534.50	2535.08
534.86	2550.22
535.21	2563.49
535.57	2577.27
535.93	2590.83
536.29	2603.17
536.65	2615.44
537.00	2627.12
537.36	2639.63
537.72	2650.62
538.08	2661.23
538.44	2671.17
538.79	2680.68
539.15	2689.37
539.51	2697.66
539.87	2705.28
540.22	2711.09
540.58	2716.97
540.94	2724.10
541.29	2729.45
541.65	2733.09
542.01	2736.16
542.37	2738.52
542.72	2742.21
543.08	2744.21
543.44	2746.77
543.79	2748.27
544.15	2748.91
544.51	2749.96
544.87	2749.89
545.22	2749.12
545.58	2747.66
545.94	2746.23
546.29	2743.48
546.65	2740.73
547.01	2738.00
547.36	2735.99
547.72	2733.86
548.07	2730.07
548.43	2724.74
548.79	2718.64
549.14	2713.83
549.50	2709.15
549.86	2703.58
550.21	2696.87
550.57	2691.09
550.92	2683.07
551.28	2675.72
551.64	2668.58
551.99	2660.91
552.35	2652.62
552.70	2644.63
553.06	2636.91
553.41	2628.55
553.77	2619.93
554.13	2611.25
554.48	2601.67
554.84	2590.94
555.19	2580.84
555.55	2570.69
555.90	2560.54
556.26	2550.87
556.61	2540.15
556.97	2527.81
557.32	2516.04
557.68	2504.12
558.03	2492.05
558.39	2481.08
558.74	2470.35
559.10	2457.92
559.45	2445.81
559.81	2434.33
560.16	2422.14
560.52	2410.15
560.87	2398.49
561.23	2386.03
561.58	2373.76
561.94	2361.08
562.29	2347.80
562.64	2335.21
563.00	2322.30
563.35	2309.96
563.71	2297.35
564.06	2284.54
564.42	2272.51
564.77	2259.79
565.12	2247.03
565.48	2234.20
565.83	2221.41
566.19	2208.65
566.54	2195.90
566.89	2181.95
567.25	2168.19
567.60	2155.73
567.96	2142.40
568.31	2127.75
568.66	2113.91
569.02	2101.10
569.37	2088.22
569.72	2075.92
570.08	2062.31
570.43	2048.42
570.78	2034.19
571.14	2019.32
571.49	2005.20
571.84	1991.60
572.20	1976.72
572.55	1962.18
572.90	1947.42
573.26	1932.65
573.61	1917.39
573.96	1902.57
574.31	1888.04
574.67	1873.45
575.02	1857.95
575.37	1842.49
575.72	1827.91
576.08	1813.57
576.43	1798.08
576.78	1783.06
577.13	1768.31
577.49	1753.90
577.84	1740.06
578.19	1725.28
578.54	1710.75
578.90	1695.70
579.25	1680.52
579.60	1666.95
579.95	1653.16
580.30	1639.29
580.66	1625.16
581.01	1610.92
581.36	1596.71
581.71	1583.52
582.06	1570.18
582.42	1557.06
582.77	1543.96
583.12	1530.77
583.47	1517.50
583.82	1504.34
584.17	1490.86
584.53	1476.99
584.88	1463.49
585.23	1449.51
585.58	1436.47
585.93	1423.61
586.28	1411.50
586.63	1399.40
586.98	1386.77
587.34	1374.22
587.69	1361.38
588.04	1348.88
588.39	1336.81
588.74	1324.81
589.09	1312.56
589.44	1299.95
589.79	1288.00
590.14	1276.14
590.49	1264.23
590.84	1252.44
591.19	1241.09
591.54	1229.53
591.89	1218.12
592.25	1206.86
592.60	1195.31
592.95	1184.11
593.30	1173.10
593.65	1161.76
594.00	1150.52
594.35	1139.92
594.70	1128.92
595.05	1118.81
595.40	1108.58
595.75	1098.16
596.10	1088.32
596.45	1078.14
596.80	1068.29
597.15	1058.23
597.50	1048.31
597.85	1038.77
598.19	1029.07
598.54	1019.45
598.89	1010.25
599.24	1001.37
599.59	992.36
599.94	984.29
600.29	975.95
600.64	967.31
600.99	958.31
601.34	949.72
601.69	940.77
602.04	932.49
602.39	924.04
602.74	915.62
603.08	907.20
603.43	898.72
603.78	890.44
604.13	882.34
604.48	874.19
604.83	866.24
605.18	858.20
605.53	850.33
605.87	842.22
606.22	834.51
606.57	826.70
606.92	818.77
607.27	810.75
607.62	803.12
607.96	795.90
608.31	789.12
608.66	782.14
609.01	775.44
609.36	768.84
609.70	761.95
610.05	755.10
610.40	748.50
610.75	741.90
611.10	735.64
611.44	729.23
611.79	722.91
612.14	716.51
612.49	710.24
612.83	704.25
613.18	698.39
613.53	692.39
613.88	686.48
614.22	681.01
614.57	675.42
614.92	669.65
615.27	664.02
615.61	658.45
615.96	652.93
616.31	647.40
616.65	641.94
617.00	636.75
617.35	631.64
617.70	626.59
618.04	621.54
618.39	616.45
618.74	611.62
619.08	606.82
619.43	602.14
619.78	597.48
620.12	592.77
620.47	588.25
620.82	583.83
621.16	579.38
621.51	574.81
621.85	570.34
622.20	566.06
622.55	561.78
622.89	557.56
623.24	553.35
623.59	549.21
623.93	545.22
624.28	541.29
624.62	537.47
624.97	533.68
625.32	529.91
625.66	526.04
626.01	522.15
626.35	518.35
626.70	514.60
627.04	511.00
627.39	507.37
627.73	503.90
628.08	500.51
628.43	497.12
628.77	493.85
629.12	490.67
629.46	487.47
629.81	484.21
630.15	480.96
630.50	477.81
630.84	474.71
631.19	471.67
631.53	468.75
631.88	465.79
632.22	462.85
632.57	460.19
632.91	457.58
633.26	455.05
633.60	452.52
633.95	450.06
634.29	447.52
634.64	445.05
634.98	442.37
635.32	439.85
635.67	437.53
636.01	435.12
636.36	432.78
636.70	430.59
637.05	428.38
637.39	426.20
637.73	424.05
638.08	422.02
638.42	419.92
638.77	417.72
639.11	415.45
639.45	413.29
639.80	411.06
640.14	408.95
640.49	406.81
640.83	404.65
641.17	402.59
641.52	400.57
641.86	398.56
642.20	396.78
642.55	394.84
642.89	392.92
643.23	391.09
643.58	389.42
643.92	387.61
644.26	385.88
644.61	384.20
644.95	382.46
645.29	380.67
645.64	378.90
645.98	377.22
646.32	375.67
646.66	374.08
647.01	372.52
647.35	371.00
647.69	369.48
648.04	368.10
648.38	366.63
648.72	365.18
649.06	363.74
649.41	362.31
649.75	360.93
650.09	359.55
650.43	358.19
650.78	356.77
651.12	355.40
651.46	354.07
651.80	352.77
652.14	351.52
652.49	350.30
652.83	349.07
653.17	347.87
653.51	346.71
653.85	345.61
654.20	344.45
654.54	343.22
654.88	342.09
655.22	340.97
655.56	339.84
655.90	338.77
656.25	337.75
656.59	336.69
656.93	335.70
657.27	334.73
657.61	333.69
657.95	332.70
658.29	331.70
658.64	330.77
658.98	329.82
659.32	328.89
659.66	328.01
660.00	327.14
660.34	326.28
660.68	325.38
661.02	324.44
661.36	323.54
661.70	322.68
662.05	321.83
662.39	320.99
662.73	320.25
663.07	319.49
663.41	318.70
663.75	317.90
664.09	317.11
664.43	316.28
664.77	315.54
665.11	314.75
665.45	314.03
665.79	313.32
666.13	312.55
666.47	311.78
666.81	311.01
667.15	310.20
667.49	309.50
667.83	308.86
668.17	308.20
668.51	307.58
668.85	306.98
669.19	306.42
669.53	305.76
669.87	305.08
670.21	304.43
670.55	303.81
670.89	303.27
671.23	302.69
671.57	302.12
671.91	301.59
672.25	301.08
672.58	300.56
672.92	299.97
673.26	299.48
673.60	298.99
673.94	298.50
674.28	298.06
674.62	297.57
674.96	297.03
675.30	296.54
675.64	296.02
675.97	295.49
676.31	294.93
676.65	294.43
676.99	293.98
677.33	293.46
677.67	292.98
678.01	292.43
678.34	291.96
678.68	291.52
679.02	291.00
679.36	290.51
679.70	290.01
680.04	289.56
680.37	289.09
680.71	288.64
681.05	288.21
681.39	287.73
681.73	287.22
682.06	286.74
682.40	286.28
682.74	285.88
683.08	285.52
683.42	285.10
683.75	284.72
684.09	284.25
684.43	283.85
684.77	283.44
685.10	283.07
685.44	282.67
685.78	282.27
686.12	281.89
686.45	281.49
686.79	281.09
687.13	280.70
687.46	280.28
687.80	279.89
688.14	279.45
688.48	279.08
688.81	278.69
689.15	278.35
689.49	277.95
689.82	277.54
690.16	277.07
690.50	276.69
690.83	276.29
691.17	275.89
691.51	275.51
691.84	275.15
692.18	274.74
692.52	274.33
692.85	273.93
693.19	273.59
693.52	273.21
693.86	272.83
694.20	272.46
694.53	272.11
694.87	271.72
695.21	271.35
695.54	270.98
695.88	270.61
696.21	270.21
696.55	269.85
696.88	269.50
697.22	269.14
697.56	268.79
697.89	268.39
698.23	268.03
698.56	267.65
698.90	267.30
699.23	266.93
699.57	266.57
699.90	266.21
700.24	265.83
700.58	265.51
700.91	265.21
701.25	264.98
701.58	264.70
701.92	264.41
702.25	264.11
702.59	263.77
702.92	263.45
703.26	263.12
703.59	262.79
703.93	262.56
704.26	262.26
704.60	261.93
704.93	261.62
705.26	261.30
705.60	261.03
705.93	260.69
706.27	260.43
706.60	260.17
706.94	259.91
707.27	259.58
707.61	259.27
707.94	258.93
708.27	258.51
708.61	258.16
708.94	257.83
709.28	257.53
709.61	257.24
709.94	256.97
710.28	256.72
710.61	256.48
710.95	256.10
711.28	255.91
711.61	255.64
711.95	255.41
712.28	255.14
712.61	254.85
712.95	254.67
713.28	254.47
713.61	254.17
713.95	253.88
714.28	253.64
714.61	253.38
714.95	253.13
715.28	252.89
715.61	252.66
715.95	252.44
716.28	252.22
716.61	252.02
716.95	251.77
717.28	251.53
717.61	251.29
717.94	251.07
718.28	250.75
718.61	250.52
718.94	250.27
719.27	250.06
719.61	249.86
719.94	249.61
720.27	249.32
720.60	249.11
720.94	248.91
721.27	248.70
721.60	248.52
721.93	248.32
722.27	248.15
722.60	247.97
722.93	247.75
723.26	247.55
723.59	247.32
723.93	247.14
724.26	246.96
724.59	246.76
724.92	246.58
725.25	246.45
725.59	246.27
725.92	246.13
726.25	245.95
726.58	245.77
726.91	245.59
727.24	245.44
727.57	245.27
727.91	245.08
728.24	244.94
728.57	244.76
728.90	244.61
729.23	244.40
729.56	244.28
729.89	244.12
730.22	243.94
730.55	243.78
730.89	243.62
731.22	243.46
731.55	243.30
731.88	243.14
732.21	242.96
732.54	242.80
732.87	242.65
733.20	242.51
733.53	242.36
733.86	242.22
734.19	242.06
734.52	241.93
734.85	241.88
735.18	241.70
735.51	241.59
735.84	241.46
736.17	241.36
736.50	241.16
736.83	241.18
737.16	241.05
737.49	240.94
737.82	240.80
738.15	240.69
738.48	240.57
738.81	240.44
739.14	240.31
739.47	240.17
739.80	240.03
740.13	239.91
740.46	239.77
740.79	239.63
741.12	239.50
741.45	239.36
741.78	239.16
742.11	239.08
742.44	238.93
742.77	238.83
743.10	238.69
743.43	238.57
743.75	238.32
744.08	238.40
744.41	238.28
744.74	238.16
745.07	238.02
745.40	237.93
745.73	237.88
746.06	237.78
746.39	237.69
746.71	237.58
747.04	237.47
747.37	237.37
747.70	237.29
748.03	237.20
748.36	237.13
748.68	237.03
749.01	236.89
749.34	236.80
749.67	236.71
750.00	236.64
750.33	236.64
750.65	236.55
750.98	236.27
751.31	236.18
751.64	236.10
751.97	236.08
752.29	235.98
752.62	235.83
752.95	235.74
753.28	235.63
753.60	235.54
753.93	235.48
754.26	235.41
754.59	235.27
754.91	235.17
755.24	235.07
755.57	235.05
755.90	234.96
756.22	234.86
756.55	234.76
756.88	234.65
757.20	234.48
757.53	234.37
757.86	234.28
758.19	234.21
758.51	234.12
758.84	233.98
759.17	233.89
759.49	233.83
759.82	233.81
760.15	233.75
760.47	233.68
760.80	233.57
761.13	233.52
761.45	233.46
761.78	233.40
762.11	233.34
762.43	233.21
762.76	233.14
763.08	233.09
763.41	233.04
763.74	232.99
764.06	232.93
764.39	232.87
764.71	232.82
765.04	232.75
765.37	232.68
765.69	232.63
766.02	232.58
766.34	232.51
766.67	232.41
767.00	232.38
767.32	232.39
767.65	232.42
767.97	232.36
768.30	232.31
768.62	232.26
768.95	232.20
769.27	232.15
769.60	232.12
769.92	232.05
770.25	231.98
770.57	231.91
770.90	231.86
771.22	231.81
771.55	231.76
771.87	231.72
772.20	231.67
772.52	231.73
772.85	231.84
773.17	231.80
773.50	231.75
773.82	231.69
774.15	231.58
774.47	231.46
774.80	231.41
775.12	231.36
775.45	231.32
775.77	231.29
776.09	231.26
776.42	231.23
776.74	231.23
777.07	231.19
777.39	231.17
777.72	231.12
778.04	231.11
778.36	231.07
778.69	231.04
779.01	231.02
779.33	230.88
779.66	230.70
779.98	230.66
780.31	230.64
780.63	230.66
780.95	230.65
781.28	230.62
781.60	230.58
781.92	230.56
782.25	230.53
782.57	230.50
782.89	230.47
783.22	230.43
783.54	230.37
783.86	230.36
784.19	230.32
784.51	230.34
784.83	230.29
785.16	230.27
785.48	230.24
785.80	230.22
786.12	230.20
786.45	230.18
786.77	230.16
787.09	230.13
787.42	230.06
787.74	230.04
788.06	230.02
788.38	230.00
788.71	229.97
789.03	229.95
789.35	229.95
789.67	229.91
789.99	229.90
790.32	229.86
790.64	229.85
790.96	229.95
791.28	229.89
791.61	229.86
791.93	229.85
792.25	229.82
792.57	229.89
792.89	229.85
793.21	229.84
793.54	229.80
793.86	229.77
794.18	229.76
794.50	229.71
794.82	229.69
795.14	229.69
795.47	229.69
795.79	229.67
796.11	229.62
796.43	229.60
796.75	229.58
797.07	229.57
797.39	229.55
797.71	229.42
798.04	229.41
798.36	229.41
798.68	229.38
799.00	229.37
799.32	229.30
799.64	229.31
799.96	229.28
800.28	229.29
800.60	229.27
800.92	229.27
801.24	229.25
801.56	229.25
801.89	229.22
802.21	229.21
802.53	229.17
802.85	229.19
803.17	229.23
803.49	229.19
803.81	229.16
804.13	229.14
804.45	229.11
804.77	229.11
805.09	229.10
805.41	229.08
805.73	229.04
806.05	229.00
806.37	228.97
806.69	228.94
807.01	228.92
807.33	228.91
807.65	228.86
807.97	228.90
808.28	228.87
808.60	228.86
808.92	228.83
809.24	228.90
809.56	228.86
809.88	228.81
810.20	228.81
810.52	228.82
810.84	228.80
811.16	228.77
811.48	228.75
811.80	228.78
812.12	228.77
812.43	228.78
812.75	228.78
813.07	228.76
813.39	228.76
813.71	228.73
814.03	228.71
814.35	228.71
814.67	228.65
814.98	228.63
815.30	228.62
815.62	228.59
815.94	228.50
816.26	228.50
816.58	228.47
816.89	228.47
817.21	228.43
817.53	228.43
817.85	228.43
818.17	228.42
818.48	228.36
