SpectraSuite Data File
++++++++++++++++++++++++++++++++++++
Date: Fri Oct 02 21:02:37 EDT 2015
User: lab3
Dark Spectrum Present: No
Reference Spectrum Present: No
Number of Sampled Component Spectra: 1
Spectrometers: USB2E7196
Integration Time (usec): 46000 (USB2E7196)
Spectra Averaged: 6000 (USB2E7196)
Boxcar Smoothing: 10 (USB2E7196)
Correct for Electrical Dark: No (USB2E7196)
Strobe/Lamp Enabled: No (USB2E7196)
Correct for Detector Non-linearity: No (USB2E7196)
Correct for Stray Light: No (USB2E7196)
Number of Pixels in Processed Spectrum: 2048
>>>>>Begin Processed Spectral Data<<<<<
339.09	0.00
339.48	215.64
339.86	217.07
340.24	218.48
340.63	219.91
341.01	223.08
341.39	222.59
341.78	223.93
342.16	225.18
342.54	225.55
342.93	213.97
343.31	224.78
343.69	225.32
344.07	225.78
344.46	226.21
344.84	226.59
345.22	226.82
345.60	227.07
345.99	227.27
346.37	227.40
346.75	227.51
347.13	227.59
347.52	227.66
347.90	227.75
348.28	227.79
348.66	227.84
349.05	227.84
349.43	227.89
349.81	227.94
350.19	227.99
350.57	228.06
350.96	228.15
351.34	228.23
351.72	228.33
352.10	228.43
352.48	228.50
352.87	228.56
353.25	228.62
353.63	228.68
354.01	228.74
354.39	228.82
354.77	228.90
355.15	229.00
355.54	229.05
355.92	229.07
356.30	229.16
356.68	229.31
357.06	229.38
357.44	229.43
357.82	229.49
358.20	229.60
358.58	229.66
358.97	229.72
359.35	229.81
359.73	229.89
360.11	229.94
360.49	230.00
360.87	230.05
361.25	230.11
361.63	230.20
362.01	230.24
362.39	230.27
362.77	230.31
363.15	230.34
363.53	230.37
363.91	230.41
364.29	230.42
364.67	230.33
365.05	230.35
365.43	230.38
365.81	230.42
366.19	230.44
366.57	230.50
366.95	230.49
367.33	230.46
367.71	230.46
368.09	230.48
368.47	230.48
368.85	230.47
369.23	230.49
369.61	230.43
369.99	230.46
370.37	230.46
370.75	230.53
371.13	230.50
371.51	230.46
371.89	230.44
372.27	230.42
372.65	230.40
373.03	230.37
373.41	230.32
373.78	230.27
374.16	230.17
374.54	230.08
374.92	230.04
375.30	230.00
375.68	229.93
376.06	229.88
376.44	229.82
376.82	229.78
377.19	229.73
377.57	229.68
377.95	229.59
378.33	229.53
378.71	229.38
379.09	229.33
379.47	229.29
379.84	229.22
380.22	229.16
380.60	229.09
380.98	229.04
381.36	228.99
381.73	228.93
382.11	228.91
382.49	228.86
382.87	228.80
383.25	228.76
383.62	228.86
384.00	228.79
384.38	228.75
384.76	228.73
385.13	228.73
385.51	228.69
385.89	228.64
386.27	228.60
386.64	228.59
387.02	228.54
387.40	228.50
387.78	228.48
388.15	228.46
388.53	228.42
388.91	228.39
389.29	228.36
389.66	228.36
390.04	228.31
390.42	228.31
390.79	228.30
391.17	228.27
391.55	228.12
391.92	228.11
392.30	228.12
392.68	228.07
393.05	228.06
393.43	228.05
393.81	228.06
394.18	228.03
394.56	228.03
394.94	228.07
395.31	228.06
395.69	228.10
396.06	228.13
396.44	228.16
396.82	228.17
397.19	228.26
397.57	228.27
397.95	228.31
398.32	228.31
398.70	228.35
399.07	228.42
399.45	228.45
399.82	228.50
400.20	228.53
400.58	228.59
400.95	228.60
401.33	228.69
401.70	228.84
402.08	228.94
402.45	229.02
402.83	229.13
403.20	229.25
403.58	229.34
403.95	229.47
404.33	229.62
404.71	229.76
405.08	229.96
405.46	230.12
405.83	230.30
406.21	230.49
406.58	230.70
406.96	230.91
407.33	231.16
407.70	231.43
408.08	231.81
408.45	232.13
408.83	232.48
409.20	232.80
409.58	233.08
409.95	233.48
410.33	233.91
410.70	234.30
411.08	234.78
411.45	235.28
411.82	235.79
412.20	236.37
412.57	237.07
412.95	237.61
413.32	238.32
413.69	239.05
414.07	239.82
414.44	240.66
414.82	241.52
415.19	242.52
415.56	243.54
415.94	244.59
416.31	245.78
416.68	246.96
417.06	248.34
417.43	249.63
417.81	251.11
418.18	252.62
418.55	254.27
418.93	255.98
419.30	257.77
419.67	259.67
420.04	261.61
420.42	263.64
420.79	266.00
421.16	268.37
421.54	270.78
421.91	273.30
422.28	275.91
422.66	278.72
423.03	281.41
423.40	284.23
423.77	287.24
424.15	290.32
424.52	293.54
424.89	297.03
425.26	300.49
425.64	303.71
426.01	307.32
426.38	311.03
426.75	314.83
427.13	318.75
427.50	322.84
427.87	327.10
428.24	331.39
428.61	335.52
428.99	339.99
429.36	344.87
429.73	349.55
430.10	354.25
430.47	359.04
430.85	363.98
431.22	369.29
431.59	374.74
431.96	380.07
432.33	385.97
432.70	391.61
433.08	398.25
433.45	404.54
433.82	410.73
434.19	417.64
434.56	424.46
434.93	431.05
435.30	437.58
435.68	444.94
436.05	452.15
436.42	459.33
436.79	465.88
437.16	472.95
437.53	480.52
437.90	488.09
438.27	495.50
438.64	503.50
439.01	510.74
439.38	517.36
439.75	523.73
440.13	530.90
440.50	537.72
440.87	543.12
441.24	549.04
441.61	555.49
441.98	560.18
442.35	565.74
442.72	571.40
443.09	576.77
443.46	580.15
443.83	582.59
444.20	584.60
444.57	587.66
444.94	589.33
445.31	591.08
445.68	592.51
446.05	593.52
446.42	593.00
446.79	592.31
447.16	591.67
447.53	591.06
447.90	588.60
448.27	586.22
448.64	582.72
449.01	580.23
449.37	575.44
449.74	571.10
450.11	565.54
450.48	559.50
450.85	553.46
451.22	548.28
451.59	543.24
451.96	538.66
452.33	532.08
452.70	526.25
453.07	519.13
453.43	512.06
453.80	505.20
454.17	498.65
454.54	492.60
454.91	485.80
455.28	479.46
455.65	473.47
456.02	467.16
456.38	462.07
456.75	455.52
457.12	450.27
457.49	444.97
457.86	439.98
458.23	435.61
458.59	430.78
458.96	425.83
459.33	421.48
459.70	417.07
460.07	413.72
460.43	409.76
460.80	406.08
461.17	402.90
461.54	399.42
461.91	396.20
462.27	392.92
462.64	390.28
463.01	387.21
463.38	384.13
463.74	381.35
464.11	378.91
464.48	376.72
464.85	374.32
465.21	372.52
465.58	370.51
465.95	368.18
466.32	366.34
466.68	364.53
467.05	362.71
467.42	360.92
467.78	358.99
468.15	357.22
468.52	355.94
468.88	354.20
469.25	352.61
469.62	351.37
469.98	349.99
470.35	348.76
470.72	347.66
471.08	346.54
471.45	345.58
471.82	344.54
472.18	343.41
472.55	342.68
472.92	341.77
473.28	341.06
473.65	340.28
474.02	339.55
474.38	338.95
474.75	338.59
475.11	338.08
475.48	337.85
475.85	337.60
476.21	337.46
476.58	337.38
476.94	337.52
477.31	337.58
477.67	337.66
478.04	337.85
478.41	338.14
478.77	338.55
479.14	338.81
479.50	339.30
479.87	339.94
480.23	340.58
480.60	341.22
480.96	341.86
481.33	342.81
481.69	343.76
482.06	344.70
482.42	345.56
482.79	346.63
483.15	347.87
483.52	349.29
483.88	350.65
484.25	352.10
484.61	353.62
484.98	355.26
485.34	357.11
485.71	359.04
486.07	361.10
486.44	363.15
486.80	365.45
487.17	367.83
487.53	370.44
487.90	373.17
488.26	376.14
488.62	379.28
488.99	382.42
489.35	385.73
489.72	389.32
490.08	393.10
490.44	397.01
490.81	401.06
491.17	405.23
491.54	409.70
491.90	414.32
492.26	419.25
492.63	424.42
492.99	429.82
493.36	435.41
493.72	441.29
494.08	447.31
494.45	453.71
494.81	460.37
495.17	467.20
495.54	474.42
495.90	481.93
496.26	489.61
496.63	497.54
496.99	505.78
497.35	514.40
497.72	523.29
498.08	532.39
498.44	541.83
498.80	551.81
499.17	562.04
499.53	572.56
499.89	583.48
500.26	594.61
500.62	606.05
500.98	618.08
501.34	630.31
501.71	643.04
502.07	655.99
502.43	669.45
502.79	683.11
503.16	697.23
503.52	711.56
503.88	726.33
504.24	741.51
504.60	756.92
504.97	772.81
505.33	789.14
505.69	806.34
506.05	823.85
506.41	841.30
506.78	858.97
507.14	877.16
507.50	895.78
507.86	914.76
508.22	933.93
508.59	952.97
508.95	972.85
509.31	993.47
509.67	1014.70
510.03	1035.94
510.39	1057.29
510.75	1078.87
511.12	1100.69
511.48	1122.66
511.84	1144.75
512.20	1167.28
512.56	1190.60
512.92	1213.92
513.28	1236.92
513.64	1260.21
514.00	1283.93
514.37	1307.91
514.73	1331.96
515.09	1355.91
515.45	1380.21
515.81	1404.64
516.17	1429.28
516.53	1453.35
516.89	1477.34
517.25	1501.56
517.61	1525.74
517.97	1550.35
518.33	1574.44
518.69	1598.50
519.05	1623.11
519.41	1647.99
519.77	1672.94
520.13	1697.27
520.49	1721.55
520.85	1746.22
521.21	1770.31
521.57	1794.90
521.93	1819.03
522.29	1843.60
522.65	1867.73
523.01	1891.80
523.37	1915.54
523.73	1939.91
524.09	1964.12
524.45	1988.09
524.81	2011.67
525.17	2035.12
525.53	2058.00
525.89	2081.32
526.25	2104.67
526.61	2127.00
526.97	2149.51
527.33	2172.02
527.68	2194.16
528.04	2215.55
528.40	2235.98
528.76	2256.91
529.12	2277.22
529.48	2297.14
529.84	2315.37
530.20	2334.23
530.56	2352.50
530.91	2370.95
531.27	2389.07
531.63	2406.33
531.99	2423.20
532.35	2439.43
532.71	2455.68
533.07	2472.61
533.42	2487.83
533.78	2504.04
534.14	2520.39
534.50	2535.64
534.86	2550.75
535.21	2564.07
535.57	2577.86
535.93	2591.44
536.29	2603.77
536.65	2616.09
537.00	2627.78
537.36	2640.33
537.72	2651.30
538.08	2661.95
538.44	2671.92
538.79	2681.46
539.15	2690.14
539.51	2698.46
539.87	2706.04
540.22	2711.87
540.58	2717.75
540.94	2724.87
541.29	2730.21
541.65	2733.86
542.01	2736.95
542.37	2739.35
542.72	2743.04
543.08	2745.07
543.44	2747.62
543.79	2749.13
544.15	2749.76
544.51	2750.82
544.87	2750.76
545.22	2750.00
545.58	2748.54
545.94	2747.12
546.29	2744.36
546.65	2741.66
547.01	2738.96
547.36	2736.99
547.72	2734.87
548.07	2731.09
548.43	2725.78
548.79	2719.73
549.14	2714.96
549.50	2710.29
549.86	2704.70
550.21	2698.00
550.57	2692.23
550.92	2684.23
551.28	2676.91
551.64	2669.77
551.99	2662.10
552.35	2653.81
552.70	2645.84
553.06	2638.14
553.41	2629.78
553.77	2621.19
554.13	2612.50
554.48	2602.87
554.84	2592.14
555.19	2582.07
555.55	2571.92
555.90	2561.78
556.26	2552.08
556.61	2541.32
556.97	2529.00
557.32	2517.26
557.68	2505.32
558.03	2493.27
558.39	2482.33
558.74	2471.61
559.10	2459.20
559.45	2447.11
559.81	2435.64
560.16	2423.45
560.52	2411.46
560.87	2399.80
561.23	2387.32
561.58	2375.07
561.94	2362.39
562.29	2349.13
562.64	2336.56
563.00	2323.65
563.35	2311.34
563.71	2298.75
564.06	2285.96
564.42	2273.92
564.77	2261.17
565.12	2248.43
565.48	2235.57
565.83	2222.77
566.19	2209.98
566.54	2197.21
566.89	2183.25
567.25	2169.51
567.60	2157.02
567.96	2143.68
568.31	2129.02
568.66	2115.20
569.02	2102.38
569.37	2089.51
569.72	2077.20
570.08	2063.56
570.43	2049.68
570.78	2035.43
571.14	2020.57
571.49	2006.46
571.84	1992.87
572.20	1978.00
572.55	1963.47
572.90	1948.69
573.26	1933.89
573.61	1918.64
573.96	1903.79
574.31	1889.26
574.67	1874.63
575.02	1859.12
575.37	1843.67
575.72	1829.09
576.08	1814.72
576.43	1799.24
576.78	1784.20
577.13	1769.45
577.49	1755.03
577.84	1741.17
578.19	1726.37
578.54	1711.82
578.90	1696.76
579.25	1681.56
579.60	1668.00
579.95	1654.18
580.30	1640.33
580.66	1626.21
581.01	1611.97
581.36	1597.77
581.71	1584.58
582.06	1571.23
582.42	1558.09
582.77	1544.96
583.12	1531.75
583.47	1518.48
583.82	1505.30
584.17	1491.81
584.53	1477.92
584.88	1464.40
585.23	1450.43
585.58	1437.39
585.93	1424.55
586.28	1412.42
586.63	1400.32
586.98	1387.67
587.34	1375.11
587.69	1362.26
588.04	1349.74
588.39	1337.66
588.74	1325.63
589.09	1313.37
589.44	1300.75
589.79	1288.81
590.14	1276.94
590.49	1265.05
590.84	1253.25
591.19	1241.90
591.54	1230.33
591.89	1218.92
592.25	1207.67
592.60	1196.11
592.95	1184.90
593.30	1173.87
593.65	1162.54
594.00	1151.30
594.35	1140.69
594.70	1129.68
595.05	1119.58
595.40	1109.37
595.75	1098.94
596.10	1089.12
596.45	1078.92
596.80	1069.06
597.15	1058.99
597.50	1049.07
597.85	1039.51
598.19	1029.79
598.54	1020.17
598.89	1010.96
599.24	1002.10
599.59	993.07
599.94	984.98
600.29	976.62
600.64	967.97
600.99	958.95
601.34	950.35
601.69	941.42
602.04	933.14
602.39	924.69
602.74	916.23
603.08	907.80
603.43	899.32
603.78	891.06
604.13	882.98
604.48	874.83
604.83	866.88
605.18	858.83
605.53	850.94
605.87	842.83
606.22	835.11
606.57	827.28
606.92	819.34
607.27	811.31
607.62	803.69
607.96	796.46
608.31	789.68
608.66	782.68
609.01	775.96
609.36	769.35
609.70	762.44
610.05	755.61
610.40	749.01
610.75	742.40
611.10	736.12
611.44	729.70
611.79	723.37
612.14	716.97
612.49	710.70
612.83	704.72
613.18	698.86
613.53	692.86
613.88	686.95
614.22	681.47
614.57	675.87
614.92	670.10
615.27	664.48
615.61	658.90
615.96	653.37
616.31	647.84
616.65	642.40
617.00	637.22
617.35	632.10
617.70	627.04
618.04	621.99
618.39	616.91
618.74	612.08
619.08	607.29
619.43	602.61
619.78	597.96
620.12	593.25
620.47	588.73
620.82	584.31
621.16	579.86
621.51	575.29
621.85	570.81
622.20	566.53
622.55	562.25
622.89	558.03
623.24	553.83
623.59	549.69
623.93	545.70
624.28	541.76
624.62	537.94
624.97	534.16
625.32	530.38
625.66	526.52
626.01	522.62
626.35	518.81
626.70	515.05
627.04	511.44
627.39	507.81
627.73	504.33
628.08	500.94
628.43	497.57
628.77	494.29
629.12	491.10
629.46	487.90
629.81	484.64
630.15	481.39
630.50	478.23
630.84	475.11
631.19	472.08
631.53	469.16
631.88	466.20
632.22	463.25
632.57	460.59
632.91	457.98
633.26	455.44
633.60	452.90
633.95	450.45
634.29	447.92
634.64	445.44
634.98	442.76
635.32	440.25
635.67	437.92
636.01	435.51
636.36	433.17
636.70	431.00
637.05	428.79
637.39	426.60
637.73	424.45
638.08	422.42
638.42	420.33
638.77	418.12
639.11	415.86
639.45	413.70
639.80	411.48
640.14	409.36
640.49	407.22
640.83	405.07
641.17	403.00
641.52	400.98
641.86	398.98
642.20	397.19
642.55	395.24
642.89	393.31
643.23	391.48
643.58	389.82
643.92	387.99
644.26	386.26
644.61	384.58
644.95	382.86
645.29	381.06
645.64	379.30
645.98	377.62
646.32	376.06
646.66	374.48
647.01	372.92
647.35	371.40
647.69	369.88
648.04	368.51
648.38	367.04
648.72	365.59
649.06	364.15
649.41	362.73
649.75	361.35
650.09	359.98
650.43	358.63
650.78	357.22
651.12	355.85
651.46	354.52
651.80	353.22
652.14	351.96
652.49	350.75
652.83	349.52
653.17	348.32
653.51	347.16
653.85	346.06
654.20	344.90
654.54	343.69
654.88	342.56
655.22	341.43
655.56	340.30
655.90	339.24
656.25	338.21
656.59	337.16
656.93	336.18
657.27	335.21
657.61	334.17
657.95	333.17
658.29	332.18
658.64	331.25
658.98	330.30
659.32	329.38
659.66	328.49
660.00	327.63
660.34	326.77
660.68	325.86
661.02	324.92
661.36	324.02
661.70	323.15
662.05	322.30
662.39	321.47
662.73	320.72
663.07	319.96
663.41	319.17
663.75	318.36
664.09	317.56
664.43	316.73
664.77	315.99
665.11	315.21
665.45	314.49
665.79	313.78
666.13	313.01
666.47	312.24
666.81	311.46
667.15	310.64
667.49	309.95
667.83	309.32
668.17	308.66
668.51	308.04
668.85	307.45
669.19	306.87
669.53	306.21
669.87	305.53
670.21	304.88
670.55	304.26
670.89	303.72
671.23	303.14
671.57	302.58
671.91	302.05
672.25	301.53
672.58	301.00
672.92	300.41
673.26	299.92
673.60	299.43
673.94	298.94
674.28	298.50
674.62	298.00
674.96	297.45
675.30	296.97
675.64	296.44
675.97	295.91
676.31	295.35
676.65	294.85
676.99	294.40
677.33	293.88
677.67	293.40
678.01	292.84
678.34	292.37
678.68	291.92
679.02	291.40
679.36	290.91
679.70	290.41
680.04	289.95
680.37	289.48
680.71	289.03
681.05	288.59
681.39	288.11
681.73	287.61
682.06	287.12
682.40	286.67
682.74	286.26
683.08	285.91
683.42	285.48
683.75	285.10
684.09	284.62
684.43	284.23
684.77	283.80
685.10	283.44
685.44	283.04
685.78	282.64
686.12	282.27
686.45	281.88
686.79	281.47
687.13	281.08
687.46	280.67
687.80	280.27
688.14	279.84
688.48	279.46
688.81	279.08
689.15	278.74
689.49	278.33
689.82	277.93
690.16	277.46
690.50	277.07
690.83	276.67
691.17	276.28
691.51	275.89
691.84	275.53
692.18	275.12
692.52	274.70
692.85	274.30
693.19	273.95
693.52	273.57
693.86	273.19
694.20	272.82
694.53	272.46
694.87	272.07
695.21	271.70
695.54	271.33
695.88	270.95
696.21	270.55
696.55	270.20
696.88	269.85
697.22	269.50
697.56	269.14
697.89	268.74
698.23	268.38
698.56	268.00
698.90	267.65
699.23	267.27
699.57	266.91
699.90	266.55
700.24	266.18
700.58	265.85
700.91	265.55
701.25	265.33
701.58	265.05
701.92	264.76
702.25	264.45
702.59	264.11
702.92	263.79
703.26	263.46
703.59	263.11
703.93	262.89
704.26	262.57
704.60	262.25
704.93	261.93
705.26	261.60
705.60	261.33
705.93	260.99
706.27	260.73
706.60	260.47
706.94	260.21
707.27	259.88
707.61	259.57
707.94	259.23
708.27	258.81
708.61	258.45
708.94	258.12
709.28	257.82
709.61	257.52
709.94	257.26
710.28	257.00
710.61	256.76
710.95	256.38
711.28	256.19
711.61	255.92
711.95	255.70
712.28	255.43
712.61	255.14
712.95	254.96
713.28	254.76
713.61	254.46
713.95	254.17
714.28	253.93
714.61	253.67
714.95	253.43
715.28	253.18
715.61	252.95
715.95	252.73
716.28	252.51
716.61	252.31
716.95	252.06
717.28	251.82
717.61	251.58
717.94	251.35
718.28	251.03
718.61	250.80
718.94	250.55
719.27	250.33
719.61	250.14
719.94	249.88
720.27	249.59
720.60	249.38
720.94	249.17
721.27	248.96
721.60	248.78
721.93	248.56
722.27	248.40
722.60	248.22
722.93	247.99
723.26	247.79
723.59	247.56
723.93	247.38
724.26	247.19
724.59	246.99
724.92	246.82
725.25	246.68
725.59	246.50
725.92	246.35
726.25	246.17
726.58	245.99
726.91	245.81
727.24	245.66
727.57	245.49
727.91	245.31
728.24	245.17
728.57	244.99
728.90	244.84
729.23	244.63
729.56	244.51
729.89	244.35
730.22	244.17
730.55	244.02
730.89	243.85
731.22	243.69
731.55	243.53
731.88	243.37
732.21	243.19
732.54	243.04
732.87	242.88
733.20	242.74
733.53	242.59
733.86	242.46
734.19	242.29
734.52	242.16
734.85	242.11
735.18	241.94
735.51	241.83
735.84	241.70
736.17	241.60
736.50	241.40
736.83	241.42
737.16	241.30
737.49	241.18
737.82	241.04
738.15	240.93
738.48	240.81
738.81	240.68
739.14	240.54
739.47	240.40
739.80	240.27
740.13	240.15
740.46	240.01
740.79	239.87
741.12	239.74
741.45	239.60
741.78	239.40
742.11	239.32
742.44	239.16
742.77	239.05
743.10	238.91
743.43	238.79
743.75	238.55
744.08	238.62
744.41	238.50
744.74	238.38
745.07	238.24
745.40	238.16
745.73	238.10
746.06	238.01
746.39	237.92
746.71	237.81
747.04	237.69
747.37	237.59
747.70	237.51
748.03	237.43
748.36	237.35
748.68	237.25
749.01	237.12
749.34	237.04
749.67	236.94
750.00	236.87
750.33	236.87
750.65	236.78
750.98	236.50
751.31	236.41
751.64	236.34
751.97	236.32
752.29	236.21
752.62	236.07
752.95	235.97
753.28	235.86
753.60	235.77
753.93	235.72
754.26	235.64
754.59	235.51
754.91	235.41
755.24	235.31
755.57	235.29
755.90	235.20
756.22	235.10
756.55	235.00
756.88	234.89
757.20	234.72
757.53	234.61
757.86	234.52
758.19	234.45
758.51	234.37
758.84	234.23
759.17	234.14
759.49	234.08
759.82	234.07
760.15	234.00
760.47	233.93
760.80	233.83
761.13	233.78
761.45	233.72
761.78	233.66
762.11	233.60
762.43	233.47
762.76	233.41
763.08	233.36
763.41	233.30
763.74	233.25
764.06	233.20
764.39	233.15
764.71	233.09
765.04	233.02
765.37	232.95
765.69	232.90
766.02	232.85
766.34	232.78
766.67	232.68
767.00	232.65
767.32	232.66
767.65	232.69
767.97	232.62
768.30	232.57
768.62	232.51
768.95	232.45
769.27	232.39
769.60	232.36
769.92	232.28
770.25	232.21
770.57	232.14
770.90	232.09
771.22	232.03
771.55	231.98
771.87	231.95
772.20	231.90
772.52	231.96
772.85	232.07
773.17	232.02
773.50	231.97
773.82	231.91
774.15	231.80
774.47	231.67
774.80	231.62
775.12	231.58
775.45	231.54
775.77	231.51
776.09	231.48
776.42	231.44
776.74	231.45
777.07	231.41
777.39	231.39
777.72	231.34
778.04	231.33
778.36	231.28
778.69	231.24
779.01	231.22
779.33	231.08
779.66	230.90
779.98	230.86
780.31	230.84
780.63	230.86
780.95	230.85
781.28	230.83
781.60	230.79
781.92	230.76
782.25	230.74
782.57	230.71
782.89	230.67
783.22	230.64
783.54	230.58
783.86	230.57
784.19	230.54
784.51	230.55
784.83	230.51
785.16	230.48
785.48	230.46
785.80	230.44
786.12	230.42
786.45	230.40
786.77	230.38
787.09	230.35
787.42	230.28
787.74	230.26
788.06	230.24
788.38	230.21
788.71	230.19
789.03	230.17
789.35	230.16
789.67	230.13
789.99	230.12
790.32	230.08
790.64	230.07
790.96	230.16
791.28	230.09
791.61	230.07
791.93	230.06
792.25	230.03
792.57	230.10
792.89	230.06
793.21	230.05
793.54	230.02
793.86	229.99
794.18	229.98
794.50	229.94
794.82	229.92
795.14	229.92
795.47	229.92
795.79	229.90
796.11	229.85
796.43	229.84
796.75	229.82
797.07	229.82
797.39	229.79
797.71	229.67
798.04	229.66
798.36	229.65
798.68	229.63
799.00	229.63
799.32	229.55
799.64	229.55
799.96	229.54
800.28	229.54
800.60	229.52
800.92	229.51
801.24	229.49
801.56	229.49
801.89	229.46
802.21	229.45
802.53	229.41
802.85	229.42
803.17	229.46
803.49	229.42
803.81	229.40
804.13	229.38
804.45	229.35
804.77	229.35
805.09	229.34
805.41	229.32
805.73	229.28
806.05	229.23
806.37	229.21
806.69	229.19
807.01	229.17
807.33	229.16
807.65	229.11
807.97	229.15
808.28	229.12
808.60	229.11
808.92	229.08
809.24	229.15
809.56	229.11
809.88	229.06
810.20	229.05
810.52	229.07
810.84	229.04
811.16	229.01
811.48	229.00
811.80	229.03
812.12	229.01
812.43	229.03
812.75	229.02
813.07	229.00
813.39	228.99
813.71	228.97
814.03	228.94
814.35	228.94
814.67	228.88
814.98	228.86
815.30	228.84
815.62	228.82
815.94	228.72
816.26	228.73
816.58	228.70
816.89	228.70
817.21	228.66
817.53	228.66
817.85	228.65
818.17	228.64
818.48	228.57
