SpectraSuite Data File
++++++++++++++++++++++++++++++++++++
Date: Fri Oct 02 17:49:27 EDT 2015
User: lab3
Dark Spectrum Present: No
Reference Spectrum Present: No
Number of Sampled Component Spectra: 1
Spectrometers: USB2E7196
Integration Time (usec): 46000 (USB2E7196)
Spectra Averaged: 1500 (USB2E7196)
Boxcar Smoothing: 10 (USB2E7196)
Correct for Electrical Dark: No (USB2E7196)
Strobe/Lamp Enabled: No (USB2E7196)
Correct for Detector Non-linearity: No (USB2E7196)
Correct for Stray Light: No (USB2E7196)
Number of Pixels in Processed Spectrum: 2048
>>>>>Begin Processed Spectral Data<<<<<
339.09	0.00
339.48	215.68
339.86	217.15
340.24	218.34
340.63	219.73
341.01	223.00
341.39	222.57
341.78	224.04
342.16	225.09
342.54	225.47
342.93	213.92
343.31	224.73
343.69	225.26
344.07	225.73
344.46	226.16
344.84	226.55
345.22	226.78
345.60	227.04
345.99	227.23
346.37	227.36
346.75	227.47
347.13	227.54
347.52	227.62
347.90	227.73
348.28	227.77
348.66	227.83
349.05	227.84
349.43	227.90
349.81	227.96
350.19	228.02
350.57	228.09
350.96	228.17
351.34	228.27
351.72	228.36
352.10	228.47
352.48	228.54
352.87	228.60
353.25	228.67
353.63	228.73
354.01	228.79
354.39	228.88
354.77	228.96
355.15	229.07
355.54	229.12
355.92	229.14
356.30	229.22
356.68	229.36
357.06	229.43
357.44	229.48
357.82	229.54
358.20	229.65
358.58	229.70
358.97	229.77
359.35	229.85
359.73	229.93
360.11	229.99
360.49	230.05
360.87	230.10
361.25	230.17
361.63	230.26
362.01	230.31
362.39	230.34
362.77	230.40
363.15	230.42
363.53	230.45
363.91	230.49
364.29	230.50
364.67	230.41
365.05	230.44
365.43	230.46
365.81	230.49
366.19	230.50
366.57	230.57
366.95	230.56
367.33	230.54
367.71	230.52
368.09	230.55
368.47	230.53
368.85	230.51
369.23	230.52
369.61	230.46
369.99	230.48
370.37	230.48
370.75	230.54
371.13	230.51
371.51	230.46
371.89	230.44
372.27	230.42
372.65	230.39
373.03	230.34
373.41	230.31
373.78	230.25
374.16	230.15
374.54	230.07
374.92	230.02
375.30	229.98
375.68	229.91
376.06	229.85
376.44	229.80
376.82	229.77
377.19	229.71
377.57	229.67
377.95	229.57
378.33	229.51
378.71	229.35
379.09	229.31
379.47	229.27
379.84	229.21
380.22	229.14
380.60	229.08
380.98	229.03
381.36	228.97
381.73	228.90
382.11	228.89
382.49	228.84
382.87	228.78
383.25	228.73
383.62	228.85
384.00	228.78
384.38	228.74
384.76	228.73
385.13	228.72
385.51	228.68
385.89	228.63
386.27	228.59
386.64	228.57
387.02	228.52
387.40	228.48
387.78	228.46
388.15	228.44
388.53	228.40
388.91	228.38
389.29	228.34
389.66	228.35
390.04	228.30
390.42	228.30
390.79	228.29
391.17	228.28
391.55	228.11
391.92	228.10
392.30	228.10
392.68	228.06
393.05	228.04
393.43	228.04
393.81	228.05
394.18	228.03
394.56	228.03
394.94	228.06
395.31	228.06
395.69	228.10
396.06	228.14
396.44	228.16
396.82	228.16
397.19	228.25
397.57	228.25
397.95	228.30
398.32	228.28
398.70	228.32
399.07	228.38
399.45	228.42
399.82	228.46
400.20	228.49
400.58	228.55
400.95	228.55
401.33	228.63
401.70	228.79
402.08	228.89
402.45	228.97
402.83	229.09
403.20	229.19
403.58	229.27
403.95	229.40
404.33	229.55
404.71	229.69
405.08	229.89
405.46	230.06
405.83	230.24
406.21	230.44
406.58	230.65
406.96	230.85
407.33	231.10
407.70	231.36
408.08	231.74
408.45	232.06
408.83	232.41
409.20	232.72
409.58	233.00
409.95	233.38
410.33	233.81
410.70	234.20
411.08	234.67
411.45	235.17
411.82	235.67
412.20	236.25
412.57	236.93
412.95	237.46
413.32	238.16
413.69	238.87
414.07	239.63
414.44	240.44
414.82	241.29
415.19	242.28
415.56	243.29
415.94	244.32
416.31	245.49
416.68	246.67
417.06	248.03
417.43	249.31
417.81	250.78
418.18	252.28
418.55	253.91
418.93	255.60
419.30	257.37
419.67	259.27
420.04	261.20
420.42	263.21
420.79	265.53
421.16	267.89
421.54	270.29
421.91	272.80
422.28	275.41
422.66	278.21
423.03	280.89
423.40	283.69
423.77	286.69
424.15	289.76
424.52	292.97
424.89	296.43
425.26	299.87
425.64	303.07
426.01	306.66
426.38	310.34
426.75	314.15
427.13	318.07
427.50	322.15
427.87	326.38
428.24	330.68
428.61	334.83
428.99	339.29
429.36	344.19
429.73	348.88
430.10	353.57
430.47	358.37
430.85	363.32
431.22	368.63
431.59	374.10
431.96	379.44
432.33	385.37
432.70	391.04
433.08	397.72
433.45	404.04
433.82	410.27
434.19	417.23
434.56	424.09
434.93	430.70
435.30	437.25
435.68	444.69
436.05	451.95
436.42	459.15
436.79	465.74
437.16	472.86
437.53	480.46
437.90	488.06
438.27	495.52
438.64	503.55
439.01	510.82
439.38	517.46
439.75	523.85
440.13	531.05
440.50	537.86
440.87	543.26
441.24	549.17
441.61	555.62
441.98	560.29
442.35	565.80
442.72	571.42
443.09	576.77
443.46	580.08
443.83	582.47
444.20	584.43
444.57	587.41
444.94	589.00
445.31	590.65
445.68	592.00
446.05	592.89
446.42	592.25
446.79	591.44
447.16	590.70
447.53	589.99
447.90	587.41
448.27	584.91
448.64	581.30
449.01	578.71
449.37	573.81
449.74	569.35
450.11	563.72
450.48	557.59
450.85	551.44
451.22	546.17
451.59	541.01
451.96	536.35
452.33	529.70
452.70	523.78
453.07	516.61
453.43	509.51
453.80	502.62
454.17	496.04
454.54	489.99
454.91	483.17
455.28	476.78
455.65	470.78
456.02	464.48
456.38	459.39
456.75	452.85
457.12	447.60
457.49	442.32
457.86	437.35
458.23	432.99
458.59	428.19
458.96	423.28
459.33	418.96
459.70	414.58
460.07	411.27
460.43	407.36
460.80	403.72
461.17	400.54
461.54	397.11
461.91	393.91
462.27	390.66
462.64	388.04
463.01	385.01
463.38	381.95
463.74	379.19
464.11	376.78
464.48	374.62
464.85	372.24
465.21	370.45
465.58	368.45
465.95	366.15
466.32	364.33
466.68	362.53
467.05	360.73
467.42	358.96
467.78	357.05
468.15	355.31
468.52	354.05
468.88	352.34
469.25	350.79
469.62	349.55
469.98	348.20
470.35	347.00
470.72	345.91
471.08	344.80
471.45	343.87
471.82	342.83
472.18	341.71
472.55	341.02
472.92	340.12
473.28	339.42
473.65	338.67
474.02	337.98
474.38	337.38
474.75	337.03
475.11	336.56
475.48	336.33
475.85	336.08
476.21	335.95
476.58	335.88
476.94	336.01
477.31	336.10
477.67	336.18
478.04	336.40
478.41	336.69
478.77	337.11
479.14	337.39
479.50	337.89
479.87	338.54
480.23	339.18
480.60	339.83
480.96	340.48
481.33	341.44
481.69	342.39
482.06	343.34
482.42	344.24
482.79	345.32
483.15	346.56
483.52	347.98
483.88	349.36
484.25	350.81
484.61	352.32
484.98	353.96
485.34	355.81
485.71	357.72
486.07	359.80
486.44	361.86
486.80	364.16
487.17	366.54
487.53	369.16
487.90	371.91
488.26	374.90
488.62	378.03
488.99	381.17
489.35	384.48
489.72	388.07
490.08	391.83
490.44	395.74
490.81	399.79
491.17	403.95
491.54	408.40
491.90	413.03
492.26	417.96
492.63	423.14
492.99	428.55
493.36	434.15
493.72	440.01
494.08	446.03
494.45	452.43
494.81	459.09
495.17	465.93
495.54	473.14
495.90	480.65
496.26	488.33
496.63	496.25
496.99	504.51
497.35	513.13
497.72	522.02
498.08	531.12
498.44	540.57
498.80	550.57
499.17	560.83
499.53	571.34
499.89	582.24
500.26	593.37
500.62	604.80
500.98	616.84
501.34	629.07
501.71	641.80
502.07	654.74
502.43	668.17
502.79	681.83
503.16	695.95
503.52	710.26
503.88	725.00
504.24	740.20
504.60	755.60
504.97	771.49
505.33	787.81
505.69	805.01
506.05	822.49
506.41	839.89
506.78	857.54
507.14	875.74
507.50	894.35
507.86	913.32
508.22	932.48
508.59	951.48
508.95	971.36
509.31	991.96
509.67	1013.16
510.03	1034.38
510.39	1055.72
510.75	1077.27
511.12	1099.08
511.48	1121.03
511.84	1143.07
512.20	1165.54
512.56	1188.80
512.92	1212.10
513.28	1235.07
513.64	1258.32
514.00	1282.01
514.37	1305.92
514.73	1329.90
515.09	1353.79
515.45	1378.05
515.81	1402.40
516.17	1426.99
516.53	1451.00
516.89	1474.97
517.25	1499.13
517.61	1523.27
517.97	1547.82
518.33	1571.84
518.69	1595.85
519.05	1620.41
519.41	1645.25
519.77	1670.11
520.13	1694.39
520.49	1718.59
520.85	1743.19
521.21	1767.18
521.57	1791.71
521.93	1815.74
522.29	1840.20
522.65	1864.24
523.01	1888.22
523.37	1911.88
523.73	1936.18
524.09	1960.25
524.45	1984.07
524.81	2007.55
525.17	2030.89
525.53	2053.61
525.89	2076.82
526.25	2100.01
526.61	2122.23
526.97	2144.56
527.33	2166.97
527.68	2189.00
528.04	2210.25
528.40	2230.50
528.76	2251.35
529.12	2271.49
529.48	2291.25
529.84	2309.38
530.20	2328.13
530.56	2346.27
530.91	2364.59
531.27	2382.53
531.63	2399.69
531.99	2416.50
532.35	2432.63
532.71	2448.72
533.07	2465.49
533.42	2480.55
533.78	2496.55
534.14	2512.74
534.50	2527.88
534.86	2542.87
535.21	2555.98
535.57	2569.61
535.93	2583.02
536.29	2595.19
536.65	2607.41
537.00	2619.02
537.36	2631.41
537.72	2642.18
538.08	2652.68
538.44	2662.49
538.79	2671.90
539.15	2680.49
539.51	2688.58
539.87	2695.99
540.22	2701.72
540.58	2707.58
540.94	2714.63
541.29	2719.93
541.65	2723.42
542.01	2726.49
542.37	2728.77
542.72	2732.38
543.08	2734.38
543.44	2736.90
543.79	2738.35
544.15	2738.86
544.51	2739.79
544.87	2739.68
545.22	2738.86
545.58	2737.33
545.94	2735.88
546.29	2733.07
546.65	2730.27
547.01	2727.53
547.36	2725.51
547.72	2723.26
548.07	2719.42
548.43	2713.97
548.79	2707.82
549.14	2702.97
549.50	2698.15
549.86	2692.56
550.21	2685.80
550.57	2679.92
550.92	2671.85
551.28	2664.44
551.64	2657.22
551.99	2649.52
552.35	2641.20
552.70	2633.23
553.06	2625.50
553.41	2617.08
553.77	2608.45
554.13	2599.64
554.48	2589.96
554.84	2579.19
555.19	2569.16
555.55	2559.00
555.90	2548.90
556.26	2539.29
556.61	2528.53
556.97	2516.19
557.32	2504.41
557.68	2492.48
558.03	2480.39
558.39	2469.37
558.74	2458.58
559.10	2446.20
559.45	2434.14
559.81	2422.69
560.16	2410.46
560.52	2398.47
560.87	2386.76
561.23	2374.21
561.58	2362.05
561.94	2349.34
562.29	2336.09
562.64	2323.50
563.00	2310.54
563.35	2298.14
563.71	2285.47
564.06	2272.69
564.42	2260.62
564.77	2247.82
565.12	2235.06
565.48	2222.19
565.83	2209.46
566.19	2196.73
566.54	2183.93
566.89	2169.92
567.25	2156.14
567.60	2143.60
567.96	2130.21
568.31	2115.57
568.66	2101.78
569.02	2088.89
569.37	2076.04
569.72	2063.73
570.08	2050.03
570.43	2036.15
570.78	2021.84
571.14	2007.00
571.49	1992.91
571.84	1979.31
572.20	1964.49
572.55	1950.00
572.90	1935.24
573.26	1920.44
573.61	1905.12
573.96	1890.26
574.31	1875.77
574.67	1861.13
575.02	1845.68
575.37	1830.22
575.72	1815.65
576.08	1801.32
576.43	1785.88
576.78	1770.87
577.13	1756.13
577.49	1741.77
577.84	1727.91
578.19	1713.16
578.54	1698.64
578.90	1683.61
579.25	1668.50
579.60	1654.97
579.95	1641.18
580.30	1627.28
580.66	1613.19
581.01	1599.01
581.36	1584.89
581.71	1571.74
582.06	1558.40
582.42	1545.31
582.77	1532.21
583.12	1519.05
583.47	1505.80
583.82	1492.67
584.17	1479.20
584.53	1465.35
584.88	1451.85
585.23	1437.95
585.58	1424.99
585.93	1412.23
586.28	1400.15
586.63	1388.07
586.98	1375.45
587.34	1362.92
587.69	1350.18
588.04	1337.73
588.39	1325.74
588.74	1313.79
589.09	1301.61
589.44	1289.10
589.79	1277.23
590.14	1265.49
590.49	1253.70
590.84	1241.95
591.19	1230.68
591.54	1219.22
591.89	1207.91
592.25	1196.73
592.60	1185.28
592.95	1174.15
593.30	1163.16
593.65	1151.88
594.00	1140.71
594.35	1130.20
594.70	1119.31
595.05	1109.31
595.40	1099.15
595.75	1088.82
596.10	1079.07
596.45	1068.97
596.80	1059.18
597.15	1049.21
597.50	1039.36
597.85	1029.84
598.19	1020.26
598.54	1010.72
598.89	1001.57
599.24	992.76
599.59	983.88
599.94	975.84
600.29	967.57
600.64	959.04
600.99	950.17
601.34	941.68
601.69	932.82
602.04	924.61
602.39	916.26
602.74	907.92
603.08	899.57
603.43	891.18
603.78	882.99
604.13	874.99
604.48	866.92
604.83	859.05
605.18	851.10
605.53	843.29
605.87	835.26
606.22	827.65
606.57	819.93
606.92	812.04
607.27	804.10
607.62	796.59
607.96	789.45
608.31	782.73
608.66	775.79
609.01	769.18
609.36	762.68
609.70	755.87
610.05	749.08
610.40	742.55
610.75	736.03
611.10	729.83
611.44	723.50
611.79	717.28
612.14	710.96
612.49	704.79
612.83	698.89
613.18	693.13
613.53	687.21
613.88	681.37
614.22	676.01
614.57	670.52
614.92	664.83
615.27	659.28
615.61	653.78
615.96	648.36
616.31	642.92
616.65	637.54
617.00	632.45
617.35	627.42
617.70	622.45
618.04	617.52
618.39	612.50
618.74	607.75
619.08	603.02
619.43	598.40
619.78	593.83
620.12	589.19
620.47	584.75
620.82	580.39
621.16	576.03
621.51	571.53
621.85	567.13
622.20	562.92
622.55	558.70
622.89	554.54
623.24	550.40
623.59	546.33
623.93	542.41
624.28	538.54
624.62	534.80
624.97	531.09
625.32	527.35
625.66	523.59
626.01	519.76
626.35	516.04
626.70	512.36
627.04	508.82
627.39	505.28
627.73	501.88
628.08	498.59
628.43	495.28
628.77	492.09
629.12	488.95
629.46	485.81
629.81	482.62
630.15	479.45
630.50	476.36
630.84	473.32
631.19	470.33
631.53	467.47
631.88	464.57
632.22	461.68
632.57	459.08
632.91	456.51
633.26	454.05
633.60	451.56
633.95	449.18
634.29	446.67
634.64	444.25
634.98	441.62
635.32	439.16
635.67	436.89
636.01	434.52
636.36	432.24
636.70	430.12
637.05	427.96
637.39	425.84
637.73	423.76
638.08	421.77
638.42	419.73
638.77	417.60
639.11	415.41
639.45	413.32
639.80	411.16
640.14	409.10
640.49	407.01
640.83	404.92
641.17	402.91
641.52	400.93
641.86	398.97
642.20	397.23
642.55	395.32
642.89	393.45
643.23	391.67
643.58	390.06
643.92	388.29
644.26	386.60
644.61	384.96
644.95	383.27
645.29	381.53
645.64	379.82
645.98	378.18
646.32	376.65
646.66	375.10
647.01	373.58
647.35	372.11
647.69	370.64
648.04	369.30
648.38	367.85
648.72	366.45
649.06	365.05
649.41	363.67
649.75	362.33
650.09	360.99
650.43	359.66
650.78	358.28
651.12	356.94
651.46	355.65
651.80	354.38
652.14	353.15
652.49	351.97
652.83	350.77
653.17	349.59
653.51	348.46
653.85	347.40
654.20	346.27
654.54	345.06
654.88	343.95
655.22	342.85
655.56	341.75
655.90	340.72
656.25	339.72
656.59	338.68
656.93	337.71
657.27	336.77
657.61	335.74
657.95	334.77
658.29	333.79
658.64	332.88
658.98	331.95
659.32	331.05
659.66	330.16
660.00	329.32
660.34	328.48
660.68	327.59
661.02	326.65
661.36	325.75
661.70	324.90
662.05	324.07
662.39	323.24
662.73	322.50
663.07	321.73
663.41	320.94
663.75	320.13
664.09	319.33
664.43	318.50
664.77	317.77
665.11	316.98
665.45	316.28
665.79	315.56
666.13	314.78
666.47	314.00
666.81	313.23
667.15	312.40
667.49	311.71
667.83	311.06
668.17	310.40
668.51	309.79
668.85	309.21
669.19	308.63
669.53	307.96
669.87	307.28
670.21	306.64
670.55	306.02
670.89	305.48
671.23	304.89
671.57	304.32
671.91	303.79
672.25	303.28
672.58	302.73
672.92	302.13
673.26	301.64
673.60	301.14
673.94	300.65
674.28	300.20
674.62	299.69
674.96	299.15
675.30	298.66
675.64	298.12
675.97	297.57
676.31	297.01
676.65	296.50
676.99	296.04
677.33	295.51
677.67	295.02
678.01	294.45
678.34	293.97
678.68	293.49
679.02	292.96
679.36	292.46
679.70	291.96
680.04	291.49
680.37	291.00
680.71	290.54
681.05	290.09
681.39	289.58
681.73	289.07
682.06	288.56
682.40	288.09
682.74	287.68
683.08	287.31
683.42	286.86
683.75	286.45
684.09	285.96
684.43	285.54
684.77	285.09
685.10	284.72
685.44	284.30
685.78	283.89
686.12	283.50
686.45	283.09
686.79	282.66
687.13	282.27
687.46	281.84
687.80	281.44
688.14	280.98
688.48	280.59
688.81	280.19
689.15	279.83
689.49	279.42
689.82	279.00
690.16	278.52
690.50	278.13
690.83	277.71
691.17	277.30
691.51	276.91
691.84	276.53
692.18	276.10
692.52	275.68
692.85	275.26
693.19	274.89
693.52	274.49
693.86	274.09
694.20	273.71
694.53	273.33
694.87	272.94
695.21	272.56
695.54	272.19
695.88	271.81
696.21	271.40
696.55	271.03
696.88	270.66
697.22	270.29
697.56	269.91
697.89	269.51
698.23	269.14
698.56	268.75
698.90	268.39
699.23	268.01
699.57	267.63
699.90	267.26
700.24	266.88
700.58	266.54
700.91	266.24
701.25	266.00
701.58	265.69
701.92	265.39
702.25	265.05
702.59	264.70
702.92	264.36
703.26	264.01
703.59	263.66
703.93	263.41
704.26	263.10
704.60	262.77
704.93	262.43
705.26	262.11
705.60	261.82
705.93	261.46
706.27	261.18
706.60	260.93
706.94	260.67
707.27	260.32
707.61	259.99
707.94	259.64
708.27	259.21
708.61	258.85
708.94	258.52
709.28	258.22
709.61	257.91
709.94	257.64
710.28	257.38
710.61	257.13
710.95	256.75
711.28	256.55
711.61	256.27
711.95	256.05
712.28	255.77
712.61	255.48
712.95	255.30
713.28	255.10
713.61	254.78
713.95	254.48
714.28	254.24
714.61	253.98
714.95	253.73
715.28	253.48
715.61	253.24
715.95	253.02
716.28	252.79
716.61	252.59
716.95	252.34
717.28	252.10
717.61	251.85
717.94	251.62
718.28	251.30
718.61	251.06
718.94	250.81
719.27	250.59
719.61	250.39
719.94	250.13
720.27	249.83
720.60	249.64
720.94	249.43
721.27	249.22
721.60	249.03
721.93	248.82
722.27	248.65
722.60	248.46
722.93	248.24
723.26	248.03
723.59	247.79
723.93	247.60
724.26	247.41
724.59	247.21
724.92	247.03
725.25	246.90
725.59	246.72
725.92	246.56
726.25	246.39
726.58	246.21
726.91	246.01
727.24	245.86
727.57	245.67
727.91	245.49
728.24	245.34
728.57	245.15
728.90	244.99
729.23	244.79
729.56	244.68
729.89	244.50
730.22	244.34
730.55	244.18
730.89	244.01
731.22	243.84
731.55	243.68
731.88	243.52
732.21	243.33
732.54	243.17
732.87	243.01
733.20	242.86
733.53	242.70
733.86	242.57
734.19	242.40
734.52	242.28
734.85	242.22
735.18	242.04
735.51	241.94
735.84	241.79
736.17	241.68
736.50	241.48
736.83	241.50
737.16	241.38
737.49	241.26
737.82	241.13
738.15	241.01
738.48	240.89
738.81	240.76
739.14	240.62
739.47	240.48
739.80	240.34
740.13	240.21
740.46	240.07
740.79	239.93
741.12	239.79
741.45	239.64
741.78	239.44
742.11	239.36
742.44	239.21
742.77	239.11
743.10	238.98
743.43	238.86
743.75	238.62
744.08	238.69
744.41	238.55
744.74	238.44
745.07	238.30
745.40	238.22
745.73	238.16
746.06	238.06
746.39	237.98
746.71	237.87
747.04	237.76
747.37	237.65
747.70	237.57
748.03	237.49
748.36	237.42
748.68	237.31
749.01	237.18
749.34	237.08
749.67	236.98
750.00	236.90
750.33	236.88
750.65	236.79
750.98	236.51
751.31	236.42
751.64	236.33
751.97	236.31
752.29	236.20
752.62	236.05
752.95	235.95
753.28	235.85
753.60	235.75
753.93	235.70
754.26	235.63
754.59	235.50
754.91	235.41
755.24	235.31
755.57	235.29
755.90	235.20
756.22	235.12
756.55	235.01
756.88	234.90
757.20	234.74
757.53	234.62
757.86	234.54
758.19	234.46
758.51	234.38
758.84	234.25
759.17	234.17
759.49	234.10
759.82	234.09
760.15	234.02
760.47	233.95
760.80	233.84
761.13	233.78
761.45	233.72
761.78	233.65
762.11	233.59
762.43	233.46
762.76	233.39
763.08	233.34
763.41	233.29
763.74	233.23
764.06	233.17
764.39	233.13
764.71	233.07
765.04	233.01
765.37	232.95
765.69	232.88
766.02	232.82
766.34	232.75
766.67	232.64
767.00	232.61
767.32	232.62
767.65	232.65
767.97	232.59
768.30	232.54
768.62	232.49
768.95	232.41
769.27	232.36
769.60	232.33
769.92	232.26
770.25	232.19
770.57	232.12
770.90	232.07
771.22	232.01
771.55	231.95
771.87	231.92
772.20	231.87
772.52	231.92
772.85	232.03
773.17	231.99
773.50	231.94
773.82	231.88
774.15	231.78
774.47	231.65
774.80	231.60
775.12	231.56
775.45	231.53
775.77	231.50
776.09	231.48
776.42	231.45
776.74	231.46
777.07	231.42
777.39	231.40
777.72	231.35
778.04	231.34
778.36	231.30
778.69	231.26
779.01	231.23
779.33	231.10
779.66	230.93
779.98	230.89
780.31	230.87
780.63	230.89
780.95	230.88
781.28	230.85
781.60	230.83
781.92	230.80
782.25	230.77
782.57	230.74
782.89	230.70
783.22	230.66
783.54	230.59
783.86	230.57
784.19	230.54
784.51	230.55
784.83	230.50
785.16	230.48
785.48	230.46
785.80	230.44
786.12	230.43
786.45	230.40
786.77	230.39
787.09	230.37
787.42	230.30
787.74	230.27
788.06	230.25
788.38	230.22
788.71	230.19
789.03	230.17
789.35	230.17
789.67	230.14
789.99	230.12
790.32	230.09
790.64	230.08
790.96	230.19
791.28	230.12
791.61	230.10
791.93	230.09
792.25	230.06
792.57	230.13
792.89	230.10
793.21	230.09
793.54	230.06
793.86	230.03
794.18	230.02
794.50	229.98
794.82	229.96
795.14	229.96
795.47	229.96
795.79	229.95
796.11	229.90
796.43	229.88
796.75	229.87
797.07	229.86
797.39	229.83
797.71	229.71
798.04	229.71
798.36	229.70
798.68	229.68
799.00	229.67
799.32	229.60
799.64	229.60
799.96	229.57
800.28	229.58
800.60	229.56
800.92	229.56
801.24	229.53
801.56	229.53
801.89	229.51
802.21	229.50
802.53	229.46
802.85	229.48
803.17	229.52
803.49	229.48
803.81	229.46
804.13	229.44
804.45	229.40
804.77	229.41
805.09	229.40
805.41	229.38
805.73	229.34
806.05	229.29
806.37	229.27
806.69	229.25
807.01	229.21
807.33	229.21
807.65	229.15
807.97	229.20
808.28	229.16
808.60	229.15
808.92	229.11
809.24	229.17
809.56	229.12
809.88	229.06
810.20	229.05
810.52	229.07
810.84	229.04
811.16	229.02
811.48	229.00
811.80	229.02
812.12	229.00
812.43	229.01
812.75	229.01
813.07	228.99
813.39	228.98
813.71	228.96
814.03	228.94
814.35	228.94
814.67	228.88
814.98	228.87
815.30	228.85
815.62	228.83
815.94	228.75
816.26	228.76
816.58	228.72
816.89	228.73
817.21	228.69
817.53	228.69
817.85	228.68
818.17	228.66
818.48	228.60
