SpectraSuite Data File
++++++++++++++++++++++++++++++++++++
Date: Fri Oct 02 20:39:04 EDT 2015
User: lab3
Dark Spectrum Present: No
Reference Spectrum Present: No
Number of Sampled Component Spectra: 1
Spectrometers: USB2E7196
Integration Time (usec): 46000 (USB2E7196)
Spectra Averaged: 6000 (USB2E7196)
Boxcar Smoothing: 10 (USB2E7196)
Correct for Electrical Dark: No (USB2E7196)
Strobe/Lamp Enabled: No (USB2E7196)
Correct for Detector Non-linearity: No (USB2E7196)
Correct for Stray Light: No (USB2E7196)
Number of Pixels in Processed Spectrum: 2048
>>>>>Begin Processed Spectral Data<<<<<
339.09	0.00
339.48	215.23
339.86	216.71
340.24	218.03
340.63	219.46
341.01	222.68
341.39	222.22
341.78	223.61
342.16	224.78
342.54	225.16
342.93	213.58
343.31	224.37
343.69	224.90
344.07	225.36
344.46	225.79
344.84	226.18
345.22	226.40
345.60	226.66
345.99	226.85
346.37	226.98
346.75	227.09
347.13	227.17
347.52	227.24
347.90	227.33
348.28	227.36
348.66	227.42
349.05	227.41
349.43	227.46
349.81	227.52
350.19	227.57
350.57	227.64
350.96	227.72
351.34	227.81
351.72	227.90
352.10	228.01
352.48	228.08
352.87	228.13
353.25	228.20
353.63	228.26
354.01	228.32
354.39	228.39
354.77	228.47
355.15	228.59
355.54	228.63
355.92	228.66
356.30	228.73
356.68	228.89
357.06	228.96
357.44	229.01
357.82	229.07
358.20	229.19
358.58	229.25
358.97	229.32
359.35	229.41
359.73	229.50
360.11	229.55
360.49	229.61
360.87	229.66
361.25	229.73
361.63	229.81
362.01	229.87
362.39	229.90
362.77	229.95
363.15	229.97
363.53	230.00
363.91	230.04
364.29	230.06
364.67	229.96
365.05	229.99
365.43	230.02
365.81	230.06
366.19	230.08
366.57	230.13
366.95	230.13
367.33	230.10
367.71	230.09
368.09	230.11
368.47	230.10
368.85	230.09
369.23	230.10
369.61	230.04
369.99	230.06
370.37	230.06
370.75	230.14
371.13	230.10
371.51	230.06
371.89	230.05
372.27	230.03
372.65	230.02
373.03	229.98
373.41	229.94
373.78	229.88
374.16	229.78
374.54	229.70
374.92	229.65
375.30	229.62
375.68	229.55
376.06	229.51
376.44	229.46
376.82	229.42
377.19	229.37
377.57	229.32
377.95	229.23
378.33	229.17
378.71	229.00
379.09	228.96
379.47	228.93
379.84	228.86
380.22	228.79
380.60	228.72
380.98	228.67
381.36	228.62
381.73	228.56
382.11	228.53
382.49	228.49
382.87	228.43
383.25	228.38
383.62	228.48
384.00	228.41
384.38	228.37
384.76	228.36
385.13	228.35
385.51	228.31
385.89	228.25
386.27	228.22
386.64	228.21
387.02	228.16
387.40	228.12
387.78	228.09
388.15	228.06
388.53	228.03
388.91	228.00
389.29	227.97
389.66	227.96
390.04	227.92
390.42	227.91
390.79	227.90
391.17	227.88
391.55	227.73
391.92	227.72
392.30	227.72
392.68	227.67
393.05	227.65
393.43	227.65
393.81	227.66
394.18	227.64
394.56	227.64
394.94	227.67
395.31	227.67
395.69	227.71
396.06	227.74
396.44	227.76
396.82	227.77
397.19	227.86
397.57	227.87
397.95	227.91
398.32	227.90
398.70	227.95
399.07	228.01
399.45	228.05
399.82	228.09
400.20	228.13
400.58	228.19
400.95	228.20
401.33	228.29
401.70	228.44
402.08	228.54
402.45	228.62
402.83	228.73
403.20	228.84
403.58	228.93
403.95	229.06
404.33	229.21
404.71	229.35
405.08	229.56
405.46	229.72
405.83	229.90
406.21	230.09
406.58	230.31
406.96	230.51
407.33	230.76
407.70	231.03
408.08	231.41
408.45	231.73
408.83	232.08
409.20	232.39
409.58	232.67
409.95	233.07
410.33	233.50
410.70	233.90
411.08	234.38
411.45	234.88
411.82	235.39
412.20	235.97
412.57	236.66
412.95	237.19
413.32	237.90
413.69	238.62
414.07	239.39
414.44	240.23
414.82	241.08
415.19	242.08
415.56	243.10
415.94	244.14
416.31	245.33
416.68	246.51
417.06	247.88
417.43	249.16
417.81	250.63
418.18	252.14
418.55	253.78
418.93	255.49
419.30	257.27
419.67	259.16
420.04	261.10
420.42	263.12
420.79	265.48
421.16	267.84
421.54	270.25
421.91	272.76
422.28	275.36
422.66	278.17
423.03	280.85
423.40	283.65
423.77	286.66
424.15	289.73
424.52	292.94
424.89	296.42
425.26	299.88
425.64	303.09
426.01	306.70
426.38	310.39
426.75	314.19
427.13	318.10
427.50	322.18
427.87	326.43
428.24	330.72
428.61	334.84
428.99	339.31
429.36	344.19
429.73	348.87
430.10	353.56
430.47	358.35
430.85	363.28
431.22	368.59
431.59	374.04
431.96	379.36
432.33	385.27
432.70	390.90
433.08	397.54
433.45	403.82
433.82	410.01
434.19	416.92
434.56	423.74
434.93	430.32
435.30	436.84
435.68	444.19
436.05	451.40
436.42	458.58
436.79	465.13
437.16	472.21
437.53	479.77
437.90	487.35
438.27	494.75
438.64	502.73
439.01	509.97
439.38	516.57
439.75	522.95
440.13	530.12
440.50	536.94
440.87	542.35
441.24	548.26
441.61	554.71
441.98	559.39
442.35	564.94
442.72	570.61
443.09	575.97
443.46	579.35
443.83	581.78
444.20	583.79
444.57	586.83
444.94	588.48
445.31	590.21
445.68	591.64
446.05	592.63
446.42	592.10
446.79	591.40
447.16	590.75
447.53	590.13
447.90	587.65
448.27	585.25
448.64	581.73
449.01	579.22
449.37	574.42
449.74	570.07
450.11	564.51
450.48	558.45
450.85	552.41
451.22	547.22
451.59	542.16
451.96	537.58
452.33	531.00
452.70	525.15
453.07	518.04
453.43	510.96
453.80	504.10
454.17	497.55
454.54	491.52
454.91	484.72
455.28	478.36
455.65	472.37
456.02	466.07
456.38	460.99
456.75	454.46
457.12	449.21
457.49	443.91
457.86	438.93
458.23	434.57
458.59	429.75
458.96	424.80
459.33	420.47
459.70	416.06
460.07	412.71
460.43	408.77
460.80	405.10
461.17	401.93
461.54	398.46
461.91	395.24
462.27	391.97
462.64	389.33
463.01	386.28
463.38	383.20
463.74	380.43
464.11	377.98
464.48	375.79
464.85	373.40
465.21	371.61
465.58	369.60
465.95	367.28
466.32	365.44
466.68	363.64
467.05	361.82
467.42	360.04
467.78	358.11
468.15	356.35
468.52	355.08
468.88	353.34
469.25	351.75
469.62	350.50
469.98	349.13
470.35	347.92
470.72	346.82
471.08	345.70
471.45	344.76
471.82	343.71
472.18	342.59
472.55	341.87
472.92	340.95
473.28	340.24
473.65	339.47
474.02	338.74
474.38	338.13
474.75	337.77
475.11	337.28
475.48	337.05
475.85	336.80
476.21	336.67
476.58	336.58
476.94	336.72
477.31	336.77
477.67	336.86
478.04	337.05
478.41	337.33
478.77	337.74
479.14	337.99
479.50	338.48
479.87	339.12
480.23	339.76
480.60	340.40
480.96	341.04
481.33	341.99
481.69	342.94
482.06	343.87
482.42	344.74
482.79	345.81
483.15	347.05
483.52	348.45
483.88	349.81
484.25	351.26
484.61	352.78
484.98	354.42
485.34	356.26
485.71	358.19
486.07	360.25
486.44	362.30
486.80	364.59
487.17	366.98
487.53	369.59
487.90	372.32
488.26	375.29
488.62	378.42
488.99	381.56
489.35	384.86
489.72	388.45
490.08	392.21
490.44	396.11
490.81	400.15
491.17	404.30
491.54	408.77
491.90	413.38
492.26	418.31
492.63	423.47
492.99	428.85
493.36	434.42
493.72	440.29
494.08	446.30
494.45	452.69
494.81	459.34
495.17	466.17
495.54	473.37
495.90	480.85
496.26	488.51
496.63	496.42
496.99	504.65
497.35	513.26
497.72	522.15
498.08	531.24
498.44	540.66
498.80	550.63
499.17	560.84
499.53	571.36
499.89	582.26
500.26	593.39
500.62	604.81
500.98	616.83
501.34	629.04
501.71	641.77
502.07	654.69
502.43	668.13
502.79	681.77
503.16	695.89
503.52	710.20
503.88	724.95
504.24	740.13
504.60	755.52
504.97	771.38
505.33	787.68
505.69	804.86
506.05	822.36
506.41	839.78
506.78	857.42
507.14	875.59
507.50	894.18
507.86	913.15
508.22	932.32
508.59	951.35
508.95	971.19
509.31	991.78
509.67	1013.01
510.03	1034.23
510.39	1055.57
510.75	1077.12
511.12	1098.93
511.48	1120.88
511.84	1142.96
512.20	1165.45
512.56	1188.75
512.92	1212.06
513.28	1235.05
513.64	1258.32
514.00	1282.02
514.37	1306.00
514.73	1330.01
515.09	1353.95
515.45	1378.22
515.81	1402.63
516.17	1427.24
516.53	1451.35
516.89	1475.33
517.25	1499.52
517.61	1523.67
517.97	1548.27
518.33	1572.37
518.69	1596.42
519.05	1621.00
519.41	1645.84
519.77	1670.83
520.13	1695.16
520.49	1719.45
520.85	1744.09
521.21	1768.22
521.57	1792.82
521.93	1816.97
522.29	1841.57
522.65	1865.67
523.01	1889.73
523.37	1913.46
523.73	1937.86
524.09	1962.05
524.45	1986.03
524.81	2009.62
525.17	2033.07
525.53	2055.95
525.89	2079.29
526.25	2102.65
526.61	2125.00
526.97	2147.50
527.33	2170.00
527.68	2192.17
528.04	2213.58
528.40	2234.06
528.76	2254.96
529.12	2275.28
529.48	2295.20
529.84	2313.44
530.20	2332.33
530.56	2350.62
530.91	2369.09
531.27	2387.20
531.63	2404.48
531.99	2421.36
532.35	2437.61
532.71	2453.91
533.07	2470.86
533.42	2486.08
533.78	2502.27
534.14	2518.64
534.50	2534.01
534.86	2549.16
535.21	2562.48
535.57	2576.30
535.93	2589.91
536.29	2602.31
536.65	2614.64
537.00	2626.36
537.36	2638.92
537.72	2649.95
538.08	2660.58
538.44	2670.58
538.79	2680.13
539.15	2688.86
539.51	2697.22
539.87	2704.90
540.22	2710.74
540.58	2716.67
540.94	2723.81
541.29	2729.25
541.65	2732.96
542.01	2736.03
542.37	2738.45
542.72	2742.18
543.08	2744.21
543.44	2746.82
543.79	2748.34
544.15	2749.01
544.51	2750.13
544.87	2750.09
545.22	2749.39
545.58	2748.01
545.94	2746.64
546.29	2743.95
546.65	2741.25
547.01	2738.51
547.36	2736.50
547.72	2734.45
548.07	2730.69
548.43	2725.42
548.79	2719.35
549.14	2714.60
549.50	2710.01
549.86	2704.50
550.21	2697.82
550.57	2692.09
550.92	2684.09
551.28	2676.74
551.64	2669.66
551.99	2662.01
552.35	2653.76
552.70	2645.80
553.06	2638.10
553.41	2629.74
553.77	2621.17
554.13	2612.54
554.48	2603.05
554.84	2592.35
555.19	2582.24
555.55	2572.12
555.90	2562.00
556.26	2552.38
556.61	2541.66
556.97	2529.34
557.32	2517.55
557.68	2505.68
558.03	2493.60
558.39	2482.68
558.74	2472.00
559.10	2459.58
559.45	2447.51
559.81	2436.04
560.16	2423.85
560.52	2411.90
560.87	2400.26
561.23	2387.81
561.58	2375.52
561.94	2362.80
562.29	2349.55
562.64	2337.03
563.00	2324.14
563.35	2311.79
563.71	2299.18
564.06	2286.40
564.42	2274.38
564.77	2261.68
565.12	2248.92
565.48	2236.10
565.83	2223.28
566.19	2210.52
566.54	2197.76
566.89	2183.78
567.25	2170.03
567.60	2157.57
567.96	2144.22
568.31	2129.55
568.66	2115.66
569.02	2102.84
569.37	2089.98
569.72	2077.66
570.08	2064.02
570.43	2050.10
570.78	2035.90
571.14	2021.02
571.49	2006.86
571.84	1993.23
572.20	1978.34
572.55	1963.78
572.90	1949.02
573.26	1934.25
573.61	1919.01
573.96	1904.20
574.31	1889.65
574.67	1875.07
575.02	1859.54
575.37	1844.10
575.72	1829.51
576.08	1815.21
576.43	1799.71
576.78	1784.68
577.13	1769.91
577.49	1755.47
577.84	1741.61
578.19	1726.82
578.54	1712.25
578.90	1697.18
579.25	1681.97
579.60	1668.40
579.95	1654.61
580.30	1640.72
580.66	1626.59
581.01	1612.34
581.36	1598.09
581.71	1584.87
582.06	1571.52
582.42	1558.39
582.77	1545.25
583.12	1532.06
583.47	1518.78
583.82	1505.62
584.17	1492.11
584.53	1478.25
584.88	1464.77
585.23	1450.81
585.58	1437.74
585.93	1424.87
586.28	1412.75
586.63	1400.66
586.98	1388.03
587.34	1375.47
587.69	1362.62
588.04	1350.12
588.39	1338.02
588.74	1326.03
589.09	1313.79
589.44	1301.14
589.79	1289.17
590.14	1277.31
590.49	1265.40
590.84	1253.59
591.19	1242.22
591.54	1230.64
591.89	1219.22
592.25	1207.94
592.60	1196.35
592.95	1185.15
593.30	1174.14
593.65	1162.81
594.00	1151.56
594.35	1140.94
594.70	1129.92
595.05	1119.80
595.40	1109.53
595.75	1099.12
596.10	1089.25
596.45	1079.07
596.80	1069.23
597.15	1059.14
597.50	1049.21
597.85	1039.66
598.19	1029.96
598.54	1020.34
598.89	1011.13
599.24	1002.26
599.59	993.22
599.94	985.14
600.29	976.78
600.64	968.13
600.99	959.13
601.34	950.52
601.69	941.56
602.04	933.27
602.39	924.81
602.74	916.39
603.08	907.95
603.43	899.47
603.78	891.18
604.13	883.08
604.48	874.93
604.83	866.98
605.18	858.92
605.53	851.02
605.87	842.91
606.22	835.19
606.57	827.35
606.92	819.41
607.27	811.39
607.62	803.76
607.96	796.53
608.31	789.73
608.66	782.73
609.01	776.03
609.36	769.42
609.70	762.54
610.05	755.69
610.40	749.10
610.75	742.49
611.10	736.22
611.44	729.79
611.79	723.47
612.14	717.07
612.49	710.80
612.83	704.82
613.18	698.96
613.53	692.96
613.88	687.05
614.22	681.56
614.57	675.97
614.92	670.20
615.27	664.58
615.61	659.00
615.96	653.47
616.31	647.94
616.65	642.48
617.00	637.28
617.35	632.16
617.70	627.09
618.04	622.05
618.39	616.95
618.74	612.12
619.08	607.31
619.43	602.63
619.78	597.96
620.12	593.23
620.47	588.70
620.82	584.27
621.16	579.83
621.51	575.27
621.85	570.80
622.20	566.50
622.55	562.21
622.89	558.00
623.24	553.79
623.59	549.65
623.93	545.66
624.28	541.74
624.62	537.91
624.97	534.13
625.32	530.35
625.66	526.49
626.01	522.60
626.35	518.79
626.70	515.04
627.04	511.44
627.39	507.82
627.73	504.35
628.08	500.96
628.43	497.58
628.77	494.30
629.12	491.12
629.46	487.94
629.81	484.68
630.15	481.43
630.50	478.29
630.84	475.17
631.19	472.12
631.53	469.19
631.88	466.22
632.22	463.28
632.57	460.62
632.91	458.01
633.26	455.48
633.60	452.94
633.95	450.49
634.29	447.95
634.64	445.48
634.98	442.80
635.32	440.28
635.67	437.96
636.01	435.55
636.36	433.21
636.70	431.03
637.05	428.82
637.39	426.64
637.73	424.49
638.08	422.46
638.42	420.38
638.77	418.19
639.11	415.93
639.45	413.77
639.80	411.54
640.14	409.42
640.49	407.28
640.83	405.14
641.17	403.07
641.52	401.04
641.86	399.04
642.20	397.26
642.55	395.31
642.89	393.39
643.23	391.55
643.58	389.88
643.92	388.07
644.26	386.34
644.61	384.66
644.95	382.94
645.29	381.14
645.64	379.37
645.98	377.69
646.32	376.14
646.66	374.57
647.01	373.01
647.35	371.50
647.69	369.97
648.04	368.59
648.38	367.11
648.72	365.67
649.06	364.23
649.41	362.80
649.75	361.42
650.09	360.05
650.43	358.70
650.78	357.29
651.12	355.90
651.46	354.58
651.80	353.28
652.14	352.02
652.49	350.81
652.83	349.58
653.17	348.37
653.51	347.21
653.85	346.10
654.20	344.95
654.54	343.73
654.88	342.60
655.22	341.47
655.56	340.34
655.90	339.28
656.25	338.25
656.59	337.19
656.93	336.21
657.27	335.23
657.61	334.20
657.95	333.20
658.29	332.21
658.64	331.27
658.98	330.32
659.32	329.39
659.66	328.50
660.00	327.63
660.34	326.77
660.68	325.86
661.02	324.92
661.36	324.02
661.70	323.16
662.05	322.31
662.39	321.48
662.73	320.72
663.07	319.97
663.41	319.18
663.75	318.38
664.09	317.58
664.43	316.75
664.77	316.00
665.11	315.22
665.45	314.50
665.79	313.78
666.13	313.01
666.47	312.24
666.81	311.46
667.15	310.66
667.49	309.96
667.83	309.32
668.17	308.65
668.51	308.03
668.85	307.44
669.19	306.87
669.53	306.21
669.87	305.53
670.21	304.87
670.55	304.25
670.89	303.71
671.23	303.12
671.57	302.54
671.91	302.02
672.25	301.51
672.58	300.99
672.92	300.39
673.26	299.90
673.60	299.40
673.94	298.92
674.28	298.47
674.62	297.98
674.96	297.43
675.30	296.95
675.64	296.42
675.97	295.88
676.31	295.32
676.65	294.80
676.99	294.36
677.33	293.83
677.67	293.35
678.01	292.79
678.34	292.31
678.68	291.86
679.02	291.34
679.36	290.84
679.70	290.34
680.04	289.88
680.37	289.40
680.71	288.95
681.05	288.52
681.39	288.03
681.73	287.52
682.06	287.04
682.40	286.58
682.74	286.17
683.08	285.81
683.42	285.38
683.75	284.99
684.09	284.52
684.43	284.11
684.77	283.70
685.10	283.33
685.44	282.93
685.78	282.52
686.12	282.14
686.45	281.74
686.79	281.32
687.13	280.94
687.46	280.51
687.80	280.12
688.14	279.67
688.48	279.29
688.81	278.90
689.15	278.55
689.49	278.14
689.82	277.73
690.16	277.26
690.50	276.88
690.83	276.48
691.17	276.07
691.51	275.69
691.84	275.32
692.18	274.91
692.52	274.50
692.85	274.10
693.19	273.75
693.52	273.36
693.86	272.98
694.20	272.61
694.53	272.26
694.87	271.87
695.21	271.49
695.54	271.11
695.88	270.74
696.21	270.34
696.55	269.99
696.88	269.62
697.22	269.26
697.56	268.90
697.89	268.50
698.23	268.15
698.56	267.76
698.90	267.41
699.23	267.03
699.57	266.67
699.90	266.31
700.24	265.93
700.58	265.60
700.91	265.31
701.25	265.08
701.58	264.80
701.92	264.50
702.25	264.19
702.59	263.85
702.92	263.53
703.26	263.19
703.59	262.85
703.93	262.62
704.26	262.32
704.60	261.99
704.93	261.67
705.26	261.34
705.60	261.08
705.93	260.73
706.27	260.47
706.60	260.21
706.94	259.95
707.27	259.60
707.61	259.29
707.94	258.95
708.27	258.52
708.61	258.15
708.94	257.83
709.28	257.53
709.61	257.24
709.94	256.97
710.28	256.70
710.61	256.46
710.95	256.08
711.28	255.89
711.61	255.62
711.95	255.38
712.28	255.11
712.61	254.82
712.95	254.64
713.28	254.44
713.61	254.14
713.95	253.84
714.28	253.61
714.61	253.35
714.95	253.10
715.28	252.86
715.61	252.63
715.95	252.41
716.28	252.17
716.61	251.97
716.95	251.73
717.28	251.49
717.61	251.24
717.94	251.02
718.28	250.71
718.61	250.48
718.94	250.23
719.27	250.01
719.61	249.81
719.94	249.55
720.27	249.26
720.60	249.05
720.94	248.85
721.27	248.64
721.60	248.46
721.93	248.25
722.27	248.09
722.60	247.90
722.93	247.68
723.26	247.48
723.59	247.25
723.93	247.06
724.26	246.87
724.59	246.68
724.92	246.50
725.25	246.36
725.59	246.18
725.92	246.03
726.25	245.85
726.58	245.67
726.91	245.49
727.24	245.34
727.57	245.17
727.91	244.99
728.24	244.84
728.57	244.66
728.90	244.51
729.23	244.30
729.56	244.18
729.89	244.02
730.22	243.84
730.55	243.69
730.89	243.52
731.22	243.36
731.55	243.19
731.88	243.03
732.21	242.85
732.54	242.69
732.87	242.54
733.20	242.40
733.53	242.25
733.86	242.11
734.19	241.95
734.52	241.82
734.85	241.76
735.18	241.58
735.51	241.48
735.84	241.34
736.17	241.24
736.50	241.04
736.83	241.06
737.16	240.93
737.49	240.81
737.82	240.67
738.15	240.56
738.48	240.44
738.81	240.30
739.14	240.17
739.47	240.03
739.80	239.89
740.13	239.78
740.46	239.63
740.79	239.49
741.12	239.36
741.45	239.22
741.78	239.02
742.11	238.94
742.44	238.78
742.77	238.67
743.10	238.53
743.43	238.41
743.75	238.17
744.08	238.24
744.41	238.12
744.74	238.01
745.07	237.87
745.40	237.78
745.73	237.72
746.06	237.62
746.39	237.54
746.71	237.43
747.04	237.31
747.37	237.22
747.70	237.14
748.03	237.05
748.36	236.98
748.68	236.88
749.01	236.75
749.34	236.66
749.67	236.56
750.00	236.48
750.33	236.48
750.65	236.40
750.98	236.12
751.31	236.03
751.64	235.95
751.97	235.93
752.29	235.83
752.62	235.68
752.95	235.59
753.28	235.48
753.60	235.39
753.93	235.33
754.26	235.25
754.59	235.12
754.91	235.02
755.24	234.92
755.57	234.89
755.90	234.81
756.22	234.71
756.55	234.61
756.88	234.50
757.20	234.34
757.53	234.23
757.86	234.14
758.19	234.07
758.51	233.99
758.84	233.85
759.17	233.76
759.49	233.69
759.82	233.68
760.15	233.62
760.47	233.54
760.80	233.44
761.13	233.39
761.45	233.33
761.78	233.27
762.11	233.21
762.43	233.07
762.76	233.01
763.08	232.96
763.41	232.91
763.74	232.85
764.06	232.79
764.39	232.74
764.71	232.69
765.04	232.62
765.37	232.55
765.69	232.49
766.02	232.44
766.34	232.38
766.67	232.27
767.00	232.24
767.32	232.26
767.65	232.28
767.97	232.21
768.30	232.17
768.62	232.12
768.95	232.05
769.27	232.00
769.60	231.97
769.92	231.90
770.25	231.83
770.57	231.77
770.90	231.72
771.22	231.66
771.55	231.61
771.87	231.57
772.20	231.53
772.52	231.59
772.85	231.69
773.17	231.65
773.50	231.60
773.82	231.54
774.15	231.43
774.47	231.31
774.80	231.26
775.12	231.22
775.45	231.18
775.77	231.15
776.09	231.13
776.42	231.09
776.74	231.09
777.07	231.05
777.39	231.03
777.72	230.98
778.04	230.97
778.36	230.93
778.69	230.90
779.01	230.87
779.33	230.73
779.66	230.56
779.98	230.52
780.31	230.50
780.63	230.52
780.95	230.51
781.28	230.48
781.60	230.44
781.92	230.41
782.25	230.39
782.57	230.35
782.89	230.31
783.22	230.28
783.54	230.22
783.86	230.20
784.19	230.17
784.51	230.18
784.83	230.14
785.16	230.11
785.48	230.08
785.80	230.06
786.12	230.05
786.45	230.02
786.77	230.01
787.09	229.98
787.42	229.90
787.74	229.87
788.06	229.85
788.38	229.83
788.71	229.80
789.03	229.78
789.35	229.78
789.67	229.75
789.99	229.73
790.32	229.70
790.64	229.69
790.96	229.79
791.28	229.72
791.61	229.69
791.93	229.68
792.25	229.65
792.57	229.72
792.89	229.69
793.21	229.68
793.54	229.65
793.86	229.61
794.18	229.60
794.50	229.57
794.82	229.55
795.14	229.56
795.47	229.56
795.79	229.55
796.11	229.50
796.43	229.48
796.75	229.46
797.07	229.45
797.39	229.43
797.71	229.31
798.04	229.30
798.36	229.29
798.68	229.28
799.00	229.27
799.32	229.19
799.64	229.19
799.96	229.17
800.28	229.18
800.60	229.16
800.92	229.15
801.24	229.13
801.56	229.13
801.89	229.10
802.21	229.08
802.53	229.05
802.85	229.06
803.17	229.10
803.49	229.06
803.81	229.04
804.13	229.01
804.45	228.98
804.77	228.98
805.09	228.96
805.41	228.93
805.73	228.90
806.05	228.85
806.37	228.83
806.69	228.80
807.01	228.78
807.33	228.77
807.65	228.72
807.97	228.76
808.28	228.73
808.60	228.71
808.92	228.69
809.24	228.75
809.56	228.72
809.88	228.66
810.20	228.66
810.52	228.67
810.84	228.65
811.16	228.62
811.48	228.61
811.80	228.64
812.12	228.63
812.43	228.64
812.75	228.64
813.07	228.62
813.39	228.62
813.71	228.60
814.03	228.58
814.35	228.57
814.67	228.51
814.98	228.49
815.30	228.48
815.62	228.44
815.94	228.35
816.26	228.36
816.58	228.32
816.89	228.32
817.21	228.28
817.53	228.28
817.85	228.28
818.17	228.26
818.48	228.20
