SpectraSuite Data File
++++++++++++++++++++++++++++++++++++
Date: Sun Oct 04 08:36:25 EDT 2015
User: lab3
Dark Spectrum Present: No
Reference Spectrum Present: No
Number of Sampled Component Spectra: 1
Spectrometers: USB2E7196
Integration Time (usec): 46000 (USB2E7196)
Spectra Averaged: 24000 (USB2E7196)
Boxcar Smoothing: 10 (USB2E7196)
Correct for Electrical Dark: No (USB2E7196)
Strobe/Lamp Enabled: No (USB2E7196)
Correct for Detector Non-linearity: No (USB2E7196)
Correct for Stray Light: No (USB2E7196)
Number of Pixels in Processed Spectrum: 2048
>>>>>Begin Processed Spectral Data<<<<<
339.09	0.00
339.48	213.01
339.86	214.46
340.24	215.80
340.63	217.29
341.01	220.56
341.39	219.95
341.78	221.37
342.16	222.59
342.54	222.98
342.93	211.50
343.31	222.18
343.69	222.72
344.07	223.18
344.46	223.62
344.84	224.01
345.22	224.23
345.60	224.50
345.99	224.69
346.37	224.83
346.75	224.94
347.13	225.02
347.52	225.09
347.90	225.19
348.28	225.23
348.66	225.29
349.05	225.29
349.43	225.35
349.81	225.41
350.19	225.47
350.57	225.54
350.96	225.62
351.34	225.72
351.72	225.82
352.10	225.93
352.48	226.00
352.87	226.05
353.25	226.12
353.63	226.18
354.01	226.24
354.39	226.32
354.77	226.39
355.15	226.50
355.54	226.55
355.92	226.58
356.30	226.66
356.68	226.81
357.06	226.89
357.44	226.93
357.82	226.99
358.20	227.11
358.58	227.17
358.97	227.23
359.35	227.32
359.73	227.40
360.11	227.45
360.49	227.52
360.87	227.57
361.25	227.63
361.63	227.72
362.01	227.77
362.39	227.80
362.77	227.85
363.15	227.87
363.53	227.90
363.91	227.94
364.29	227.96
364.67	227.86
365.05	227.88
365.43	227.92
365.81	227.95
366.19	227.97
366.57	228.03
366.95	228.03
367.33	228.00
367.71	227.99
368.09	228.01
368.47	228.00
368.85	227.99
369.23	228.00
369.61	227.94
369.99	227.96
370.37	227.96
370.75	228.04
371.13	228.00
371.51	227.96
371.89	227.94
372.27	227.92
372.65	227.90
373.03	227.86
373.41	227.82
373.78	227.76
374.16	227.66
374.54	227.57
374.92	227.52
375.30	227.48
375.68	227.42
376.06	227.37
376.44	227.32
376.82	227.27
377.19	227.23
377.57	227.18
377.95	227.09
378.33	227.03
378.71	226.86
379.09	226.82
379.47	226.79
379.84	226.73
380.22	226.66
380.60	226.59
380.98	226.54
381.36	226.49
381.73	226.43
382.11	226.41
382.49	226.37
382.87	226.31
383.25	226.26
383.62	226.37
384.00	226.30
384.38	226.26
384.76	226.25
385.13	226.24
385.51	226.20
385.89	226.15
386.27	226.12
386.64	226.10
387.02	226.06
387.40	226.01
387.78	225.99
388.15	225.97
388.53	225.94
388.91	225.91
389.29	225.88
389.66	225.88
390.04	225.84
390.42	225.84
390.79	225.83
391.17	225.82
391.55	225.66
391.92	225.65
392.30	225.65
392.68	225.62
393.05	225.60
393.43	225.60
393.81	225.61
394.18	225.59
394.56	225.60
394.94	225.63
395.31	225.63
395.69	225.68
396.06	225.71
396.44	225.74
396.82	225.75
397.19	225.85
397.57	225.86
397.95	225.91
398.32	225.91
398.70	225.96
399.07	226.03
399.45	226.07
399.82	226.13
400.20	226.17
400.58	226.23
400.95	226.25
401.33	226.34
401.70	226.51
402.08	226.63
402.45	226.72
402.83	226.85
403.20	226.97
403.58	227.08
403.95	227.23
404.33	227.39
404.71	227.55
405.08	227.78
405.46	227.96
405.83	228.16
406.21	228.38
406.58	228.63
406.96	228.86
407.33	229.14
407.70	229.45
408.08	229.87
408.45	230.24
408.83	230.64
409.20	231.01
409.58	231.34
409.95	231.79
410.33	232.28
410.70	232.74
411.08	233.28
411.45	233.86
411.82	234.44
412.20	235.10
412.57	235.89
412.95	236.52
413.32	237.33
413.69	238.17
414.07	239.05
414.44	240.01
414.82	240.99
415.19	242.14
415.56	243.31
415.94	244.51
416.31	245.87
416.68	247.22
417.06	248.79
417.43	250.26
417.81	251.96
418.18	253.69
418.55	255.58
418.93	257.54
419.30	259.59
419.67	261.77
420.04	264.00
420.42	266.33
420.79	269.02
421.16	271.74
421.54	274.50
421.91	277.39
422.28	280.38
422.66	283.61
423.03	286.69
423.40	289.93
423.77	293.40
424.15	296.96
424.52	300.66
424.89	304.67
425.26	308.66
425.64	312.36
426.01	316.53
426.38	320.79
426.75	325.18
427.13	329.68
427.50	334.39
427.87	339.29
428.24	344.24
428.61	349.00
428.99	354.14
429.36	359.79
429.73	365.18
430.10	370.58
430.47	376.09
430.85	381.77
431.22	387.86
431.59	394.11
431.96	400.22
432.33	407.00
432.70	413.45
433.08	421.05
433.45	428.27
433.82	435.37
434.19	443.28
434.56	451.10
434.93	458.65
435.30	466.11
435.68	474.54
436.05	482.81
436.42	491.05
436.79	498.56
437.16	506.67
437.53	515.36
437.90	524.06
438.27	532.57
438.64	541.79
439.01	550.12
439.38	557.75
439.75	565.09
440.13	573.39
440.50	581.27
440.87	587.53
441.24	594.38
441.61	601.84
441.98	607.28
442.35	613.74
442.72	620.32
443.09	626.60
443.46	630.56
443.83	633.46
444.20	635.85
444.57	639.47
444.94	641.48
445.31	643.57
445.68	645.32
446.05	646.60
446.42	646.14
446.79	645.45
447.16	644.83
447.53	644.26
447.90	641.54
448.27	638.92
448.64	634.99
449.01	632.22
449.37	626.80
449.74	621.91
450.11	615.60
450.48	608.71
450.85	601.83
451.22	595.96
451.59	590.23
451.96	585.05
452.33	577.53
452.70	570.86
453.07	562.73
453.43	554.64
453.80	546.77
454.17	539.23
454.54	532.33
454.91	524.51
455.28	517.19
455.65	510.28
456.02	502.97
456.38	497.12
456.75	489.58
457.12	483.51
457.49	477.39
457.86	471.64
458.23	466.61
458.59	461.01
458.96	455.27
459.33	450.22
459.70	445.06
460.07	441.15
460.43	436.57
460.80	432.27
461.17	428.56
461.54	424.50
461.91	420.71
462.27	416.85
462.64	413.75
463.01	410.16
463.38	406.56
463.74	403.33
464.11	400.46
464.48	397.88
464.85	395.06
465.21	392.94
465.58	390.55
465.95	387.81
466.32	385.64
466.68	383.50
467.05	381.35
467.42	379.26
467.78	376.98
468.15	374.89
468.52	373.36
468.88	371.29
469.25	369.40
469.62	367.91
469.98	366.26
470.35	364.79
470.72	363.46
471.08	362.11
471.45	360.96
471.82	359.68
472.18	358.33
472.55	357.45
472.92	356.34
473.28	355.46
473.65	354.53
474.02	353.62
474.38	352.86
474.75	352.38
475.11	351.74
475.48	351.42
475.85	351.07
476.21	350.86
476.58	350.70
476.94	350.79
477.31	350.81
477.67	350.87
478.04	351.04
478.41	351.30
478.77	351.70
479.14	351.94
479.50	352.45
479.87	353.14
480.23	353.82
480.60	354.50
480.96	355.17
481.33	356.20
481.69	357.23
482.06	358.25
482.42	359.18
482.79	360.34
483.15	361.70
483.52	363.25
483.88	364.73
484.25	366.32
484.61	367.98
484.98	369.77
485.34	371.78
485.71	373.90
486.07	376.17
486.44	378.44
486.80	380.97
487.17	383.59
487.53	386.46
487.90	389.46
488.26	392.74
488.62	396.20
488.99	399.65
489.35	403.29
489.72	407.26
490.08	411.43
490.44	415.73
490.81	420.21
491.17	424.78
491.54	429.70
491.90	434.76
492.26	440.19
492.63	445.87
492.99	451.81
493.36	457.95
493.72	464.41
494.08	471.03
494.45	478.06
494.81	485.35
495.17	492.85
495.54	500.78
495.90	509.02
496.26	517.44
496.63	526.10
496.99	535.11
497.35	544.51
497.72	554.23
498.08	564.16
498.44	574.42
498.80	585.31
499.17	596.48
499.53	608.00
499.89	619.88
500.26	632.03
500.62	644.46
500.98	657.57
501.34	670.86
501.71	684.70
502.07	698.72
502.43	713.29
502.79	728.10
503.16	743.41
503.52	758.89
503.88	774.84
504.24	791.27
504.60	807.91
504.97	825.05
505.33	842.61
505.69	861.13
506.05	880.03
506.41	898.90
506.78	917.91
507.14	937.43
507.50	957.41
507.86	977.74
508.22	998.32
508.59	1018.70
508.95	1039.88
509.31	1061.80
509.67	1084.55
510.03	1107.31
510.39	1130.08
510.75	1152.95
511.12	1176.12
511.48	1199.48
511.84	1222.81
512.20	1246.58
512.56	1271.30
512.92	1296.06
513.28	1320.32
513.64	1344.80
514.00	1369.76
514.37	1395.12
514.73	1420.36
515.09	1445.46
515.45	1470.87
515.81	1496.52
516.17	1522.18
516.53	1547.44
516.89	1572.53
517.25	1597.77
517.61	1622.80
517.97	1648.29
518.33	1673.34
518.69	1698.33
519.05	1723.72
519.41	1749.37
519.77	1775.33
520.13	1800.38
520.49	1825.37
520.85	1850.71
521.21	1875.74
521.57	1901.06
521.93	1925.73
522.29	1951.02
522.65	1975.67
523.01	2000.31
523.37	2024.44
523.73	2049.42
524.09	2073.95
524.45	2098.29
524.81	2122.24
525.17	2146.04
525.53	2169.21
525.89	2192.84
526.25	2216.52
526.61	2239.19
526.97	2261.97
527.33	2284.60
527.68	2307.06
528.04	2328.60
528.40	2349.20
528.76	2369.80
529.12	2389.92
529.48	2409.91
529.84	2427.83
530.20	2446.51
530.56	2464.51
530.91	2482.64
531.27	2500.40
531.63	2517.30
531.99	2533.66
532.35	2549.25
532.71	2565.08
533.07	2581.59
533.42	2596.14
533.78	2611.60
534.14	2627.43
534.50	2642.30
534.86	2656.91
535.21	2669.34
535.57	2682.39
535.93	2695.28
536.29	2707.08
536.65	2718.61
537.00	2729.20
537.36	2740.94
537.72	2751.33
538.08	2761.09
538.44	2770.06
538.79	2778.61
539.15	2786.43
539.51	2793.98
539.87	2800.91
540.22	2805.63
540.58	2810.46
540.94	2816.47
541.29	2821.02
541.65	2823.65
542.01	2825.47
542.37	2826.55
542.72	2829.18
543.08	2829.97
543.44	2831.30
543.79	2831.61
544.15	2831.08
544.51	2831.00
544.87	2829.75
545.22	2827.62
545.58	2824.82
545.94	2822.03
546.29	2817.99
546.65	2813.90
547.01	2809.63
547.36	2806.16
547.72	2803.05
548.07	2798.02
548.43	2791.63
548.79	2784.05
549.14	2777.77
549.50	2771.93
549.86	2765.11
550.21	2757.05
550.57	2750.03
550.92	2740.61
551.28	2731.62
551.64	2723.15
551.99	2714.36
552.35	2704.90
552.70	2695.71
553.06	2686.90
553.41	2677.53
553.77	2667.93
554.13	2658.26
554.48	2647.73
554.84	2635.81
555.19	2624.20
555.55	2612.80
555.90	2601.50
556.26	2590.87
556.61	2579.06
556.97	2565.56
557.32	2552.45
557.68	2539.47
558.03	2526.12
558.39	2514.18
558.74	2502.64
559.10	2489.23
559.45	2475.87
559.81	2463.16
560.16	2449.86
560.52	2436.93
560.87	2424.39
561.23	2411.04
561.58	2397.64
561.94	2384.00
562.29	2369.80
562.64	2356.39
563.00	2342.71
563.35	2329.29
563.71	2315.73
564.06	2302.16
564.42	2289.35
564.77	2276.12
565.12	2262.73
565.48	2249.29
565.83	2235.70
566.19	2222.29
566.54	2208.83
566.89	2194.26
567.25	2179.87
567.60	2166.95
567.96	2153.02
568.31	2137.65
568.66	2122.88
569.02	2109.43
569.37	2096.01
569.72	2083.11
570.08	2068.95
570.43	2054.31
570.78	2039.66
571.14	2024.27
571.49	2009.46
571.84	1995.22
572.20	1979.80
572.55	1964.46
572.90	1949.21
573.26	1934.08
573.61	1918.41
573.96	1903.17
574.31	1888.22
574.67	1873.37
575.02	1857.31
575.37	1841.41
575.72	1826.41
576.08	1811.74
576.43	1796.01
576.78	1780.63
577.13	1765.51
577.49	1750.78
577.84	1736.71
578.19	1721.70
578.54	1706.76
578.90	1691.36
579.25	1675.87
579.60	1661.96
579.95	1648.06
580.30	1633.90
580.66	1619.45
581.01	1604.93
581.36	1590.41
581.71	1576.84
582.06	1563.22
582.42	1549.83
582.77	1536.53
583.12	1523.24
583.47	1509.81
583.82	1496.49
584.17	1482.80
584.53	1468.85
584.88	1455.22
585.23	1441.26
585.58	1428.05
585.93	1415.01
586.28	1402.74
586.63	1390.40
586.98	1377.65
587.34	1364.96
587.69	1352.00
588.04	1339.36
588.39	1327.06
588.74	1314.96
589.09	1302.67
589.44	1289.92
589.79	1277.82
590.14	1265.82
590.49	1253.69
590.84	1241.75
591.19	1230.18
591.54	1218.42
591.89	1206.77
592.25	1195.38
592.60	1183.57
592.95	1172.18
593.30	1161.12
593.65	1149.76
594.00	1138.54
594.35	1127.84
594.70	1116.70
595.05	1106.41
595.40	1096.05
595.75	1085.53
596.10	1075.50
596.45	1065.28
596.80	1055.41
597.15	1045.24
597.50	1035.24
597.85	1025.68
598.19	1015.96
598.54	1006.25
598.89	997.09
599.24	988.21
599.59	979.08
599.94	970.86
600.29	962.48
600.64	953.82
600.99	944.83
601.34	936.14
601.69	927.14
602.04	918.85
602.39	910.35
602.74	901.94
603.08	893.47
603.43	884.98
603.78	876.65
604.13	868.44
604.48	860.30
604.83	852.30
605.18	844.25
605.53	836.37
605.87	828.38
606.22	820.57
606.57	812.76
606.92	804.89
607.27	796.97
607.62	789.30
607.96	782.01
608.31	775.19
608.66	768.17
609.01	761.43
609.36	754.77
609.70	747.97
610.05	741.10
610.40	734.54
610.75	727.94
611.10	721.71
611.44	715.30
611.79	709.00
612.14	702.62
612.49	696.31
612.83	690.30
613.18	684.39
613.53	678.46
613.88	672.51
614.22	666.94
614.57	661.34
614.92	655.62
615.27	649.98
615.61	644.40
615.96	638.90
616.31	633.40
616.65	627.94
617.00	622.67
617.35	617.53
617.70	612.40
618.04	607.38
618.39	602.24
618.74	597.34
619.08	592.48
619.43	587.77
619.78	583.05
620.12	578.31
620.47	573.69
620.82	569.19
621.16	564.78
621.51	560.28
621.85	555.79
622.20	551.44
622.55	547.16
622.89	542.96
623.24	538.77
623.59	534.59
623.93	530.58
624.28	526.68
624.62	522.85
624.97	519.08
625.32	515.25
625.66	511.41
626.01	507.54
626.35	503.72
626.70	499.94
627.04	496.38
627.39	492.71
627.73	489.23
628.08	485.84
628.43	482.42
628.77	479.07
629.12	475.86
629.46	472.70
629.81	469.42
630.15	466.12
630.50	462.93
630.84	459.81
631.19	456.74
631.53	453.75
631.88	450.73
632.22	447.74
632.57	445.01
632.91	442.33
633.26	439.74
633.60	437.18
633.95	434.66
634.29	432.05
634.64	429.51
634.98	426.82
635.32	424.23
635.67	421.84
636.01	419.41
636.36	416.98
636.70	414.68
637.05	412.40
637.39	410.18
637.73	407.95
638.08	405.86
638.42	403.75
638.77	401.49
639.11	399.19
639.45	396.98
639.80	394.71
640.14	392.54
640.49	390.36
640.83	388.15
641.17	386.05
641.52	383.99
641.86	381.96
642.20	380.12
642.55	378.15
642.89	376.20
643.23	374.33
643.58	372.62
643.92	370.81
644.26	369.04
644.61	367.32
644.95	365.57
645.29	363.75
645.64	361.95
645.98	360.26
646.32	358.68
646.66	357.08
647.01	355.51
647.35	353.98
647.69	352.43
648.04	351.00
648.38	349.52
648.72	348.03
649.06	346.57
649.41	345.10
649.75	343.69
650.09	342.31
650.43	340.93
650.78	339.50
651.12	338.12
651.46	336.79
651.80	335.49
652.14	334.21
652.49	332.98
652.83	331.72
653.17	330.51
653.51	329.32
653.85	328.20
654.20	327.03
654.54	325.79
654.88	324.64
655.22	323.52
655.56	322.39
655.90	321.33
656.25	320.30
656.59	319.26
656.93	318.28
657.27	317.31
657.61	316.29
657.95	315.32
658.29	314.33
658.64	313.40
658.98	312.46
659.32	311.55
659.66	310.70
660.00	309.88
660.34	309.04
660.68	308.18
661.02	307.29
661.36	306.45
661.70	305.64
662.05	304.86
662.39	304.08
662.73	303.36
663.07	302.67
663.41	301.92
663.75	301.17
664.09	300.43
664.43	299.66
664.77	298.96
665.11	298.22
665.45	297.55
665.79	296.88
666.13	296.20
666.47	295.49
666.81	294.77
667.15	294.03
667.49	293.38
667.83	292.80
668.17	292.19
668.51	291.61
668.85	291.07
669.19	290.56
669.53	289.95
669.87	289.34
670.21	288.74
670.55	288.20
670.89	287.73
671.23	287.20
671.57	286.69
671.91	286.23
672.25	285.80
672.58	285.37
672.92	284.85
673.26	284.41
673.60	283.98
673.94	283.56
674.28	283.18
674.62	282.76
674.96	282.29
675.30	281.88
675.64	281.44
675.97	280.98
676.31	280.50
676.65	280.07
676.99	279.71
677.33	279.27
677.67	278.87
678.01	278.39
678.34	278.00
678.68	277.63
679.02	277.19
679.36	276.77
679.70	276.34
680.04	275.97
680.37	275.59
680.71	275.23
681.05	274.87
681.39	274.48
681.73	274.08
682.06	273.69
682.40	273.32
682.74	273.00
683.08	272.72
683.42	272.38
683.75	272.07
684.09	271.69
684.43	271.37
684.77	271.04
685.10	270.75
685.44	270.44
685.78	270.12
686.12	269.83
686.45	269.52
686.79	269.18
687.13	268.89
687.46	268.56
687.80	268.26
688.14	267.90
688.48	267.61
688.81	267.31
689.15	267.04
689.49	266.73
689.82	266.41
690.16	266.03
690.50	265.74
690.83	265.43
691.17	265.13
691.51	264.83
691.84	264.55
692.18	264.23
692.52	263.91
692.85	263.62
693.19	263.36
693.52	263.07
693.86	262.78
694.20	262.49
694.53	262.22
694.87	261.92
695.21	261.63
695.54	261.35
695.88	261.06
696.21	260.74
696.55	260.47
696.88	260.18
697.22	259.92
697.56	259.64
697.89	259.33
698.23	259.06
698.56	258.77
698.90	258.50
699.23	258.21
699.57	257.93
699.90	257.64
700.24	257.33
700.58	257.09
700.91	256.86
701.25	256.71
701.58	256.51
701.92	256.30
702.25	256.05
702.59	255.79
702.92	255.55
703.26	255.31
703.59	255.04
703.93	254.89
704.26	254.66
704.60	254.40
704.93	254.15
705.26	253.89
705.60	253.68
705.93	253.41
706.27	253.21
706.60	253.01
706.94	252.83
707.27	252.57
707.61	252.32
707.94	252.05
708.27	251.69
708.61	251.39
708.94	251.12
709.28	250.88
709.61	250.65
709.94	250.43
710.28	250.22
710.61	250.02
710.95	249.70
711.28	249.56
711.61	249.35
711.95	249.17
712.28	248.95
712.61	248.71
712.95	248.57
713.28	248.42
713.61	248.19
713.95	247.93
714.28	247.74
714.61	247.52
714.95	247.32
715.28	247.12
715.61	246.93
715.95	246.76
716.28	246.57
716.61	246.41
716.95	246.21
717.28	246.01
717.61	245.81
717.94	245.63
718.28	245.35
718.61	245.16
718.94	244.95
719.27	244.76
719.61	244.60
719.94	244.39
720.27	244.13
720.60	243.95
720.94	243.77
721.27	243.60
721.60	243.45
721.93	243.28
722.27	243.15
722.60	243.00
722.93	242.81
723.26	242.64
723.59	242.44
723.93	242.29
724.26	242.13
724.59	241.95
724.92	241.81
725.25	241.69
725.59	241.55
725.92	241.42
726.25	241.27
726.58	241.11
726.91	240.96
727.24	240.83
727.57	240.68
727.91	240.52
728.24	240.40
728.57	240.25
728.90	240.12
729.23	239.94
729.56	239.85
729.89	239.71
730.22	239.56
730.55	239.42
730.89	239.28
731.22	239.14
731.55	239.01
731.88	238.87
732.21	238.71
732.54	238.57
732.87	238.44
733.20	238.32
733.53	238.20
733.86	238.09
734.19	237.94
734.52	237.84
734.85	237.81
735.18	237.66
735.51	237.58
735.84	237.46
736.17	237.38
736.50	237.20
736.83	237.24
737.16	237.13
737.49	237.03
737.82	236.92
738.15	236.83
738.48	236.72
738.81	236.61
739.14	236.49
739.47	236.38
739.80	236.26
740.13	236.16
740.46	236.03
740.79	235.91
741.12	235.80
741.45	235.67
741.78	235.49
742.11	235.43
742.44	235.29
742.77	235.20
743.10	235.08
743.43	234.97
743.75	234.74
744.08	234.84
744.41	234.73
744.74	234.64
745.07	234.51
745.40	234.44
745.73	234.40
746.06	234.32
746.39	234.25
746.71	234.15
747.04	234.05
747.37	233.97
747.70	233.90
748.03	233.83
748.36	233.77
748.68	233.68
749.01	233.56
749.34	233.48
749.67	233.39
750.00	233.33
750.33	233.35
750.65	233.28
750.98	233.01
751.31	232.93
751.64	232.86
751.97	232.85
752.29	232.76
752.62	232.62
752.95	232.54
753.28	232.44
753.60	232.36
753.93	232.32
754.26	232.25
754.59	232.14
754.91	232.05
755.24	231.96
755.57	231.94
755.90	231.87
756.22	231.78
756.55	231.69
756.88	231.59
757.20	231.43
757.53	231.32
757.86	231.25
758.19	231.19
758.51	231.12
758.84	230.98
759.17	230.90
759.49	230.84
759.82	230.84
760.15	230.79
760.47	230.73
760.80	230.63
761.13	230.58
761.45	230.53
761.78	230.47
762.11	230.42
762.43	230.29
762.76	230.24
763.08	230.20
763.41	230.15
763.74	230.11
764.06	230.05
764.39	230.00
764.71	229.95
765.04	229.89
765.37	229.83
765.69	229.78
766.02	229.73
766.34	229.67
766.67	229.57
767.00	229.55
767.32	229.57
767.65	229.61
767.97	229.54
768.30	229.51
768.62	229.46
768.95	229.40
769.27	229.36
769.60	229.33
769.92	229.26
770.25	229.20
770.57	229.13
770.90	229.09
771.22	229.04
771.55	229.00
771.87	228.97
772.20	228.93
772.52	229.00
772.85	229.11
773.17	229.07
773.50	229.03
773.82	228.97
774.15	228.87
774.47	228.75
774.80	228.70
775.12	228.66
775.45	228.63
775.77	228.60
776.09	228.58
776.42	228.55
776.74	228.56
777.07	228.52
777.39	228.50
777.72	228.46
778.04	228.45
778.36	228.41
778.69	228.38
779.01	228.37
779.33	228.22
779.66	228.05
779.98	228.01
780.31	228.00
780.63	228.02
780.95	228.02
781.28	227.99
781.60	227.96
781.92	227.93
782.25	227.91
782.57	227.88
782.89	227.85
783.22	227.82
783.54	227.76
783.86	227.75
784.19	227.72
784.51	227.73
784.83	227.70
785.16	227.67
785.48	227.65
785.80	227.62
786.12	227.61
786.45	227.59
786.77	227.58
787.09	227.55
787.42	227.48
787.74	227.46
788.06	227.45
788.38	227.42
788.71	227.39
789.03	227.38
789.35	227.37
789.67	227.34
789.99	227.33
790.32	227.30
790.64	227.29
790.96	227.39
791.28	227.33
791.61	227.30
791.93	227.29
792.25	227.27
792.57	227.34
792.89	227.30
793.21	227.29
793.54	227.26
793.86	227.23
794.18	227.22
794.50	227.18
794.82	227.16
795.14	227.17
795.47	227.17
795.79	227.16
796.11	227.11
796.43	227.09
796.75	227.08
797.07	227.07
797.39	227.05
797.71	226.92
798.04	226.92
798.36	226.91
798.68	226.89
799.00	226.88
799.32	226.81
799.64	226.81
799.96	226.80
800.28	226.81
800.60	226.79
800.92	226.78
801.24	226.76
801.56	226.76
801.89	226.73
802.21	226.72
802.53	226.69
802.85	226.71
803.17	226.75
803.49	226.71
803.81	226.69
804.13	226.67
804.45	226.64
804.77	226.64
805.09	226.63
805.41	226.61
805.73	226.57
806.05	226.52
806.37	226.50
806.69	226.48
807.01	226.45
807.33	226.45
807.65	226.39
807.97	226.44
808.28	226.41
808.60	226.40
808.92	226.37
809.24	226.44
809.56	226.40
809.88	226.35
810.20	226.35
810.52	226.36
810.84	226.34
811.16	226.31
811.48	226.29
811.80	226.33
812.12	226.32
812.43	226.34
812.75	226.33
813.07	226.31
813.39	226.31
813.71	226.29
814.03	226.26
814.35	226.26
814.67	226.20
814.98	226.18
815.30	226.17
815.62	226.14
815.94	226.05
816.26	226.06
816.58	226.02
816.89	226.03
817.21	225.98
817.53	225.99
817.85	225.99
818.17	225.98
818.48	225.91
