SpectraSuite Data File
++++++++++++++++++++++++++++++++++++
Date: Fri Oct 02 19:43:43 EDT 2015
User: lab3
Dark Spectrum Present: No
Reference Spectrum Present: No
Number of Sampled Component Spectra: 1
Spectrometers: USB2E7196
Integration Time (usec): 46000 (USB2E7196)
Spectra Averaged: 4500 (USB2E7196)
Boxcar Smoothing: 10 (USB2E7196)
Correct for Electrical Dark: No (USB2E7196)
Strobe/Lamp Enabled: No (USB2E7196)
Correct for Detector Non-linearity: No (USB2E7196)
Correct for Stray Light: No (USB2E7196)
Number of Pixels in Processed Spectrum: 2048
>>>>>Begin Processed Spectral Data<<<<<
339.09	0.00
339.48	215.84
339.86	217.25
340.24	218.58
340.63	219.91
341.01	223.14
341.39	222.73
341.78	224.08
342.16	225.28
342.54	225.68
342.93	214.06
343.31	224.88
343.69	225.41
344.07	225.87
344.46	226.30
344.84	226.69
345.22	226.92
345.60	227.17
345.99	227.37
346.37	227.50
346.75	227.61
347.13	227.70
347.52	227.77
347.90	227.86
348.28	227.89
348.66	227.95
349.05	227.95
349.43	228.00
349.81	228.05
350.19	228.11
350.57	228.18
350.96	228.26
351.34	228.35
351.72	228.45
352.10	228.55
352.48	228.62
352.87	228.67
353.25	228.74
353.63	228.80
354.01	228.86
354.39	228.94
354.77	229.01
355.15	229.12
355.54	229.17
355.92	229.19
356.30	229.27
356.68	229.42
357.06	229.49
357.44	229.54
357.82	229.61
358.20	229.72
358.58	229.78
358.97	229.84
359.35	229.93
359.73	230.01
360.11	230.06
360.49	230.12
360.87	230.17
361.25	230.24
361.63	230.33
362.01	230.37
362.39	230.40
362.77	230.45
363.15	230.47
363.53	230.50
363.91	230.54
364.29	230.56
364.67	230.47
365.05	230.49
365.43	230.52
365.81	230.55
366.19	230.56
366.57	230.63
366.95	230.62
367.33	230.59
367.71	230.58
368.09	230.60
368.47	230.59
368.85	230.59
369.23	230.59
369.61	230.54
369.99	230.56
370.37	230.56
370.75	230.63
371.13	230.60
371.51	230.56
371.89	230.54
372.27	230.52
372.65	230.50
373.03	230.47
373.41	230.42
373.78	230.37
374.16	230.27
374.54	230.19
374.92	230.14
375.30	230.10
375.68	230.03
376.06	229.99
376.44	229.94
376.82	229.89
377.19	229.84
377.57	229.79
377.95	229.69
378.33	229.63
378.71	229.47
379.09	229.43
379.47	229.39
379.84	229.33
380.22	229.27
380.60	229.19
380.98	229.14
381.36	229.09
381.73	229.04
382.11	229.02
382.49	228.97
382.87	228.91
383.25	228.86
383.62	228.96
384.00	228.89
384.38	228.86
384.76	228.85
385.13	228.84
385.51	228.81
385.89	228.76
386.27	228.73
386.64	228.72
387.02	228.67
387.40	228.62
387.78	228.59
388.15	228.57
388.53	228.55
388.91	228.52
389.29	228.48
389.66	228.47
390.04	228.43
390.42	228.43
390.79	228.42
391.17	228.40
391.55	228.25
391.92	228.24
392.30	228.23
392.68	228.19
393.05	228.18
393.43	228.17
393.81	228.18
394.18	228.16
394.56	228.16
394.94	228.19
395.31	228.19
395.69	228.24
396.06	228.26
396.44	228.29
396.82	228.29
397.19	228.39
397.57	228.39
397.95	228.44
398.32	228.43
398.70	228.47
399.07	228.54
399.45	228.58
399.82	228.62
400.20	228.66
400.58	228.71
400.95	228.72
401.33	228.80
401.70	228.95
402.08	229.04
402.45	229.12
402.83	229.23
403.20	229.34
403.58	229.42
403.95	229.56
404.33	229.69
404.71	229.84
405.08	230.03
405.46	230.20
405.83	230.38
406.21	230.56
406.58	230.77
406.96	230.98
407.33	231.22
407.70	231.49
408.08	231.87
408.45	232.19
408.83	232.54
409.20	232.85
409.58	233.14
409.95	233.53
410.33	233.96
410.70	234.36
411.08	234.84
411.45	235.33
411.82	235.84
412.20	236.42
412.57	237.11
412.95	237.65
413.32	238.35
413.69	239.07
414.07	239.85
414.44	240.68
414.82	241.53
415.19	242.52
415.56	243.54
415.94	244.58
416.31	245.75
416.68	246.94
417.06	248.30
417.43	249.59
417.81	251.06
418.18	252.56
418.55	254.20
418.93	255.90
419.30	257.69
419.67	259.57
420.04	261.51
420.42	263.53
420.79	265.87
421.16	268.23
421.54	270.64
421.91	273.15
422.28	275.75
422.66	278.56
423.03	281.24
423.40	284.04
423.77	287.05
424.15	290.14
424.52	293.35
424.89	296.83
425.26	300.29
425.64	303.51
426.01	307.12
426.38	310.82
426.75	314.65
427.13	318.57
427.50	322.67
427.87	326.93
428.24	331.24
428.61	335.39
428.99	339.87
429.36	344.77
429.73	349.48
430.10	354.19
430.47	359.01
430.85	363.98
431.22	369.32
431.59	374.80
431.96	380.16
432.33	386.11
432.70	391.78
433.08	398.48
433.45	404.81
433.82	411.04
434.19	418.01
434.56	424.87
434.93	431.52
435.30	438.09
435.68	445.51
436.05	452.78
436.42	460.00
436.79	466.61
437.16	473.74
437.53	481.35
437.90	488.97
438.27	496.43
438.64	504.48
439.01	511.76
439.38	518.41
439.75	524.81
440.13	532.02
440.50	538.86
440.87	544.27
441.24	550.19
441.61	556.65
441.98	561.32
442.35	566.87
442.72	572.50
443.09	577.85
443.46	581.18
443.83	583.56
444.20	585.51
444.57	588.49
444.94	590.08
445.31	591.74
445.68	593.08
446.05	593.99
446.42	593.34
446.79	592.52
447.16	591.77
447.53	591.04
447.90	588.46
448.27	585.95
448.64	582.33
449.01	579.73
449.37	574.83
449.74	570.37
450.11	564.71
450.48	558.55
450.85	552.40
451.22	547.11
451.59	541.97
451.96	537.30
452.33	530.64
452.70	524.72
453.07	517.53
453.43	510.40
453.80	503.48
454.17	496.89
454.54	490.81
454.91	483.99
455.28	477.61
455.65	471.58
456.02	465.25
456.38	460.15
456.75	453.60
457.12	448.34
457.49	443.04
457.86	438.05
458.23	433.69
458.59	428.86
458.96	423.93
459.33	419.60
459.70	415.21
460.07	411.88
460.43	407.95
460.80	404.30
461.17	401.13
461.54	397.69
461.91	394.48
462.27	391.23
462.64	388.60
463.01	385.55
463.38	382.49
463.74	379.73
464.11	377.29
464.48	375.11
464.85	372.73
465.21	370.95
465.58	368.95
465.95	366.64
466.32	364.82
466.68	363.02
467.05	361.22
467.42	359.45
467.78	357.53
468.15	355.78
468.52	354.52
468.88	352.78
469.25	351.20
469.62	349.96
469.98	348.60
470.35	347.39
470.72	346.30
471.08	345.18
471.45	344.24
471.82	343.20
472.18	342.08
472.55	341.36
472.92	340.46
473.28	339.75
473.65	338.99
474.02	338.26
474.38	337.66
474.75	337.31
475.11	336.83
475.48	336.61
475.85	336.36
476.21	336.23
476.58	336.16
476.94	336.30
477.31	336.36
477.67	336.46
478.04	336.66
478.41	336.94
478.77	337.36
479.14	337.62
479.50	338.11
479.87	338.77
480.23	339.41
480.60	340.06
480.96	340.70
481.33	341.66
481.69	342.61
482.06	343.55
482.42	344.42
482.79	345.50
483.15	346.73
483.52	348.15
483.88	349.51
484.25	350.96
484.61	352.46
484.98	354.10
485.34	355.95
485.71	357.88
486.07	359.94
486.44	362.00
486.80	364.30
487.17	366.69
487.53	369.28
487.90	372.01
488.26	374.97
488.62	378.11
488.99	381.24
489.35	384.54
489.72	388.12
490.08	391.90
490.44	395.79
490.81	399.84
491.17	404.00
491.54	408.47
491.90	413.09
492.26	418.04
492.63	423.22
492.99	428.62
493.36	434.20
493.72	440.08
494.08	446.11
494.45	452.51
494.81	459.18
495.17	466.03
495.54	473.25
495.90	480.76
496.26	488.45
496.63	496.39
496.99	504.65
497.35	513.29
497.72	522.19
498.08	531.31
498.44	540.76
498.80	550.76
499.17	561.00
499.53	571.53
499.89	582.48
500.26	593.62
500.62	605.07
500.98	617.14
501.34	629.38
501.71	642.14
502.07	655.11
502.43	668.61
502.79	682.30
503.16	696.45
503.52	710.82
503.88	725.62
504.24	740.85
504.60	756.29
504.97	772.21
505.33	788.59
505.69	805.85
506.05	823.38
506.41	840.84
506.78	858.56
507.14	876.81
507.50	895.45
507.86	914.49
508.22	933.72
508.59	952.80
508.95	972.77
509.31	993.47
509.67	1014.76
510.03	1036.05
510.39	1057.45
510.75	1079.11
511.12	1101.02
511.48	1123.05
511.84	1145.21
512.20	1167.85
512.56	1191.25
512.92	1214.66
513.28	1237.72
513.64	1261.13
514.00	1284.96
514.37	1309.01
514.73	1333.15
515.09	1357.21
515.45	1381.63
515.81	1406.15
516.17	1430.88
516.53	1455.00
516.89	1479.06
517.25	1503.39
517.61	1527.68
517.97	1552.45
518.33	1576.65
518.69	1600.82
519.05	1625.57
519.41	1650.59
519.77	1675.61
520.13	1700.07
520.49	1724.47
520.85	1749.26
521.21	1773.42
521.57	1798.17
521.93	1822.41
522.29	1847.06
522.65	1871.36
523.01	1895.59
523.37	1919.46
523.73	1944.01
524.09	1968.40
524.45	1992.55
524.81	2016.27
525.17	2039.86
525.53	2062.84
525.89	2086.29
526.25	2109.76
526.61	2132.23
526.97	2154.86
527.33	2177.58
527.68	2199.84
528.04	2221.39
528.40	2241.96
528.76	2263.09
529.12	2283.56
529.48	2303.64
529.84	2322.05
530.20	2341.06
530.56	2359.47
530.91	2378.10
531.27	2396.32
531.63	2413.74
531.99	2430.81
532.35	2447.23
532.71	2463.59
533.07	2480.68
533.42	2496.02
533.78	2512.39
534.14	2528.90
534.50	2544.27
534.86	2559.54
535.21	2572.97
535.57	2586.88
535.93	2600.61
536.29	2613.06
536.65	2625.53
537.00	2637.41
537.36	2650.16
537.72	2661.21
538.08	2671.96
538.44	2682.07
538.79	2691.78
539.15	2700.57
539.51	2708.96
539.87	2716.61
540.22	2722.60
540.58	2728.67
540.94	2735.98
541.29	2741.42
541.65	2745.11
542.01	2748.43
542.37	2750.89
542.72	2754.73
543.08	2756.89
543.44	2759.55
543.79	2761.16
544.15	2761.86
544.51	2762.98
544.87	2762.98
545.22	2762.29
545.58	2760.90
545.94	2759.58
546.29	2756.92
546.65	2754.29
547.01	2751.66
547.36	2749.81
547.72	2747.67
548.07	2743.93
548.43	2738.60
548.79	2732.63
549.14	2727.94
549.50	2723.24
549.86	2717.75
550.21	2711.12
550.57	2705.39
550.92	2697.45
551.28	2690.22
551.64	2683.14
551.99	2675.48
552.35	2667.25
552.70	2659.36
553.06	2651.74
553.41	2643.40
553.77	2634.83
554.13	2626.11
554.48	2616.49
554.84	2605.76
555.19	2595.83
555.55	2585.68
555.90	2575.60
556.26	2565.94
556.61	2555.20
556.97	2542.92
557.32	2531.19
557.68	2519.24
558.03	2507.19
558.39	2496.19
558.74	2485.44
559.10	2473.04
559.45	2461.00
559.81	2449.54
560.16	2437.33
560.52	2425.29
560.87	2413.60
561.23	2401.08
561.58	2388.89
561.94	2376.19
562.29	2362.94
562.64	2350.30
563.00	2337.38
563.35	2325.04
563.71	2312.40
564.06	2299.56
564.42	2287.44
564.77	2274.63
565.12	2261.90
565.48	2249.01
565.83	2236.25
566.19	2223.44
566.54	2210.63
566.89	2196.57
567.25	2182.80
567.60	2170.24
567.96	2156.85
568.31	2142.18
568.66	2128.37
569.02	2115.45
569.37	2102.56
569.72	2090.17
570.08	2076.47
570.43	2062.55
570.78	2048.20
571.14	2033.30
571.49	2019.17
571.84	2005.51
572.20	1990.56
572.55	1975.97
572.90	1961.07
573.26	1946.17
573.61	1930.81
573.96	1915.84
574.31	1901.26
574.67	1886.51
575.02	1870.94
575.37	1855.42
575.72	1840.72
576.08	1826.24
576.43	1810.67
576.78	1795.53
577.13	1780.72
577.49	1766.27
577.84	1752.30
578.19	1737.41
578.54	1722.77
578.90	1707.65
579.25	1692.41
579.60	1678.78
579.95	1664.83
580.30	1650.91
580.66	1636.70
581.01	1622.36
581.36	1608.13
581.71	1594.88
582.06	1581.44
582.42	1568.21
582.77	1554.98
583.12	1541.65
583.47	1528.27
583.82	1514.99
584.17	1501.40
584.53	1487.38
584.88	1473.71
585.23	1459.64
585.58	1446.50
585.93	1433.59
586.28	1421.35
586.63	1409.17
586.98	1396.37
587.34	1383.70
587.69	1370.76
588.04	1358.18
588.39	1346.02
588.74	1333.89
589.09	1321.55
589.44	1308.87
589.79	1296.85
590.14	1284.93
590.49	1272.99
590.84	1261.10
591.19	1249.70
591.54	1238.09
591.89	1226.64
592.25	1215.29
592.60	1203.68
592.95	1192.40
593.30	1181.25
593.65	1169.81
594.00	1158.46
594.35	1147.82
594.70	1136.76
595.05	1126.61
595.40	1116.32
595.75	1105.83
596.10	1095.92
596.45	1085.63
596.80	1075.68
597.15	1065.52
597.50	1055.50
597.85	1045.84
598.19	1036.09
598.54	1026.39
598.89	1017.08
599.24	1008.13
599.59	999.07
599.94	990.93
600.29	982.53
600.64	973.83
600.99	964.77
601.34	956.12
601.69	947.12
602.04	938.77
602.39	930.25
602.74	921.73
603.08	913.25
603.43	904.71
603.78	896.36
604.13	888.23
604.48	880.02
604.83	872.03
605.18	863.93
605.53	855.97
605.87	847.79
606.22	840.05
606.57	832.17
606.92	824.13
607.27	816.03
607.62	808.37
607.96	801.10
608.31	794.27
608.66	787.23
609.01	780.48
609.36	773.85
609.70	766.88
610.05	759.97
610.40	753.32
610.75	746.67
611.10	740.37
611.44	733.91
611.79	727.56
612.14	721.12
612.49	714.82
612.83	708.80
613.18	702.90
613.53	696.84
613.88	690.90
614.22	685.42
614.57	679.79
614.92	673.95
615.27	668.29
615.61	662.66
615.96	657.09
616.31	651.52
616.65	646.02
617.00	640.83
617.35	635.69
617.70	630.62
618.04	625.53
618.39	620.41
618.74	615.57
619.08	610.73
619.43	606.02
619.78	601.36
620.12	596.61
620.47	592.07
620.82	587.62
621.16	583.13
621.51	578.51
621.85	574.02
622.20	569.72
622.55	565.41
622.89	561.16
623.24	556.93
623.59	552.77
623.93	548.75
624.28	544.79
624.62	540.95
624.97	537.13
625.32	533.34
625.66	529.45
626.01	525.51
626.35	521.69
626.70	517.91
627.04	514.27
627.39	510.63
627.73	507.14
628.08	503.73
628.43	500.34
628.77	497.06
629.12	493.85
629.46	490.62
629.81	487.34
630.15	484.09
630.50	480.93
630.84	477.80
631.19	474.74
631.53	471.81
631.88	468.83
632.22	465.87
632.57	463.21
632.91	460.59
633.26	458.06
633.60	455.50
633.95	453.05
634.29	450.48
634.64	448.00
634.98	445.30
635.32	442.79
635.67	440.47
636.01	438.05
636.36	435.70
636.70	433.53
637.05	431.31
637.39	429.12
637.73	426.96
638.08	424.92
638.42	422.82
638.77	420.60
639.11	418.33
639.45	416.17
639.80	413.94
640.14	411.81
640.49	409.65
640.83	407.50
641.17	405.42
641.52	403.39
641.86	401.38
642.20	399.60
642.55	397.63
642.89	395.71
643.23	393.87
643.58	392.20
643.92	390.37
644.26	388.64
644.61	386.96
644.95	385.22
645.29	383.43
645.64	381.65
645.98	379.97
646.32	378.41
646.66	376.82
647.01	375.25
647.35	373.73
647.69	372.21
648.04	370.84
648.38	369.35
648.72	367.92
649.06	366.47
649.41	365.04
649.75	363.65
650.09	362.27
650.43	360.91
650.78	359.48
651.12	358.10
651.46	356.75
651.80	355.46
652.14	354.20
652.49	352.98
652.83	351.75
653.17	350.54
653.51	349.38
653.85	348.27
654.20	347.11
654.54	345.88
654.88	344.73
655.22	343.60
655.56	342.48
655.90	341.40
656.25	340.35
656.59	339.28
656.93	338.29
657.27	337.32
657.61	336.28
657.95	335.27
658.29	334.28
658.64	333.35
658.98	332.39
659.32	331.45
659.66	330.56
660.00	329.69
660.34	328.82
660.68	327.91
661.02	326.96
661.36	326.05
661.70	325.18
662.05	324.33
662.39	323.48
662.73	322.72
663.07	321.94
663.41	321.15
663.75	320.35
664.09	319.54
664.43	318.70
664.77	317.94
665.11	317.15
665.45	316.43
665.79	315.70
666.13	314.91
666.47	314.13
666.81	313.34
667.15	312.52
667.49	311.81
667.83	311.17
668.17	310.50
668.51	309.88
668.85	309.27
669.19	308.69
669.53	308.01
669.87	307.32
670.21	306.66
670.55	306.03
670.89	305.47
671.23	304.88
671.57	304.30
671.91	303.76
672.25	303.24
672.58	302.71
672.92	302.11
673.26	301.62
673.60	301.11
673.94	300.61
674.28	300.16
674.62	299.64
674.96	299.09
675.30	298.59
675.64	298.05
675.97	297.51
676.31	296.94
676.65	296.43
676.99	295.97
677.33	295.44
677.67	294.95
678.01	294.39
678.34	293.91
678.68	293.45
679.02	292.92
679.36	292.41
679.70	291.90
680.04	291.44
680.37	290.95
680.71	290.50
681.05	290.05
681.39	289.55
681.73	289.03
682.06	288.53
682.40	288.07
682.74	287.66
683.08	287.30
683.42	286.86
683.75	286.46
684.09	285.98
684.43	285.56
684.77	285.13
685.10	284.75
685.44	284.34
685.78	283.93
686.12	283.54
686.45	283.13
686.79	282.70
687.13	282.30
687.46	281.88
687.80	281.47
688.14	281.02
688.48	280.64
688.81	280.25
689.15	279.89
689.49	279.48
689.82	279.05
690.16	278.57
690.50	278.17
690.83	277.77
691.17	277.36
691.51	276.96
691.84	276.58
692.18	276.16
692.52	275.73
692.85	275.32
693.19	274.96
693.52	274.57
693.86	274.17
694.20	273.79
694.53	273.42
694.87	273.02
695.21	272.63
695.54	272.25
695.88	271.87
696.21	271.46
696.55	271.09
696.88	270.73
697.22	270.36
697.56	269.99
697.89	269.58
698.23	269.22
698.56	268.82
698.90	268.47
699.23	268.07
699.57	267.71
699.90	267.34
700.24	266.96
700.58	266.62
700.91	266.32
701.25	266.08
701.58	265.78
701.92	265.48
702.25	265.16
702.59	264.81
702.92	264.48
703.26	264.13
703.59	263.79
703.93	263.55
704.26	263.23
704.60	262.90
704.93	262.57
705.26	262.25
705.60	261.98
705.93	261.63
706.27	261.36
706.60	261.10
706.94	260.84
707.27	260.49
707.61	260.17
707.94	259.83
708.27	259.40
708.61	259.04
708.94	258.71
709.28	258.40
709.61	258.11
709.94	257.84
710.28	257.58
710.61	257.33
710.95	256.95
711.28	256.75
711.61	256.48
711.95	256.23
712.28	255.95
712.61	255.65
712.95	255.47
713.28	255.26
713.61	254.96
713.95	254.66
714.28	254.42
714.61	254.16
714.95	253.92
715.28	253.68
715.61	253.44
715.95	253.21
716.28	252.99
716.61	252.78
716.95	252.53
717.28	252.29
717.61	252.04
717.94	251.81
718.28	251.48
718.61	251.25
718.94	251.00
719.27	250.78
719.61	250.58
719.94	250.32
720.27	250.03
720.60	249.82
720.94	249.60
721.27	249.40
721.60	249.21
721.93	248.99
722.27	248.82
722.60	248.64
722.93	248.41
723.26	248.20
723.59	247.97
723.93	247.78
724.26	247.58
724.59	247.38
724.92	247.21
725.25	247.07
725.59	246.89
725.92	246.73
726.25	246.56
726.58	246.38
726.91	246.19
727.24	246.03
727.57	245.86
727.91	245.68
728.24	245.53
728.57	245.35
728.90	245.19
729.23	244.98
729.56	244.85
729.89	244.69
730.22	244.52
730.55	244.36
730.89	244.20
731.22	244.04
731.55	243.88
731.88	243.72
732.21	243.54
732.54	243.38
732.87	243.22
733.20	243.07
733.53	242.92
733.86	242.79
734.19	242.62
734.52	242.48
734.85	242.42
735.18	242.24
735.51	242.13
735.84	241.99
736.17	241.90
736.50	241.70
736.83	241.70
737.16	241.57
737.49	241.45
737.82	241.32
738.15	241.21
738.48	241.08
738.81	240.95
739.14	240.81
739.47	240.67
739.80	240.53
740.13	240.41
740.46	240.27
740.79	240.12
741.12	239.99
741.45	239.85
741.78	239.65
742.11	239.57
742.44	239.41
742.77	239.31
743.10	239.17
743.43	239.06
743.75	238.81
744.08	238.89
744.41	238.76
744.74	238.63
745.07	238.49
745.40	238.40
745.73	238.34
746.06	238.24
746.39	238.15
746.71	238.04
747.04	237.93
747.37	237.83
747.70	237.75
748.03	237.66
748.36	237.59
748.68	237.48
749.01	237.34
749.34	237.25
749.67	237.15
750.00	237.08
750.33	237.07
750.65	236.99
750.98	236.71
751.31	236.62
751.64	236.54
751.97	236.52
752.29	236.41
752.62	236.26
752.95	236.17
753.28	236.06
753.60	235.97
753.93	235.91
754.26	235.83
754.59	235.70
754.91	235.60
755.24	235.49
755.57	235.47
755.90	235.38
756.22	235.28
756.55	235.17
756.88	235.06
757.20	234.90
757.53	234.79
757.86	234.71
758.19	234.63
758.51	234.55
758.84	234.40
759.17	234.32
759.49	234.26
759.82	234.24
760.15	234.18
760.47	234.11
760.80	234.01
761.13	233.96
761.45	233.90
761.78	233.84
762.11	233.78
762.43	233.65
762.76	233.59
763.08	233.54
763.41	233.49
763.74	233.44
764.06	233.37
764.39	233.32
764.71	233.26
765.04	233.19
765.37	233.12
765.69	233.07
766.02	233.02
766.34	232.95
766.67	232.84
767.00	232.81
767.32	232.82
767.65	232.84
767.97	232.77
768.30	232.72
768.62	232.67
768.95	232.60
769.27	232.55
769.60	232.51
769.92	232.44
770.25	232.37
770.57	232.30
770.90	232.25
771.22	232.19
771.55	232.15
771.87	232.10
772.20	232.06
772.52	232.12
772.85	232.22
773.17	232.18
773.50	232.14
773.82	232.08
774.15	231.97
774.47	231.85
774.80	231.80
775.12	231.75
775.45	231.71
775.77	231.68
776.09	231.65
776.42	231.62
776.74	231.63
777.07	231.59
777.39	231.57
777.72	231.53
778.04	231.50
778.36	231.46
778.69	231.43
779.01	231.41
779.33	231.26
779.66	231.09
779.98	231.05
780.31	231.02
780.63	231.03
780.95	231.03
781.28	231.00
781.60	230.96
781.92	230.94
782.25	230.91
782.57	230.88
782.89	230.84
783.22	230.80
783.54	230.74
783.86	230.73
784.19	230.69
784.51	230.70
784.83	230.66
785.16	230.63
785.48	230.60
785.80	230.58
786.12	230.57
786.45	230.54
786.77	230.53
787.09	230.50
787.42	230.43
787.74	230.41
788.06	230.39
788.38	230.37
788.71	230.33
789.03	230.31
789.35	230.31
789.67	230.28
789.99	230.27
790.32	230.23
790.64	230.22
790.96	230.32
791.28	230.26
791.61	230.24
791.93	230.22
792.25	230.20
792.57	230.26
792.89	230.22
793.21	230.21
793.54	230.18
793.86	230.15
794.18	230.13
794.50	230.09
794.82	230.07
795.14	230.07
795.47	230.07
795.79	230.05
796.11	230.00
796.43	229.98
796.75	229.96
797.07	229.96
797.39	229.93
797.71	229.81
798.04	229.80
798.36	229.79
798.68	229.77
799.00	229.77
799.32	229.69
799.64	229.69
799.96	229.67
800.28	229.68
800.60	229.66
800.92	229.66
801.24	229.64
801.56	229.63
801.89	229.60
802.21	229.59
802.53	229.55
802.85	229.56
803.17	229.61
803.49	229.56
803.81	229.54
804.13	229.52
804.45	229.48
804.77	229.48
805.09	229.47
805.41	229.45
805.73	229.41
806.05	229.37
806.37	229.34
806.69	229.32
807.01	229.29
807.33	229.29
807.65	229.24
807.97	229.28
808.28	229.25
808.60	229.24
808.92	229.21
809.24	229.28
809.56	229.25
809.88	229.19
810.20	229.19
810.52	229.21
810.84	229.18
811.16	229.16
811.48	229.13
811.80	229.16
812.12	229.15
812.43	229.16
812.75	229.15
813.07	229.13
813.39	229.12
813.71	229.10
814.03	229.08
814.35	229.08
814.67	229.01
814.98	229.00
815.30	228.98
815.62	228.96
815.94	228.87
816.26	228.87
816.58	228.83
816.89	228.83
817.21	228.79
817.53	228.79
817.85	228.79
818.17	228.78
818.48	228.73
