SpectraSuite Data File
++++++++++++++++++++++++++++++++++++
Date: Sun Oct 04 00:07:45 EDT 2015
User: lab3
Dark Spectrum Present: No
Reference Spectrum Present: No
Number of Sampled Component Spectra: 1
Spectrometers: USB2E7196
Integration Time (usec): 46000 (USB2E7196)
Spectra Averaged: 24000 (USB2E7196)
Boxcar Smoothing: 10 (USB2E7196)
Correct for Electrical Dark: No (USB2E7196)
Strobe/Lamp Enabled: No (USB2E7196)
Correct for Detector Non-linearity: No (USB2E7196)
Correct for Stray Light: No (USB2E7196)
Number of Pixels in Processed Spectrum: 2048
>>>>>Begin Processed Spectral Data<<<<<
339.09	0.00
339.48	213.35
339.86	214.80
340.24	216.17
340.63	217.60
341.01	220.88
341.39	220.32
341.78	221.67
342.16	222.91
342.54	223.30
342.93	211.80
343.31	222.50
343.69	223.04
344.07	223.50
344.46	223.93
344.84	224.32
345.22	224.54
345.60	224.80
345.99	224.99
346.37	225.13
346.75	225.24
347.13	225.32
347.52	225.39
347.90	225.48
348.28	225.52
348.66	225.58
349.05	225.57
349.43	225.63
349.81	225.68
350.19	225.74
350.57	225.81
350.96	225.90
351.34	225.99
351.72	226.09
352.10	226.20
352.48	226.27
352.87	226.33
353.25	226.39
353.63	226.45
354.01	226.51
354.39	226.59
354.77	226.66
355.15	226.77
355.54	226.82
355.92	226.84
356.30	226.92
356.68	227.07
357.06	227.15
357.44	227.20
357.82	227.26
358.20	227.37
358.58	227.43
358.97	227.50
359.35	227.58
359.73	227.67
360.11	227.72
360.49	227.78
360.87	227.83
361.25	227.89
361.63	227.98
362.01	228.03
362.39	228.06
362.77	228.11
363.15	228.13
363.53	228.17
363.91	228.21
364.29	228.23
364.67	228.13
365.05	228.15
365.43	228.19
365.81	228.22
366.19	228.24
366.57	228.30
366.95	228.30
367.33	228.26
367.71	228.26
368.09	228.28
368.47	228.27
368.85	228.26
369.23	228.27
369.61	228.21
369.99	228.23
370.37	228.23
370.75	228.31
371.13	228.27
371.51	228.23
371.89	228.21
372.27	228.19
372.65	228.17
373.03	228.13
373.41	228.09
373.78	228.04
374.16	227.93
374.54	227.85
374.92	227.80
375.30	227.76
375.68	227.69
376.06	227.65
376.44	227.60
376.82	227.56
377.19	227.51
377.57	227.46
377.95	227.37
378.33	227.30
378.71	227.14
379.09	227.10
379.47	227.07
379.84	227.00
380.22	226.94
380.60	226.87
380.98	226.82
381.36	226.77
381.73	226.70
382.11	226.68
382.49	226.64
382.87	226.58
383.25	226.53
383.62	226.64
384.00	226.57
384.38	226.54
384.76	226.52
385.13	226.52
385.51	226.48
385.89	226.43
386.27	226.39
386.64	226.38
387.02	226.33
387.40	226.29
387.78	226.26
388.15	226.24
388.53	226.21
388.91	226.18
389.29	226.15
389.66	226.15
390.04	226.11
390.42	226.11
390.79	226.10
391.17	226.08
391.55	225.93
391.92	225.92
392.30	225.92
392.68	225.88
393.05	225.86
393.43	225.86
393.81	225.87
394.18	225.86
394.56	225.86
394.94	225.90
395.31	225.90
395.69	225.94
396.06	225.98
396.44	226.01
396.82	226.02
397.19	226.11
397.57	226.12
397.95	226.17
398.32	226.17
398.70	226.21
399.07	226.29
399.45	226.33
399.82	226.38
400.20	226.42
400.58	226.48
400.95	226.50
401.33	226.59
401.70	226.75
402.08	226.86
402.45	226.95
402.83	227.07
403.20	227.19
403.58	227.29
403.95	227.44
404.33	227.60
404.71	227.75
405.08	227.97
405.46	228.15
405.83	228.35
406.21	228.56
406.58	228.79
406.96	229.02
407.33	229.29
407.70	229.59
408.08	230.00
408.45	230.35
408.83	230.74
409.20	231.09
409.58	231.41
409.95	231.84
410.33	232.32
410.70	232.76
411.08	233.29
411.45	233.84
411.82	234.41
412.20	235.05
412.57	235.82
412.95	236.42
413.32	237.20
413.69	238.01
414.07	238.86
414.44	239.79
414.82	240.74
415.19	241.85
415.56	242.98
415.94	244.15
416.31	245.46
416.68	246.77
417.06	248.29
417.43	249.71
417.81	251.35
418.18	253.02
418.55	254.84
418.93	256.74
419.30	258.72
419.67	260.82
420.04	262.98
420.42	265.22
420.79	267.83
421.16	270.45
421.54	273.12
421.91	275.91
422.28	278.80
422.66	281.92
423.03	284.90
423.40	288.02
423.77	291.37
424.15	294.80
424.52	298.37
424.89	302.23
425.26	306.08
425.64	309.65
426.01	313.67
426.38	317.79
426.75	322.02
427.13	326.36
427.50	330.90
427.87	335.63
428.24	340.41
428.61	345.00
428.99	349.96
429.36	355.40
429.73	360.60
430.10	365.81
430.47	371.13
430.85	376.61
431.22	382.49
431.59	388.52
431.96	394.42
432.33	400.97
432.70	407.19
433.08	414.54
433.45	421.50
433.82	428.36
434.19	436.00
434.56	443.55
434.93	450.84
435.30	458.05
435.68	466.19
436.05	474.18
436.42	482.13
436.79	489.39
437.16	497.22
437.53	505.62
437.90	514.02
438.27	522.24
438.64	531.13
439.01	539.18
439.38	546.55
439.75	553.64
440.13	561.64
440.50	569.25
440.87	575.29
441.24	581.89
441.61	589.10
441.98	594.34
442.35	600.57
442.72	606.92
443.09	612.97
443.46	616.80
443.83	619.58
444.20	621.89
444.57	625.37
444.94	627.32
445.31	629.32
445.68	631.01
446.05	632.23
446.42	631.77
446.79	631.10
447.16	630.49
447.53	629.93
447.90	627.29
448.27	624.76
448.64	620.97
449.01	618.30
449.37	613.06
449.74	608.33
450.11	602.24
450.48	595.58
450.85	588.94
451.22	583.27
451.59	577.74
451.96	572.73
452.33	565.47
452.70	559.03
453.07	551.17
453.43	543.36
453.80	535.77
454.17	528.50
454.54	521.83
454.91	514.28
455.28	507.21
455.65	500.55
456.02	493.50
456.38	487.84
456.75	480.56
457.12	474.72
457.49	468.81
457.86	463.26
458.23	458.41
458.59	453.01
458.96	447.47
459.33	442.61
459.70	437.64
460.07	433.87
460.43	429.45
460.80	425.32
461.17	421.74
461.54	417.83
461.91	414.17
462.27	410.45
462.64	407.48
463.01	404.03
463.38	400.57
463.74	397.45
464.11	394.69
464.48	392.21
464.85	389.50
465.21	387.46
465.58	385.17
465.95	382.53
466.32	380.44
466.68	378.40
467.05	376.33
467.42	374.32
467.78	372.14
468.15	370.12
468.52	368.65
468.88	366.67
469.25	364.86
469.62	363.42
469.98	361.85
470.35	360.44
470.72	359.17
471.08	357.87
471.45	356.77
471.82	355.55
472.18	354.26
472.55	353.42
472.92	352.36
473.28	351.53
473.65	350.63
474.02	349.78
474.38	349.05
474.75	348.61
475.11	348.00
475.48	347.70
475.85	347.38
476.21	347.19
476.58	347.05
476.94	347.15
477.31	347.18
477.67	347.24
478.04	347.42
478.41	347.69
478.77	348.09
479.14	348.34
479.50	348.85
479.87	349.52
480.23	350.20
480.60	350.86
480.96	351.53
481.33	352.55
481.69	353.54
482.06	354.55
482.42	355.46
482.79	356.60
483.15	357.93
483.52	359.44
483.88	360.89
484.25	362.45
484.61	364.08
484.98	365.83
485.34	367.81
485.71	369.87
486.07	372.09
486.44	374.31
486.80	376.78
487.17	379.35
487.53	382.16
487.90	385.09
488.26	388.29
488.62	391.67
488.99	395.05
489.35	398.61
489.72	402.47
490.08	406.54
490.44	410.75
490.81	415.12
491.17	419.59
491.54	424.39
491.90	429.35
492.26	434.65
492.63	440.20
492.99	445.99
493.36	452.00
493.72	458.31
494.08	464.78
494.45	471.65
494.81	478.78
495.17	486.10
495.54	493.84
495.90	501.88
496.26	510.12
496.63	518.60
496.99	527.40
497.35	536.61
497.72	546.12
498.08	555.83
498.44	565.87
498.80	576.53
499.17	587.44
499.53	598.71
499.89	610.34
500.26	622.21
500.62	634.38
500.98	647.22
501.34	660.22
501.71	673.76
502.07	687.49
502.43	701.77
502.79	716.29
503.16	731.29
503.52	746.44
503.88	762.06
504.24	778.16
504.60	794.46
504.97	811.25
505.33	828.48
505.69	846.64
506.05	865.16
506.41	883.64
506.78	902.29
507.14	921.44
507.50	941.03
507.86	960.99
508.22	981.19
508.59	1001.18
508.95	1021.98
509.31	1043.52
509.67	1065.83
510.03	1088.17
510.39	1110.52
510.75	1133.01
511.12	1155.81
511.48	1178.77
511.84	1201.72
512.20	1225.10
512.56	1249.41
512.92	1273.76
513.28	1297.62
513.64	1321.75
514.00	1346.35
514.37	1371.31
514.73	1396.16
515.09	1420.89
515.45	1445.94
515.81	1471.20
516.17	1496.50
516.53	1521.39
516.89	1546.12
517.25	1571.01
517.61	1595.70
517.97	1620.85
518.33	1645.55
518.69	1670.19
519.05	1695.25
519.41	1720.61
519.77	1746.23
520.13	1770.98
520.49	1795.69
520.85	1820.73
521.21	1845.42
521.57	1870.42
521.93	1894.81
522.29	1919.82
522.65	1944.20
523.01	1968.55
523.37	1992.46
523.73	2017.19
524.09	2041.48
524.45	2065.56
524.81	2089.28
525.17	2112.88
525.53	2135.87
525.89	2159.31
526.25	2182.78
526.61	2205.24
526.97	2227.80
527.33	2250.26
527.68	2272.51
528.04	2293.87
528.40	2314.29
528.76	2334.81
529.12	2354.84
529.48	2374.68
529.84	2392.51
530.20	2411.10
530.56	2429.03
530.91	2447.10
531.27	2464.81
531.63	2481.63
531.99	2498.03
532.35	2513.62
532.71	2529.41
533.07	2545.83
533.42	2560.39
533.78	2575.88
534.14	2591.70
534.50	2606.55
534.86	2621.11
535.21	2633.57
535.57	2646.66
535.93	2659.59
536.29	2671.36
536.65	2682.89
537.00	2693.55
537.36	2705.30
537.72	2715.73
538.08	2725.54
538.44	2734.59
538.79	2743.22
539.15	2751.15
539.51	2758.72
539.87	2765.69
540.22	2770.54
540.58	2775.52
540.94	2781.64
541.29	2786.26
541.65	2789.03
542.01	2791.01
542.37	2792.34
542.72	2795.13
543.08	2796.11
543.44	2797.67
543.79	2798.21
544.15	2797.91
544.51	2798.07
544.87	2797.07
545.22	2795.18
545.58	2792.64
545.94	2790.10
546.29	2786.29
546.65	2782.45
547.01	2778.51
547.36	2775.36
547.72	2772.47
548.07	2767.71
548.43	2761.56
548.79	2754.29
549.14	2748.33
549.50	2742.76
549.86	2736.15
550.21	2728.37
550.57	2721.62
550.92	2712.46
551.28	2703.79
551.64	2695.60
551.99	2687.02
552.35	2677.78
552.70	2668.85
553.06	2660.27
553.41	2651.07
553.77	2641.71
554.13	2632.30
554.48	2621.99
554.84	2610.35
555.19	2599.06
555.55	2587.97
555.90	2576.95
556.26	2566.61
556.61	2555.06
556.97	2541.81
557.32	2529.01
557.68	2516.32
558.03	2503.29
558.39	2491.62
558.74	2480.30
559.10	2467.18
559.45	2454.19
559.81	2441.82
560.16	2428.78
560.52	2416.14
560.87	2403.91
561.23	2390.81
561.58	2377.67
561.94	2364.32
562.29	2350.36
562.64	2337.21
563.00	2323.75
563.35	2310.61
563.71	2297.30
564.06	2283.96
564.42	2271.42
564.77	2258.40
565.12	2245.20
565.48	2231.95
565.83	2218.58
566.19	2205.39
566.54	2192.13
566.89	2177.78
567.25	2163.59
567.60	2150.88
567.96	2137.19
568.31	2122.02
568.66	2107.54
569.02	2094.33
569.37	2081.10
569.72	2068.42
570.08	2054.46
570.43	2040.08
570.78	2025.64
571.14	2010.46
571.49	1995.89
571.84	1981.89
572.20	1966.71
572.55	1951.70
572.90	1936.68
573.26	1921.78
573.61	1906.32
573.96	1891.29
574.31	1876.53
574.67	1861.89
575.02	1846.06
575.37	1830.38
575.72	1815.62
576.08	1801.15
576.43	1785.58
576.78	1770.41
577.13	1755.48
577.49	1740.91
577.84	1726.98
578.19	1712.12
578.54	1697.37
578.90	1682.14
579.25	1666.81
579.60	1653.10
579.95	1639.32
580.30	1625.32
580.66	1611.00
581.01	1596.67
581.36	1582.35
581.71	1568.97
582.06	1555.52
582.42	1542.29
582.77	1529.14
583.12	1515.98
583.47	1502.73
583.82	1489.56
584.17	1476.02
584.53	1462.21
584.88	1448.75
585.23	1434.93
585.58	1421.85
585.93	1408.97
586.28	1396.84
586.63	1384.66
586.98	1372.03
587.34	1359.46
587.69	1346.65
588.04	1334.16
588.39	1322.01
588.74	1310.02
589.09	1297.83
589.44	1285.21
589.79	1273.22
590.14	1261.32
590.49	1249.30
590.84	1237.45
591.19	1226.01
591.54	1214.37
591.89	1202.86
592.25	1191.59
592.60	1179.91
592.95	1168.67
593.30	1157.71
593.65	1146.46
594.00	1135.35
594.35	1124.78
594.70	1113.77
595.05	1103.59
595.40	1093.31
595.75	1082.87
596.10	1072.96
596.45	1062.85
596.80	1053.07
597.15	1043.01
597.50	1033.12
597.85	1023.65
598.19	1014.01
598.54	1004.40
598.89	995.30
599.24	986.49
599.59	977.44
599.94	969.29
600.29	960.97
600.64	952.37
600.99	943.42
601.34	934.79
601.69	925.83
602.04	917.58
602.39	909.13
602.74	900.78
603.08	892.37
603.43	883.93
603.78	875.66
604.13	867.50
604.48	859.39
604.83	851.45
605.18	843.46
605.53	835.64
605.87	827.66
606.22	819.91
606.57	812.15
606.92	804.32
607.27	796.42
607.62	788.81
607.96	781.58
608.31	774.80
608.66	767.84
609.01	761.14
609.36	754.54
609.70	747.79
610.05	740.97
610.40	734.45
610.75	727.89
611.10	721.68
611.44	715.31
611.79	709.06
612.14	702.72
612.49	696.45
612.83	690.47
613.18	684.62
613.53	678.71
613.88	672.80
614.22	667.27
614.57	661.71
614.92	656.01
615.27	650.40
615.61	644.86
615.96	639.38
616.31	633.91
616.65	628.47
617.00	623.23
617.35	618.12
617.70	613.02
618.04	608.02
618.39	602.91
618.74	598.04
619.08	593.21
619.43	588.52
619.78	583.82
620.12	579.11
620.47	574.53
620.82	570.06
621.16	565.66
621.51	561.16
621.85	556.68
622.20	552.37
622.55	548.11
622.89	543.92
623.24	539.74
623.59	535.58
623.93	531.59
624.28	527.72
624.62	523.92
624.97	520.17
625.32	516.36
625.66	512.52
626.01	508.66
626.35	504.86
626.70	501.10
627.04	497.54
627.39	493.89
627.73	490.42
628.08	487.05
628.43	483.66
628.77	480.34
629.12	477.15
629.46	474.00
629.81	470.73
630.15	467.45
630.50	464.27
630.84	461.16
631.19	458.09
631.53	455.12
631.88	452.11
632.22	449.13
632.57	446.43
632.91	443.77
633.26	441.20
633.60	438.64
633.95	436.14
634.29	433.55
634.64	431.03
634.98	428.34
635.32	425.76
635.67	423.39
636.01	420.95
636.36	418.55
636.70	416.26
637.05	414.00
637.39	411.79
637.73	409.58
638.08	407.50
638.42	405.40
638.77	403.16
639.11	400.88
639.45	398.67
639.80	396.41
640.14	394.25
640.49	392.08
640.83	389.89
641.17	387.80
641.52	385.75
641.86	383.74
642.20	381.91
642.55	379.95
642.89	378.01
643.23	376.16
643.58	374.46
643.92	372.65
644.26	370.89
644.61	369.18
644.95	367.45
645.29	365.64
645.64	363.85
645.98	362.16
646.32	360.58
646.66	358.99
647.01	357.43
647.35	355.90
647.69	354.37
648.04	352.95
648.38	351.46
648.72	349.98
649.06	348.52
649.41	347.06
649.75	345.66
650.09	344.28
650.43	342.90
650.78	341.48
651.12	340.11
651.46	338.78
651.80	337.47
652.14	336.20
652.49	334.97
652.83	333.71
653.17	332.51
653.51	331.33
653.85	330.21
654.20	329.04
654.54	327.81
654.88	326.66
655.22	325.54
655.56	324.42
655.90	323.36
656.25	322.33
656.59	321.28
656.93	320.30
657.27	319.33
657.61	318.30
657.95	317.33
658.29	316.34
658.64	315.41
658.98	314.47
659.32	313.56
659.66	312.70
660.00	311.87
660.34	311.03
660.68	310.17
661.02	309.28
661.36	308.42
661.70	307.62
662.05	306.83
662.39	306.05
662.73	305.33
663.07	304.63
663.41	303.88
663.75	303.13
664.09	302.38
664.43	301.60
664.77	300.91
665.11	300.16
665.45	299.48
665.79	298.81
666.13	298.12
666.47	297.41
666.81	296.68
667.15	295.93
667.49	295.28
667.83	294.69
668.17	294.07
668.51	293.49
668.85	292.94
669.19	292.42
669.53	291.80
669.87	291.18
670.21	290.58
670.55	290.03
670.89	289.55
671.23	289.02
671.57	288.51
671.91	288.03
672.25	287.60
672.58	287.15
672.92	286.63
673.26	286.18
673.60	285.74
673.94	285.32
674.28	284.93
674.62	284.51
674.96	284.02
675.30	283.61
675.64	283.16
675.97	282.69
676.31	282.20
676.65	281.76
676.99	281.40
677.33	280.96
677.67	280.54
678.01	280.06
678.34	279.65
678.68	279.28
679.02	278.84
679.36	278.41
679.70	277.98
680.04	277.59
680.37	277.20
680.71	276.83
681.05	276.47
681.39	276.07
681.73	275.65
682.06	275.26
682.40	274.88
682.74	274.55
683.08	274.26
683.42	273.91
683.75	273.60
684.09	273.20
684.43	272.87
684.77	272.54
685.10	272.24
685.44	271.92
685.78	271.59
686.12	271.29
686.45	270.97
686.79	270.63
687.13	270.33
687.46	269.98
687.80	269.67
688.14	269.31
688.48	269.01
688.81	268.70
689.15	268.42
689.49	268.10
689.82	267.77
690.16	267.39
690.50	267.09
690.83	266.77
691.17	266.46
691.51	266.15
691.84	265.86
692.18	265.53
692.52	265.20
692.85	264.90
693.19	264.63
693.52	264.33
693.86	264.03
694.20	263.73
694.53	263.45
694.87	263.14
695.21	262.85
695.54	262.55
695.88	262.25
696.21	261.93
696.55	261.65
696.88	261.36
697.22	261.08
697.56	260.80
697.89	260.47
698.23	260.19
698.56	259.89
698.90	259.61
699.23	259.31
699.57	259.02
699.90	258.73
700.24	258.41
700.58	258.16
700.91	257.92
701.25	257.77
701.58	257.55
701.92	257.33
702.25	257.08
702.59	256.81
702.92	256.56
703.26	256.30
703.59	256.03
703.93	255.87
704.26	255.62
704.60	255.36
704.93	255.10
705.26	254.83
705.60	254.62
705.93	254.34
706.27	254.13
706.60	253.92
706.94	253.73
707.27	253.46
707.61	253.20
707.94	252.92
708.27	252.55
708.61	252.25
708.94	251.97
709.28	251.73
709.61	251.49
709.94	251.27
710.28	251.05
710.61	250.85
710.95	250.52
711.28	250.38
711.61	250.16
711.95	249.97
712.28	249.75
712.61	249.50
712.95	249.36
713.28	249.21
713.61	248.96
713.95	248.70
714.28	248.51
714.61	248.29
714.95	248.08
715.28	247.88
715.61	247.69
715.95	247.51
716.28	247.31
716.61	247.15
716.95	246.94
717.28	246.75
717.61	246.54
717.94	246.35
718.28	246.07
718.61	245.87
718.94	245.65
719.27	245.47
719.61	245.31
719.94	245.09
720.27	244.82
720.60	244.64
720.94	244.47
721.27	244.30
721.60	244.14
721.93	243.96
722.27	243.83
722.60	243.67
722.93	243.48
723.26	243.31
723.59	243.11
723.93	242.95
724.26	242.79
724.59	242.61
724.92	242.46
725.25	242.35
725.59	242.19
725.92	242.06
726.25	241.91
726.58	241.75
726.91	241.59
727.24	241.46
727.57	241.31
727.91	241.15
728.24	241.02
728.57	240.86
728.90	240.73
729.23	240.55
729.56	240.45
729.89	240.31
730.22	240.15
730.55	240.01
730.89	239.87
731.22	239.72
731.55	239.59
731.88	239.45
732.21	239.29
732.54	239.15
732.87	239.01
733.20	238.89
733.53	238.77
733.86	238.65
734.19	238.50
734.52	238.40
734.85	238.36
735.18	238.21
735.51	238.12
735.84	238.00
736.17	237.92
736.50	237.74
736.83	237.78
737.16	237.67
737.49	237.57
737.82	237.45
738.15	237.36
738.48	237.25
738.81	237.14
739.14	237.02
739.47	236.90
739.80	236.77
740.13	236.67
740.46	236.54
740.79	236.42
741.12	236.31
741.45	236.18
741.78	236.00
742.11	235.93
742.44	235.79
742.77	235.70
743.10	235.58
743.43	235.47
743.75	235.23
744.08	235.33
744.41	235.22
744.74	235.11
745.07	234.99
745.40	234.91
745.73	234.87
746.06	234.78
746.39	234.71
746.71	234.61
747.04	234.51
747.37	234.42
747.70	234.36
748.03	234.28
748.36	234.22
748.68	234.13
749.01	234.01
749.34	233.92
749.67	233.84
750.00	233.77
750.33	233.79
750.65	233.71
750.98	233.44
751.31	233.36
751.64	233.29
751.97	233.28
752.29	233.19
752.62	233.05
752.95	232.96
753.28	232.86
753.60	232.78
753.93	232.74
754.26	232.67
754.59	232.55
754.91	232.46
755.24	232.36
755.57	232.35
755.90	232.27
756.22	232.18
756.55	232.09
756.88	231.99
757.20	231.82
757.53	231.72
757.86	231.64
758.19	231.58
758.51	231.51
758.84	231.37
759.17	231.29
759.49	231.24
759.82	231.23
760.15	231.18
760.47	231.12
760.80	231.01
761.13	230.97
761.45	230.91
761.78	230.85
762.11	230.80
762.43	230.67
762.76	230.62
763.08	230.58
763.41	230.54
763.74	230.49
764.06	230.44
764.39	230.39
764.71	230.34
765.04	230.27
765.37	230.21
765.69	230.16
766.02	230.11
766.34	230.05
766.67	229.95
767.00	229.92
767.32	229.95
767.65	229.98
767.97	229.92
768.30	229.88
768.62	229.84
768.95	229.77
769.27	229.73
769.60	229.70
769.92	229.63
770.25	229.56
770.57	229.50
770.90	229.45
771.22	229.40
771.55	229.35
771.87	229.32
772.20	229.28
772.52	229.35
772.85	229.46
773.17	229.43
773.50	229.38
773.82	229.32
774.15	229.22
774.47	229.10
774.80	229.05
775.12	229.01
775.45	228.98
775.77	228.96
776.09	228.93
776.42	228.90
776.74	228.91
777.07	228.88
777.39	228.85
777.72	228.81
778.04	228.80
778.36	228.76
778.69	228.73
779.01	228.71
779.33	228.57
779.66	228.40
779.98	228.36
780.31	228.34
780.63	228.37
780.95	228.36
781.28	228.33
781.60	228.30
781.92	228.27
782.25	228.25
782.57	228.22
782.89	228.19
783.22	228.16
783.54	228.10
783.86	228.09
784.19	228.06
784.51	228.07
784.83	228.03
785.16	228.01
785.48	227.98
785.80	227.96
786.12	227.95
786.45	227.93
786.77	227.91
787.09	227.88
787.42	227.81
787.74	227.79
788.06	227.78
788.38	227.75
788.71	227.73
789.03	227.71
789.35	227.71
789.67	227.67
789.99	227.66
790.32	227.63
790.64	227.62
790.96	227.72
791.28	227.66
791.61	227.63
791.93	227.62
792.25	227.60
792.57	227.67
792.89	227.63
793.21	227.62
793.54	227.59
793.86	227.57
794.18	227.56
794.50	227.51
794.82	227.50
795.14	227.50
795.47	227.50
795.79	227.49
796.11	227.44
796.43	227.42
796.75	227.40
797.07	227.40
797.39	227.37
797.71	227.25
798.04	227.24
798.36	227.24
798.68	227.22
799.00	227.21
799.32	227.13
799.64	227.14
799.96	227.12
800.28	227.13
800.60	227.12
800.92	227.11
801.24	227.09
801.56	227.09
801.89	227.06
802.21	227.05
802.53	227.01
802.85	227.03
803.17	227.08
803.49	227.04
803.81	227.01
804.13	226.99
804.45	226.97
804.77	226.96
805.09	226.95
805.41	226.93
805.73	226.89
806.05	226.84
806.37	226.82
806.69	226.80
807.01	226.77
807.33	226.77
807.65	226.71
807.97	226.76
808.28	226.73
808.60	226.72
808.92	226.69
809.24	226.76
809.56	226.72
809.88	226.66
810.20	226.66
810.52	226.67
810.84	226.65
811.16	226.63
811.48	226.60
811.80	226.64
812.12	226.62
812.43	226.64
812.75	226.64
813.07	226.62
813.39	226.62
813.71	226.59
814.03	226.57
814.35	226.57
814.67	226.51
814.98	226.49
815.30	226.48
815.62	226.45
815.94	226.36
816.26	226.36
816.58	226.33
816.89	226.34
817.21	226.30
817.53	226.30
817.85	226.30
818.17	226.29
818.48	226.23
