SpectraSuite Data File
++++++++++++++++++++++++++++++++++++
Date: Fri Oct 02 18:11:50 EDT 2015
User: lab3
Dark Spectrum Present: No
Reference Spectrum Present: No
Number of Sampled Component Spectra: 1
Spectrometers: USB2E7196
Integration Time (usec): 46000 (USB2E7196)
Spectra Averaged: 1500 (USB2E7196)
Boxcar Smoothing: 10 (USB2E7196)
Correct for Electrical Dark: No (USB2E7196)
Strobe/Lamp Enabled: No (USB2E7196)
Correct for Detector Non-linearity: No (USB2E7196)
Correct for Stray Light: No (USB2E7196)
Number of Pixels in Processed Spectrum: 2048
>>>>>Begin Processed Spectral Data<<<<<
339.09	0.00
339.48	215.90
339.86	217.39
340.24	218.75
340.63	220.20
341.01	223.44
341.39	222.86
341.78	224.13
342.16	225.47
342.54	225.82
342.93	214.23
343.31	225.06
343.69	225.60
344.07	226.06
344.46	226.49
344.84	226.88
345.22	227.10
345.60	227.35
345.99	227.55
346.37	227.68
346.75	227.80
347.13	227.87
347.52	227.93
347.90	228.03
348.28	228.06
348.66	228.12
349.05	228.13
349.43	228.19
349.81	228.24
350.19	228.30
350.57	228.36
350.96	228.44
351.34	228.52
351.72	228.62
352.10	228.72
352.48	228.79
352.87	228.84
353.25	228.91
353.63	228.97
354.01	229.03
354.39	229.11
354.77	229.18
355.15	229.29
355.54	229.34
355.92	229.36
356.30	229.45
356.68	229.60
357.06	229.67
357.44	229.72
357.82	229.78
358.20	229.89
358.58	229.95
358.97	230.02
359.35	230.11
359.73	230.20
360.11	230.25
360.49	230.32
360.87	230.36
361.25	230.43
361.63	230.52
362.01	230.57
362.39	230.60
362.77	230.65
363.15	230.67
363.53	230.71
363.91	230.73
364.29	230.75
364.67	230.64
365.05	230.67
365.43	230.69
365.81	230.72
366.19	230.75
366.57	230.82
366.95	230.81
367.33	230.78
367.71	230.77
368.09	230.78
368.47	230.77
368.85	230.75
369.23	230.76
369.61	230.69
369.99	230.71
370.37	230.71
370.75	230.78
371.13	230.75
371.51	230.72
371.89	230.70
372.27	230.68
372.65	230.67
373.03	230.63
373.41	230.59
373.78	230.53
374.16	230.43
374.54	230.33
374.92	230.28
375.30	230.24
375.68	230.17
376.06	230.12
376.44	230.07
376.82	230.03
377.19	229.97
377.57	229.93
377.95	229.85
378.33	229.79
378.71	229.63
379.09	229.58
379.47	229.54
379.84	229.47
380.22	229.41
380.60	229.34
380.98	229.28
381.36	229.23
381.73	229.18
382.11	229.15
382.49	229.12
382.87	229.06
383.25	229.02
383.62	229.11
384.00	229.05
384.38	229.02
384.76	229.00
385.13	229.01
385.51	228.97
385.89	228.91
386.27	228.88
386.64	228.87
387.02	228.83
387.40	228.78
387.78	228.76
388.15	228.74
388.53	228.71
388.91	228.69
389.29	228.65
389.66	228.64
390.04	228.60
390.42	228.60
390.79	228.58
391.17	228.57
391.55	228.42
391.92	228.41
392.30	228.41
392.68	228.37
393.05	228.34
393.43	228.34
393.81	228.35
394.18	228.32
394.56	228.32
394.94	228.36
395.31	228.35
395.69	228.40
396.06	228.43
396.44	228.45
396.82	228.46
397.19	228.55
397.57	228.56
397.95	228.60
398.32	228.60
398.70	228.64
399.07	228.70
399.45	228.74
399.82	228.80
400.20	228.83
400.58	228.89
400.95	228.91
401.33	228.98
401.70	229.14
402.08	229.24
402.45	229.32
402.83	229.43
403.20	229.55
403.58	229.64
403.95	229.78
404.33	229.94
404.71	230.08
405.08	230.28
405.46	230.44
405.83	230.62
406.21	230.81
406.58	231.02
406.96	231.23
407.33	231.47
407.70	231.73
408.08	232.11
408.45	232.42
408.83	232.77
409.20	233.09
409.58	233.38
409.95	233.77
410.33	234.19
410.70	234.58
411.08	235.05
411.45	235.54
411.82	236.03
412.20	236.59
412.57	237.27
412.95	237.80
413.32	238.49
413.69	239.21
414.07	239.98
414.44	240.81
414.82	241.65
415.19	242.64
415.56	243.65
415.94	244.68
416.31	245.85
416.68	247.02
417.06	248.38
417.43	249.64
417.81	251.10
418.18	252.59
418.55	254.21
418.93	255.90
419.30	257.67
419.67	259.55
420.04	261.49
420.42	263.50
420.79	265.82
421.16	268.16
421.54	270.53
421.91	273.02
422.28	275.59
422.66	278.38
423.03	281.03
423.40	283.81
423.77	286.79
424.15	289.84
424.52	293.00
424.89	296.43
425.26	299.84
425.64	303.02
426.01	306.59
426.38	310.24
426.75	314.01
427.13	317.86
427.50	321.91
427.87	326.11
428.24	330.36
428.61	334.45
428.99	338.85
429.36	343.69
429.73	348.32
430.10	352.96
430.47	357.69
430.85	362.58
431.22	367.82
431.59	373.21
431.96	378.47
432.33	384.33
432.70	389.90
433.08	396.48
433.45	402.69
433.82	408.81
434.19	415.65
434.56	422.39
434.93	428.89
435.30	435.32
435.68	442.61
436.05	449.73
436.42	456.81
436.79	463.30
437.16	470.29
437.53	477.75
437.90	485.22
438.27	492.51
438.64	500.40
439.01	507.54
439.38	514.07
439.75	520.34
440.13	527.42
440.50	534.15
440.87	539.46
441.24	545.29
441.61	551.65
441.98	556.26
442.35	561.74
442.72	567.33
443.09	572.61
443.46	575.90
443.83	578.30
444.20	580.26
444.57	583.25
444.94	584.87
445.31	586.56
445.68	587.99
446.05	588.97
446.42	588.44
446.79	587.74
447.16	587.09
447.53	586.48
447.90	584.04
448.27	581.68
448.64	578.20
449.01	575.73
449.37	571.01
449.74	566.73
450.11	561.23
450.48	555.25
450.85	549.30
451.22	544.18
451.59	539.18
451.96	534.67
452.33	528.16
452.70	522.39
453.07	515.38
453.43	508.39
453.80	501.62
454.17	495.14
454.54	489.18
454.91	482.47
455.28	476.21
455.65	470.28
456.02	464.05
456.38	459.03
456.75	452.58
457.12	447.39
457.49	442.15
457.86	437.23
458.23	432.93
458.59	428.17
458.96	423.30
459.33	419.02
459.70	414.65
460.07	411.36
460.43	407.49
460.80	403.87
461.17	400.73
461.54	397.32
461.91	394.14
462.27	390.92
462.64	388.32
463.01	385.30
463.38	382.26
463.74	379.52
464.11	377.11
464.48	374.97
464.85	372.60
465.21	370.84
465.58	368.86
465.95	366.58
466.32	364.77
466.68	362.98
467.05	361.18
467.42	359.43
467.78	357.52
468.15	355.76
468.52	354.50
468.88	352.78
469.25	351.21
469.62	349.97
469.98	348.61
470.35	347.40
470.72	346.32
471.08	345.20
471.45	344.27
471.82	343.24
472.18	342.12
472.55	341.41
472.92	340.51
473.28	339.80
473.65	339.03
474.02	338.31
474.38	337.71
474.75	337.38
475.11	336.89
475.48	336.67
475.85	336.44
476.21	336.31
476.58	336.24
476.94	336.37
477.31	336.45
477.67	336.53
478.04	336.72
478.41	337.01
478.77	337.43
479.14	337.69
479.50	338.19
479.87	338.83
480.23	339.48
480.60	340.10
480.96	340.74
481.33	341.67
481.69	342.60
482.06	343.53
482.42	344.39
482.79	345.45
483.15	346.68
483.52	348.08
483.88	349.42
484.25	350.85
484.61	352.35
484.98	353.98
485.34	355.83
485.71	357.75
486.07	359.79
486.44	361.82
486.80	364.09
487.17	366.45
487.53	369.04
487.90	371.74
488.26	374.69
488.62	377.79
488.99	380.91
489.35	384.19
489.72	387.74
490.08	391.47
490.44	395.34
490.81	399.34
491.17	403.46
491.54	407.89
491.90	412.46
492.26	417.36
492.63	422.48
492.99	427.82
493.36	433.33
493.72	439.14
494.08	445.10
494.45	451.44
494.81	458.03
495.17	464.79
495.54	471.94
495.90	479.36
496.26	486.98
496.63	494.83
496.99	503.00
497.35	511.55
497.72	520.38
498.08	529.42
498.44	538.78
498.80	548.67
499.17	558.82
499.53	569.26
499.89	580.10
500.26	591.13
500.62	602.46
500.98	614.41
501.34	626.54
501.71	639.18
502.07	652.01
502.43	665.36
502.79	678.92
503.16	692.95
503.52	707.18
503.88	721.83
504.24	736.94
504.60	752.25
504.97	768.05
505.33	784.25
505.69	801.34
506.05	818.72
506.41	836.05
506.78	853.62
507.14	871.71
507.50	890.19
507.86	909.04
508.22	928.12
508.59	947.06
508.95	966.85
509.31	987.37
509.67	1008.51
510.03	1029.65
510.39	1050.89
510.75	1072.33
511.12	1094.07
511.48	1115.90
511.84	1137.89
512.20	1160.32
512.56	1183.50
512.92	1206.74
513.28	1229.62
513.64	1252.84
514.00	1276.48
514.37	1300.36
514.73	1324.30
515.09	1348.20
515.45	1372.46
515.81	1396.80
516.17	1421.34
516.53	1445.33
516.89	1469.26
517.25	1493.45
517.61	1517.56
517.97	1542.14
518.33	1566.20
518.69	1590.21
519.05	1614.83
519.41	1639.67
519.77	1664.59
520.13	1688.93
520.49	1713.20
520.85	1737.87
521.21	1761.94
521.57	1786.51
521.93	1810.60
522.29	1835.13
522.65	1859.24
523.01	1883.31
523.37	1907.03
523.73	1931.47
524.09	1955.66
524.45	1979.63
524.81	2003.21
525.17	2026.65
525.53	2049.45
525.89	2072.79
526.25	2096.10
526.61	2118.39
526.97	2140.85
527.33	2163.39
527.68	2185.51
528.04	2206.88
528.40	2227.25
528.76	2248.23
529.12	2268.55
529.48	2288.48
529.84	2306.77
530.20	2325.68
530.56	2343.96
530.91	2362.44
531.27	2380.55
531.63	2397.85
531.99	2414.80
532.35	2431.07
532.71	2447.38
533.07	2464.43
533.42	2479.71
533.78	2495.98
534.14	2512.41
534.50	2527.75
534.86	2542.91
535.21	2556.25
535.57	2570.10
535.93	2583.76
536.29	2596.15
536.65	2608.57
537.00	2620.35
537.36	2632.98
537.72	2643.96
538.08	2654.70
538.44	2664.77
538.79	2674.38
539.15	2683.14
539.51	2691.47
539.87	2699.11
540.22	2705.02
540.58	2711.04
540.94	2718.26
541.29	2723.71
541.65	2727.51
542.01	2730.77
542.37	2733.33
542.72	2737.24
543.08	2739.45
543.44	2742.21
543.79	2743.86
544.15	2744.66
544.51	2745.90
544.87	2746.02
545.22	2745.43
545.58	2744.07
545.94	2742.81
546.29	2740.20
546.65	2737.74
547.01	2735.21
547.36	2733.39
547.72	2731.43
548.07	2727.82
548.43	2722.65
548.79	2716.77
549.14	2712.10
549.50	2707.56
549.86	2702.11
550.21	2695.52
550.57	2689.86
550.92	2681.97
551.28	2674.76
551.64	2667.75
551.99	2660.19
552.35	2652.01
552.70	2644.20
553.06	2636.68
553.41	2628.46
553.77	2620.05
554.13	2611.43
554.48	2601.93
554.84	2591.36
555.19	2581.45
555.55	2571.38
555.90	2561.36
556.26	2551.83
556.61	2541.20
556.97	2528.98
557.32	2517.28
557.68	2505.43
558.03	2493.51
558.39	2482.68
558.74	2472.07
559.10	2459.74
559.45	2447.77
559.81	2436.42
560.16	2424.32
560.52	2412.41
560.87	2400.81
561.23	2388.41
561.58	2376.25
561.94	2363.65
562.29	2350.41
562.64	2337.91
563.00	2325.11
563.35	2312.85
563.71	2300.25
564.06	2287.49
564.42	2275.50
564.77	2262.84
565.12	2250.17
565.48	2237.35
565.83	2224.59
566.19	2211.82
566.54	2199.07
566.89	2185.07
567.25	2171.35
567.60	2158.87
567.96	2145.54
568.31	2130.87
568.66	2117.06
569.02	2104.21
569.37	2091.36
569.72	2079.11
570.08	2065.44
570.43	2051.51
570.78	2037.18
571.14	2022.32
571.49	2008.20
571.84	1994.60
572.20	1979.72
572.55	1965.19
572.90	1950.34
573.26	1935.52
573.61	1920.23
573.96	1905.35
574.31	1890.83
574.67	1876.19
575.02	1860.67
575.37	1845.21
575.72	1830.63
576.08	1816.21
576.43	1800.70
576.78	1785.63
577.13	1770.85
577.49	1756.41
577.84	1742.51
578.19	1727.72
578.54	1713.10
578.90	1698.00
579.25	1682.77
579.60	1669.15
579.95	1655.29
580.30	1641.39
580.66	1627.24
581.01	1612.99
581.36	1598.81
581.71	1585.56
582.06	1572.16
582.42	1558.98
582.77	1545.81
583.12	1532.54
583.47	1519.24
583.82	1506.00
584.17	1492.42
584.53	1478.46
584.88	1464.90
585.23	1450.87
585.58	1437.79
585.93	1424.95
586.28	1412.79
586.63	1400.64
586.98	1387.95
587.34	1375.33
587.69	1362.45
588.04	1349.88
588.39	1337.73
588.74	1325.67
589.09	1313.39
589.44	1300.74
589.79	1288.76
590.14	1276.84
590.49	1264.90
590.84	1253.07
591.19	1241.70
591.54	1230.12
591.89	1218.69
592.25	1207.40
592.60	1195.85
592.95	1184.63
593.30	1173.60
593.65	1162.24
594.00	1150.97
594.35	1140.34
594.70	1129.35
595.05	1119.22
595.40	1108.96
595.75	1098.51
596.10	1088.63
596.45	1078.44
596.80	1068.57
597.15	1058.48
597.50	1048.58
597.85	1039.03
598.19	1029.32
598.54	1019.70
598.89	1010.51
599.24	1001.62
599.59	992.62
599.94	984.50
600.29	976.15
600.64	967.47
600.99	958.46
601.34	949.87
601.69	940.97
602.04	932.70
602.39	924.27
602.74	915.84
603.08	907.44
603.43	898.98
603.78	890.71
604.13	882.63
604.48	874.47
604.83	866.51
605.18	858.51
605.53	850.64
605.87	842.51
606.22	834.82
606.57	827.03
606.92	819.10
607.27	811.10
607.62	803.50
607.96	796.29
608.31	789.54
608.66	782.59
609.01	775.89
609.36	769.30
609.70	762.41
610.05	755.60
610.40	749.04
610.75	742.48
611.10	736.23
611.44	729.84
611.79	723.55
612.14	717.18
612.49	710.92
612.83	704.96
613.18	699.16
613.53	693.18
613.88	687.28
614.22	681.83
614.57	676.25
614.92	670.49
615.27	664.90
615.61	659.32
615.96	653.82
616.31	648.31
616.65	642.89
617.00	637.73
617.35	632.63
617.70	627.59
618.04	622.55
618.39	617.47
618.74	612.67
619.08	607.90
619.43	603.24
619.78	598.61
620.12	593.92
620.47	589.41
620.82	585.02
621.16	580.60
621.51	576.05
621.85	571.62
622.20	567.35
622.55	563.11
622.89	558.94
623.24	554.74
623.59	550.62
623.93	546.65
624.28	542.76
624.62	538.97
624.97	535.21
625.32	531.47
625.66	527.64
626.01	523.76
626.35	519.98
626.70	516.25
627.04	512.69
627.39	509.09
627.73	505.67
628.08	502.30
628.43	498.95
628.77	495.70
629.12	492.54
629.46	489.37
629.81	486.13
630.15	482.90
630.50	479.80
630.84	476.71
631.19	473.69
631.53	470.79
631.88	467.84
632.22	464.91
632.57	462.27
632.91	459.69
633.26	457.19
633.60	454.68
633.95	452.24
634.29	449.69
634.64	447.24
634.98	444.55
635.32	442.08
635.67	439.77
636.01	437.39
636.36	435.06
636.70	432.91
637.05	430.73
637.39	428.57
637.73	426.44
638.08	424.42
638.42	422.36
638.77	420.17
639.11	417.96
639.45	415.83
639.80	413.63
640.14	411.53
640.49	409.41
640.83	407.29
641.17	405.25
641.52	403.26
641.86	401.28
642.20	399.54
642.55	397.60
642.89	395.71
643.23	393.91
643.58	392.28
643.92	390.49
644.26	388.78
644.61	387.12
644.95	385.40
645.29	383.64
645.64	381.90
645.98	380.24
646.32	378.70
646.66	377.14
647.01	375.59
647.35	374.10
647.69	372.60
648.04	371.24
648.38	369.77
648.72	368.34
649.06	366.92
649.41	365.50
649.75	364.14
650.09	362.79
650.43	361.44
650.78	360.04
651.12	358.65
651.46	357.34
651.80	356.06
652.14	354.82
652.49	353.61
652.83	352.39
653.17	351.20
653.51	350.05
653.85	348.96
654.20	347.81
654.54	346.60
654.88	345.47
655.22	344.37
655.56	343.26
655.90	342.20
656.25	341.16
656.59	340.11
656.93	339.13
657.27	338.16
657.61	337.14
657.95	336.15
658.29	335.19
658.64	334.26
658.98	333.32
659.32	332.41
659.66	331.53
660.00	330.68
660.34	329.82
660.68	328.92
661.02	327.97
661.36	327.08
661.70	326.21
662.05	325.37
662.39	324.53
662.73	323.78
663.07	323.03
663.41	322.23
663.75	321.42
664.09	320.62
664.43	319.78
664.77	319.02
665.11	318.23
665.45	317.51
665.79	316.78
666.13	316.00
666.47	315.21
666.81	314.42
667.15	313.59
667.49	312.88
667.83	312.23
668.17	311.56
668.51	310.94
668.85	310.34
669.19	309.75
669.53	309.08
669.87	308.38
670.21	307.71
670.55	307.10
670.89	306.55
671.23	305.95
671.57	305.36
671.91	304.82
672.25	304.30
672.58	303.76
672.92	303.15
673.26	302.66
673.60	302.14
673.94	301.65
674.28	301.19
674.62	300.68
674.96	300.13
675.30	299.63
675.64	299.09
675.97	298.54
676.31	297.97
676.65	297.45
676.99	296.99
677.33	296.45
677.67	295.95
678.01	295.38
678.34	294.89
678.68	294.43
679.02	293.90
679.36	293.39
679.70	292.88
680.04	292.41
680.37	291.91
680.71	291.45
681.05	290.98
681.39	290.48
681.73	289.96
682.06	289.45
682.40	288.98
682.74	288.55
683.08	288.17
683.42	287.73
683.75	287.32
684.09	286.82
684.43	286.41
684.77	285.96
685.10	285.57
685.44	285.15
685.78	284.72
686.12	284.33
686.45	283.90
686.79	283.47
687.13	283.06
687.46	282.62
687.80	282.21
688.14	281.75
688.48	281.35
688.81	280.95
689.15	280.59
689.49	280.17
689.82	279.75
690.16	279.26
690.50	278.85
690.83	278.44
691.17	278.03
691.51	277.63
691.84	277.25
692.18	276.83
692.52	276.40
692.85	275.99
693.19	275.60
693.52	275.21
693.86	274.80
694.20	274.40
694.53	274.03
694.87	273.64
695.21	273.25
695.54	272.87
695.88	272.47
696.21	272.04
696.55	271.67
696.88	271.29
697.22	270.91
697.56	270.54
697.89	270.13
698.23	269.75
698.56	269.34
698.90	268.97
699.23	268.57
699.57	268.20
699.90	267.82
700.24	267.44
700.58	267.10
700.91	266.78
701.25	266.56
701.58	266.26
701.92	265.95
702.25	265.61
702.59	265.27
702.92	264.93
703.26	264.60
703.59	264.24
703.93	264.00
704.26	263.69
704.60	263.35
704.93	263.02
705.26	262.69
705.60	262.41
705.93	262.06
706.27	261.79
706.60	261.52
706.94	261.25
707.27	260.91
707.61	260.57
707.94	260.23
708.27	259.80
708.61	259.43
708.94	259.09
709.28	258.79
709.61	258.48
709.94	258.21
710.28	257.95
710.61	257.70
710.95	257.30
711.28	257.09
711.61	256.82
711.95	256.58
712.28	256.29
712.61	256.00
712.95	255.81
713.28	255.59
713.61	255.29
713.95	254.99
714.28	254.75
714.61	254.49
714.95	254.24
715.28	253.98
715.61	253.74
715.95	253.51
716.28	253.28
716.61	253.08
716.95	252.83
717.28	252.58
717.61	252.33
717.94	252.10
718.28	251.78
718.61	251.53
718.94	251.28
719.27	251.06
719.61	250.85
719.94	250.60
720.27	250.31
720.60	250.10
720.94	249.90
721.27	249.69
721.60	249.50
721.93	249.30
722.27	249.13
722.60	248.94
722.93	248.71
723.26	248.51
723.59	248.26
723.93	248.07
724.26	247.88
724.59	247.68
724.92	247.50
725.25	247.36
725.59	247.19
725.92	247.04
726.25	246.86
726.58	246.69
726.91	246.49
727.24	246.33
727.57	246.15
727.91	245.96
728.24	245.81
728.57	245.62
728.90	245.46
729.23	245.25
729.56	245.13
729.89	244.97
730.22	244.80
730.55	244.64
730.89	244.48
731.22	244.32
731.55	244.16
731.88	244.00
732.21	243.81
732.54	243.65
732.87	243.48
733.20	243.33
733.53	243.17
733.86	243.04
734.19	242.87
734.52	242.74
734.85	242.68
735.18	242.50
735.51	242.39
735.84	242.25
736.17	242.15
736.50	241.95
736.83	241.96
737.16	241.83
737.49	241.71
737.82	241.57
738.15	241.45
738.48	241.33
738.81	241.20
739.14	241.06
739.47	240.92
739.80	240.78
740.13	240.65
740.46	240.51
740.79	240.37
741.12	240.23
741.45	240.08
741.78	239.88
742.11	239.79
742.44	239.64
742.77	239.53
743.10	239.38
743.43	239.26
743.75	239.01
744.08	239.07
744.41	238.94
744.74	238.82
745.07	238.67
745.40	238.59
745.73	238.52
746.06	238.41
746.39	238.33
746.71	238.22
747.04	238.10
747.37	238.00
747.70	237.93
748.03	237.84
748.36	237.76
748.68	237.66
749.01	237.52
749.34	237.42
749.67	237.32
750.00	237.25
750.33	237.25
750.65	237.16
750.98	236.89
751.31	236.81
751.64	236.73
751.97	236.70
752.29	236.59
752.62	236.44
752.95	236.35
753.28	236.25
753.60	236.15
753.93	236.09
754.26	236.02
754.59	235.88
754.91	235.78
755.24	235.69
755.57	235.65
755.90	235.57
756.22	235.47
756.55	235.37
756.88	235.27
757.20	235.10
757.53	234.98
757.86	234.90
758.19	234.82
758.51	234.74
758.84	234.60
759.17	234.52
759.49	234.45
759.82	234.43
760.15	234.37
760.47	234.30
760.80	234.20
761.13	234.15
761.45	234.09
761.78	234.03
762.11	233.96
762.43	233.84
762.76	233.77
763.08	233.72
763.41	233.66
763.74	233.59
764.06	233.53
764.39	233.48
764.71	233.41
765.04	233.34
765.37	233.27
765.69	233.21
766.02	233.15
766.34	233.09
766.67	232.99
767.00	232.96
767.32	232.97
767.65	232.99
767.97	232.93
768.30	232.87
768.62	232.82
768.95	232.76
769.27	232.70
769.60	232.66
769.92	232.59
770.25	232.52
770.57	232.46
770.90	232.40
771.22	232.35
771.55	232.30
771.87	232.27
772.20	232.21
772.52	232.27
772.85	232.38
773.17	232.33
773.50	232.28
773.82	232.21
774.15	232.11
774.47	231.98
774.80	231.92
775.12	231.88
775.45	231.84
775.77	231.80
776.09	231.77
776.42	231.75
776.74	231.74
777.07	231.70
777.39	231.68
777.72	231.64
778.04	231.62
778.36	231.57
778.69	231.54
779.01	231.52
779.33	231.38
779.66	231.20
779.98	231.16
780.31	231.14
780.63	231.16
780.95	231.16
781.28	231.13
781.60	231.11
781.92	231.07
782.25	231.04
782.57	231.01
782.89	230.97
783.22	230.93
783.54	230.88
783.86	230.87
784.19	230.83
784.51	230.84
784.83	230.80
785.16	230.77
785.48	230.75
785.80	230.72
786.12	230.71
786.45	230.68
786.77	230.66
787.09	230.64
787.42	230.56
787.74	230.53
788.06	230.51
788.38	230.49
788.71	230.46
789.03	230.45
789.35	230.45
789.67	230.41
789.99	230.40
790.32	230.35
790.64	230.35
790.96	230.44
791.28	230.38
791.61	230.35
791.93	230.34
792.25	230.31
792.57	230.37
792.89	230.34
793.21	230.33
793.54	230.29
793.86	230.25
794.18	230.25
794.50	230.20
794.82	230.19
795.14	230.18
795.47	230.18
795.79	230.16
796.11	230.11
796.43	230.10
796.75	230.08
797.07	230.08
797.39	230.06
797.71	229.94
798.04	229.94
798.36	229.94
798.68	229.91
799.00	229.90
799.32	229.83
799.64	229.83
799.96	229.81
800.28	229.82
800.60	229.80
800.92	229.79
801.24	229.77
801.56	229.77
801.89	229.74
802.21	229.73
802.53	229.70
802.85	229.72
803.17	229.77
803.49	229.72
803.81	229.69
804.13	229.67
804.45	229.65
804.77	229.64
805.09	229.63
805.41	229.62
805.73	229.58
806.05	229.53
806.37	229.51
806.69	229.50
807.01	229.47
807.33	229.47
807.65	229.41
807.97	229.46
808.28	229.42
808.60	229.41
808.92	229.37
809.24	229.43
809.56	229.40
809.88	229.34
810.20	229.33
810.52	229.34
810.84	229.31
811.16	229.29
811.48	229.26
811.80	229.29
812.12	229.27
812.43	229.29
812.75	229.29
813.07	229.28
813.39	229.27
813.71	229.25
814.03	229.22
814.35	229.22
814.67	229.14
814.98	229.13
815.30	229.11
815.62	229.09
815.94	229.01
816.26	229.01
816.58	228.98
816.89	228.98
817.21	228.94
817.53	228.94
817.85	228.95
818.17	228.94
818.48	228.88
