SpectraSuite Data File
++++++++++++++++++++++++++++++++++++
Date: Fri Oct 02 19:13:05 EDT 2015
User: lab3
Dark Spectrum Present: No
Reference Spectrum Present: No
Number of Sampled Component Spectra: 1
Spectrometers: USB2E7196
Integration Time (usec): 46000 (USB2E7196)
Spectra Averaged: 1500 (USB2E7196)
Boxcar Smoothing: 10 (USB2E7196)
Correct for Electrical Dark: No (USB2E7196)
Strobe/Lamp Enabled: No (USB2E7196)
Correct for Detector Non-linearity: No (USB2E7196)
Correct for Stray Light: No (USB2E7196)
Number of Pixels in Processed Spectrum: 2048
>>>>>Begin Processed Spectral Data<<<<<
339.09	0.00
339.48	215.38
339.86	216.94
340.24	218.19
340.63	219.72
341.01	222.68
341.39	222.33
341.78	223.76
342.16	225.04
342.54	225.25
342.93	213.74
343.31	224.55
343.69	225.09
344.07	225.54
344.46	225.97
344.84	226.36
345.22	226.59
345.60	226.84
345.99	227.04
346.37	227.16
346.75	227.27
347.13	227.35
347.52	227.42
347.90	227.51
348.28	227.54
348.66	227.59
349.05	227.59
349.43	227.64
349.81	227.70
350.19	227.75
350.57	227.82
350.96	227.88
351.34	227.96
351.72	228.04
352.10	228.15
352.48	228.22
352.87	228.27
353.25	228.33
353.63	228.38
354.01	228.44
354.39	228.51
354.77	228.59
355.15	228.69
355.54	228.74
355.92	228.76
356.30	228.83
356.68	228.98
357.06	229.06
357.44	229.10
357.82	229.16
358.20	229.27
358.58	229.33
358.97	229.40
359.35	229.49
359.73	229.58
360.11	229.63
360.49	229.69
360.87	229.74
361.25	229.81
361.63	229.90
362.01	229.96
362.39	229.99
362.77	230.03
363.15	230.06
363.53	230.09
363.91	230.13
364.29	230.16
364.67	230.06
365.05	230.09
365.43	230.12
365.81	230.15
366.19	230.16
366.57	230.23
366.95	230.22
367.33	230.21
367.71	230.20
368.09	230.22
368.47	230.20
368.85	230.20
369.23	230.22
369.61	230.15
369.99	230.17
370.37	230.17
370.75	230.25
371.13	230.21
371.51	230.17
371.89	230.16
372.27	230.14
372.65	230.13
373.03	230.08
373.41	230.04
373.78	229.98
374.16	229.89
374.54	229.80
374.92	229.75
375.30	229.70
375.68	229.64
376.06	229.59
376.44	229.54
376.82	229.50
377.19	229.45
377.57	229.42
377.95	229.33
378.33	229.28
378.71	229.11
379.09	229.07
379.47	229.04
379.84	228.97
380.22	228.91
380.60	228.83
380.98	228.78
381.36	228.74
381.73	228.69
382.11	228.66
382.49	228.62
382.87	228.57
383.25	228.52
383.62	228.62
384.00	228.55
384.38	228.51
384.76	228.49
385.13	228.48
385.51	228.43
385.89	228.38
386.27	228.35
386.64	228.33
387.02	228.29
387.40	228.24
387.78	228.21
388.15	228.19
388.53	228.16
388.91	228.13
389.29	228.08
389.66	228.06
390.04	228.02
390.42	228.02
390.79	228.00
391.17	227.97
391.55	227.82
391.92	227.80
392.30	227.81
392.68	227.77
393.05	227.74
393.43	227.75
393.81	227.76
394.18	227.74
394.56	227.74
394.94	227.77
395.31	227.76
395.69	227.81
396.06	227.84
396.44	227.86
396.82	227.88
397.19	227.97
397.57	227.99
397.95	228.04
398.32	228.03
398.70	228.08
399.07	228.15
399.45	228.19
399.82	228.24
400.20	228.27
400.58	228.33
400.95	228.34
401.33	228.41
401.70	228.56
402.08	228.66
402.45	228.74
402.83	228.85
403.20	228.95
403.58	229.03
403.95	229.17
404.33	229.31
404.71	229.45
405.08	229.65
405.46	229.80
405.83	229.98
406.21	230.16
406.58	230.37
406.96	230.58
407.33	230.83
407.70	231.10
408.08	231.47
408.45	231.79
408.83	232.15
409.20	232.47
409.58	232.76
409.95	233.15
410.33	233.58
410.70	233.98
411.08	234.46
411.45	234.96
411.82	235.46
412.20	236.04
412.57	236.73
412.95	237.26
413.32	237.97
413.69	238.68
414.07	239.45
414.44	240.28
414.82	241.11
415.19	242.11
415.56	243.12
415.94	244.15
416.31	245.32
416.68	246.49
417.06	247.84
417.43	249.11
417.81	250.58
418.18	252.06
418.55	253.69
418.93	255.38
419.30	257.15
419.67	259.02
420.04	260.95
420.42	262.94
420.79	265.27
421.16	267.61
421.54	270.01
421.91	272.49
422.28	275.06
422.66	277.85
423.03	280.49
423.40	283.27
423.77	286.25
424.15	289.30
424.52	292.47
424.89	295.91
425.26	299.34
425.64	302.50
426.01	306.07
426.38	309.72
426.75	313.49
427.13	317.36
427.50	321.40
427.87	325.60
428.24	329.85
428.61	333.92
428.99	338.34
429.36	343.15
429.73	347.77
430.10	352.41
430.47	357.16
430.85	362.04
431.22	367.27
431.59	372.66
431.96	377.92
432.33	383.75
432.70	389.31
433.08	395.87
433.45	402.09
433.82	408.22
434.19	415.05
434.56	421.78
434.93	428.29
435.30	434.74
435.68	442.03
436.05	449.16
436.42	456.26
436.79	462.74
437.16	469.75
437.53	477.25
437.90	484.73
438.27	492.05
438.64	499.93
439.01	507.11
439.38	513.65
439.75	519.95
440.13	527.06
440.50	533.80
440.87	539.14
441.24	544.97
441.61	551.35
441.98	555.99
442.35	561.49
442.72	567.09
443.09	572.41
443.46	575.73
443.83	578.16
444.20	580.14
444.57	583.16
444.94	584.80
445.31	586.52
445.68	587.97
446.05	588.98
446.42	588.47
446.79	587.78
447.16	587.14
447.53	586.55
447.90	584.11
448.27	581.78
448.64	578.32
449.01	575.86
449.37	571.14
449.74	566.83
450.11	561.35
450.48	555.38
450.85	549.40
451.22	544.29
451.59	539.28
451.96	534.77
452.33	528.26
452.70	522.47
453.07	515.43
453.43	508.43
453.80	501.64
454.17	495.16
454.54	489.20
454.91	482.49
455.28	476.20
455.65	470.27
456.02	464.04
456.38	459.01
456.75	452.54
457.12	447.35
457.49	442.11
457.86	437.17
458.23	432.86
458.59	428.08
458.96	423.19
459.33	418.91
459.70	414.54
460.07	411.23
460.43	407.33
460.80	403.70
461.17	400.54
461.54	397.12
461.91	393.95
462.27	390.69
462.64	388.08
463.01	385.06
463.38	382.02
463.74	379.27
464.11	376.86
464.48	374.70
464.85	372.33
465.21	370.55
465.58	368.56
465.95	366.27
466.32	364.45
466.68	362.65
467.05	360.86
467.42	359.09
467.78	357.18
468.15	355.43
468.52	354.18
468.88	352.46
469.25	350.90
469.62	349.65
469.98	348.31
470.35	347.10
470.72	346.02
471.08	344.90
471.45	343.97
471.82	342.92
472.18	341.82
472.55	341.10
472.92	340.20
473.28	339.49
473.65	338.73
474.02	338.02
474.38	337.42
474.75	337.06
475.11	336.58
475.48	336.37
475.85	336.12
476.21	335.98
476.58	335.90
476.94	336.03
477.31	336.09
477.67	336.17
478.04	336.36
478.41	336.64
478.77	337.05
479.14	337.30
479.50	337.79
479.87	338.43
480.23	339.08
480.60	339.71
480.96	340.35
481.33	341.29
481.69	342.22
482.06	343.16
482.42	344.02
482.79	345.07
483.15	346.30
483.52	347.70
483.88	349.03
484.25	350.46
484.61	351.96
484.98	353.58
485.34	355.40
485.71	357.33
486.07	359.36
486.44	361.39
486.80	363.66
487.17	366.02
487.53	368.59
487.90	371.31
488.26	374.24
488.62	377.34
488.99	380.45
489.35	383.74
489.72	387.30
490.08	391.04
490.44	394.91
490.81	398.93
491.17	403.04
491.54	407.45
491.90	412.06
492.26	416.95
492.63	422.08
492.99	427.40
493.36	432.94
493.72	438.77
494.08	444.74
494.45	451.08
494.81	457.66
495.17	464.44
495.54	471.56
495.90	479.00
496.26	486.61
496.63	494.45
496.99	502.60
497.35	511.11
497.72	519.93
498.08	528.93
498.44	538.28
498.80	548.19
499.17	558.34
499.53	568.74
499.89	579.55
500.26	590.58
500.62	601.93
500.98	613.85
501.34	625.97
501.71	638.61
502.07	651.45
502.43	664.83
502.79	678.38
503.16	692.39
503.52	706.62
503.88	721.26
504.24	736.34
504.60	751.62
504.97	767.40
505.33	783.60
505.69	800.69
506.05	818.07
506.41	835.40
506.78	852.92
507.14	870.99
507.50	889.49
507.86	908.34
508.22	927.41
508.59	946.38
508.95	966.12
509.31	986.58
509.67	1007.71
510.03	1028.83
510.39	1050.03
510.75	1071.47
511.12	1093.16
511.48	1114.99
511.84	1136.94
512.20	1159.31
512.56	1182.56
512.92	1205.82
513.28	1228.68
513.64	1251.88
514.00	1275.51
514.37	1299.44
514.73	1323.40
515.09	1347.26
515.45	1371.47
515.81	1395.76
516.17	1420.26
516.53	1444.26
516.89	1468.20
517.25	1492.33
517.61	1516.39
517.97	1540.95
518.33	1565.03
518.69	1589.09
519.05	1613.67
519.41	1638.53
519.77	1663.56
520.13	1687.89
520.49	1712.18
520.85	1736.84
521.21	1760.99
521.57	1785.53
521.93	1809.68
522.29	1834.28
522.65	1858.38
523.01	1882.45
523.37	1906.25
523.73	1930.67
524.09	1954.90
524.45	1978.90
524.81	2002.54
525.17	2025.99
525.53	2048.92
525.89	2072.32
526.25	2095.66
526.61	2118.00
526.97	2140.49
527.33	2162.99
527.68	2185.20
528.04	2206.64
528.40	2227.17
528.76	2248.14
529.12	2268.60
529.48	2288.57
529.84	2306.86
530.20	2325.84
530.56	2344.22
530.91	2362.80
531.27	2381.01
531.63	2398.38
531.99	2415.37
532.35	2431.70
532.71	2448.21
533.07	2465.31
533.42	2480.64
533.78	2497.00
534.14	2513.60
534.50	2529.22
534.86	2544.62
535.21	2558.08
535.57	2572.02
535.93	2585.78
536.29	2598.25
536.65	2610.67
537.00	2622.56
537.36	2635.30
537.72	2646.50
538.08	2657.31
538.44	2667.44
538.79	2677.21
539.15	2686.12
539.51	2694.54
539.87	2702.30
540.22	2708.16
540.58	2714.11
540.94	2721.34
541.29	2726.93
541.65	2730.79
542.01	2733.98
542.37	2736.48
542.72	2740.37
543.08	2742.56
543.44	2745.32
543.79	2747.04
544.15	2747.91
544.51	2749.18
544.87	2749.37
545.22	2748.89
545.58	2747.70
545.94	2746.50
546.29	2743.94
546.65	2741.40
547.01	2738.98
547.36	2737.23
547.72	2735.55
548.07	2732.09
548.43	2727.05
548.79	2721.12
549.14	2716.55
549.50	2712.11
549.86	2706.75
550.21	2700.26
550.57	2694.75
550.92	2686.93
551.28	2679.73
551.64	2672.80
551.99	2665.35
552.35	2657.15
552.70	2649.26
553.06	2641.62
553.41	2633.35
553.77	2624.95
554.13	2616.46
554.48	2607.01
554.84	2596.38
555.19	2586.26
555.55	2576.22
555.90	2566.21
556.26	2556.74
556.61	2546.10
556.97	2533.81
557.32	2522.05
557.68	2510.23
558.03	2498.15
558.39	2487.26
558.74	2476.61
559.10	2464.24
559.45	2452.14
559.81	2440.76
560.16	2428.63
560.52	2416.80
560.87	2405.26
561.23	2392.81
561.58	2380.50
561.94	2367.91
562.29	2354.71
562.64	2342.19
563.00	2329.34
563.35	2316.95
563.71	2304.29
564.06	2291.46
564.42	2279.45
564.77	2266.84
565.12	2254.09
565.48	2241.27
565.83	2228.45
566.19	2215.74
566.54	2202.93
566.89	2189.01
567.25	2175.24
567.60	2162.84
567.96	2149.41
568.31	2134.66
568.66	2120.77
569.02	2107.98
569.37	2095.08
569.72	2082.76
570.08	2069.17
570.43	2055.24
570.78	2041.07
571.14	2026.22
571.49	2012.10
571.84	1998.50
572.20	1983.53
572.55	1968.90
572.90	1954.18
573.26	1939.43
573.61	1924.12
573.96	1909.31
574.31	1894.73
574.67	1880.14
575.02	1864.53
575.37	1849.12
575.72	1834.55
576.08	1820.19
576.43	1804.67
576.78	1789.59
577.13	1774.78
577.49	1760.26
577.84	1746.34
578.19	1731.50
578.54	1716.90
578.90	1701.72
579.25	1686.44
579.60	1672.88
579.95	1659.09
580.30	1645.16
580.66	1630.96
581.01	1616.74
581.36	1602.47
581.71	1589.22
582.06	1575.82
582.42	1562.67
582.77	1549.49
583.12	1536.28
583.47	1523.01
583.82	1509.83
584.17	1496.29
584.53	1482.40
584.88	1468.92
585.23	1454.98
585.58	1441.90
585.93	1428.98
586.28	1416.86
586.63	1404.76
586.98	1392.07
587.34	1379.51
587.69	1366.67
588.04	1354.15
588.39	1341.99
588.74	1329.97
589.09	1317.68
589.44	1305.01
589.79	1292.99
590.14	1281.08
590.49	1269.09
590.84	1257.20
591.19	1245.74
591.54	1234.12
591.89	1222.66
592.25	1211.35
592.60	1199.70
592.95	1188.44
593.30	1177.42
593.65	1166.08
594.00	1154.77
594.35	1144.09
594.70	1132.95
595.05	1122.68
595.40	1112.35
595.75	1101.84
596.10	1091.95
596.45	1081.76
596.80	1071.89
597.15	1061.78
597.50	1051.82
597.85	1042.26
598.19	1032.52
598.54	1022.86
598.89	1013.63
599.24	1004.73
599.59	995.64
599.94	987.51
600.29	979.17
600.64	970.46
600.99	961.38
601.34	952.75
601.69	943.80
602.04	935.52
602.39	927.05
602.74	918.62
603.08	910.18
603.43	901.69
603.78	893.39
604.13	885.26
604.48	877.06
604.83	869.10
605.18	861.03
605.53	853.14
605.87	845.04
606.22	837.30
606.57	829.43
606.92	821.49
607.27	813.46
607.62	805.76
607.96	798.53
608.31	791.76
608.66	784.75
609.01	778.00
609.36	771.37
609.70	764.53
610.05	757.66
610.40	751.10
610.75	744.45
611.10	738.17
611.44	731.73
611.79	725.40
612.14	718.96
612.49	712.64
612.83	706.60
613.18	700.71
613.53	694.71
613.88	688.79
614.22	683.27
614.57	677.64
614.92	671.87
615.27	666.24
615.61	660.62
615.96	655.10
616.31	649.61
616.65	644.16
617.00	638.92
617.35	633.78
617.70	628.68
618.04	623.63
618.39	618.51
618.74	613.66
619.08	608.86
619.43	604.19
619.78	599.53
620.12	594.82
620.47	590.30
620.82	585.86
621.16	581.43
621.51	576.89
621.85	572.43
622.20	568.14
622.55	563.86
622.89	559.69
623.24	555.47
623.59	551.30
623.93	547.30
624.28	543.39
624.62	539.58
624.97	535.80
625.32	532.01
625.66	528.18
626.01	524.29
626.35	520.48
626.70	516.73
627.04	513.17
627.39	509.56
627.73	506.09
628.08	502.71
628.43	499.34
628.77	496.06
629.12	492.88
629.46	489.72
629.81	486.45
630.15	483.20
630.50	480.07
630.84	476.96
631.19	473.93
631.53	471.00
631.88	468.05
632.22	465.11
632.57	462.46
632.91	459.85
633.26	457.33
633.60	454.83
633.95	452.37
634.29	449.82
634.64	447.35
634.98	444.69
635.32	442.17
635.67	439.86
636.01	437.46
636.36	435.13
636.70	432.94
637.05	430.74
637.39	428.56
637.73	426.40
638.08	424.38
638.42	422.31
638.77	420.12
639.11	417.87
639.45	415.71
639.80	413.49
640.14	411.36
640.49	409.24
640.83	407.07
641.17	405.02
641.52	403.01
641.86	401.02
642.20	399.23
642.55	397.29
642.89	395.38
643.23	393.56
643.58	391.91
643.92	390.12
644.26	388.39
644.61	386.73
644.95	385.02
645.29	383.23
645.64	381.48
645.98	379.80
646.32	378.25
646.66	376.69
647.01	375.14
647.35	373.65
647.69	372.11
648.04	370.75
648.38	369.28
648.72	367.84
649.06	366.40
649.41	364.97
649.75	363.61
650.09	362.23
650.43	360.88
650.78	359.46
651.12	358.09
651.46	356.77
651.80	355.48
652.14	354.21
652.49	353.00
652.83	351.76
653.17	350.57
653.51	349.41
653.85	348.32
654.20	347.17
654.54	345.94
654.88	344.81
655.22	343.70
655.56	342.56
655.90	341.50
656.25	340.46
656.59	339.40
656.93	338.41
657.27	337.44
657.61	336.41
657.95	335.40
658.29	334.40
658.64	333.47
658.98	332.51
659.32	331.58
659.66	330.69
660.00	329.82
660.34	328.95
660.68	328.05
661.02	327.10
661.36	326.18
661.70	325.33
662.05	324.48
662.39	323.64
662.73	322.90
663.07	322.14
663.41	321.35
663.75	320.55
664.09	319.75
664.43	318.92
664.77	318.16
665.11	317.38
665.45	316.64
665.79	315.90
666.13	315.13
666.47	314.35
666.81	313.56
667.15	312.74
667.49	312.03
667.83	311.37
668.17	310.69
668.51	310.07
668.85	309.45
669.19	308.88
669.53	308.19
669.87	307.49
670.21	306.82
670.55	306.19
670.89	305.63
671.23	305.03
671.57	304.44
671.91	303.90
672.25	303.39
672.58	302.86
672.92	302.24
673.26	301.73
673.60	301.23
673.94	300.72
674.28	300.27
674.62	299.77
674.96	299.21
675.30	298.71
675.64	298.17
675.97	297.62
676.31	297.03
676.65	296.51
676.99	296.06
677.33	295.53
677.67	295.03
678.01	294.45
678.34	293.97
678.68	293.52
679.02	292.98
679.36	292.46
679.70	291.94
680.04	291.48
680.37	291.01
680.71	290.54
681.05	290.10
681.39	289.60
681.73	289.08
682.06	288.58
682.40	288.11
682.74	287.70
683.08	287.31
683.42	286.88
683.75	286.48
684.09	285.99
684.43	285.57
684.77	285.13
685.10	284.77
685.44	284.35
685.78	283.92
686.12	283.54
686.45	283.13
686.79	282.70
687.13	282.31
687.46	281.86
687.80	281.46
688.14	281.00
688.48	280.63
688.81	280.23
689.15	279.88
689.49	279.45
689.82	279.03
690.16	278.56
690.50	278.15
690.83	277.75
691.17	277.34
691.51	276.94
691.84	276.55
692.18	276.13
692.52	275.72
692.85	275.31
693.19	274.93
693.52	274.54
693.86	274.15
694.20	273.76
694.53	273.40
694.87	273.00
695.21	272.62
695.54	272.23
695.88	271.84
696.21	271.41
696.55	271.05
696.88	270.68
697.22	270.33
697.56	269.96
697.89	269.54
698.23	269.18
698.56	268.78
698.90	268.42
699.23	268.03
699.57	267.64
699.90	267.26
700.24	266.87
700.58	266.54
700.91	266.23
701.25	265.99
701.58	265.69
701.92	265.38
702.25	265.05
702.59	264.70
702.92	264.38
703.26	264.05
703.59	263.70
703.93	263.45
704.26	263.13
704.60	262.79
704.93	262.46
705.26	262.13
705.60	261.86
705.93	261.51
706.27	261.24
706.60	260.98
706.94	260.73
707.27	260.39
707.61	260.07
707.94	259.72
708.27	259.28
708.61	258.92
708.94	258.58
709.28	258.27
709.61	257.97
709.94	257.69
710.28	257.41
710.61	257.17
710.95	256.78
711.28	256.58
711.61	256.30
711.95	256.06
712.28	255.79
712.61	255.48
712.95	255.29
713.28	255.08
713.61	254.77
713.95	254.46
714.28	254.21
714.61	253.94
714.95	253.69
715.28	253.44
715.61	253.20
715.95	252.98
716.28	252.74
716.61	252.52
716.95	252.27
717.28	252.03
717.61	251.78
717.94	251.54
718.28	251.22
718.61	250.99
718.94	250.74
719.27	250.51
719.61	250.32
719.94	250.05
720.27	249.75
720.60	249.54
720.94	249.33
721.27	249.12
721.60	248.94
721.93	248.71
722.27	248.54
722.60	248.34
722.93	248.13
723.26	247.93
723.59	247.70
723.93	247.51
724.26	247.32
724.59	247.11
724.92	246.93
725.25	246.79
725.59	246.60
725.92	246.44
726.25	246.27
726.58	246.08
726.91	245.90
727.24	245.75
727.57	245.58
727.91	245.38
728.24	245.22
728.57	245.03
728.90	244.89
729.23	244.68
729.56	244.56
729.89	244.39
730.22	244.21
730.55	244.04
730.89	243.88
731.22	243.71
731.55	243.56
731.88	243.39
732.21	243.21
732.54	243.05
732.87	242.89
733.20	242.75
733.53	242.60
733.86	242.45
734.19	242.28
734.52	242.15
734.85	242.10
735.18	241.93
735.51	241.82
735.84	241.68
736.17	241.58
736.50	241.38
736.83	241.39
737.16	241.27
737.49	241.15
737.82	241.01
738.15	240.90
738.48	240.77
738.81	240.64
739.14	240.50
739.47	240.36
739.80	240.22
740.13	240.10
740.46	239.95
740.79	239.81
741.12	239.69
741.45	239.54
741.78	239.35
742.11	239.26
742.44	239.10
742.77	238.99
743.10	238.85
743.43	238.73
743.75	238.48
744.08	238.55
744.41	238.42
744.74	238.31
745.07	238.17
745.40	238.09
745.73	238.03
746.06	237.92
746.39	237.83
746.71	237.72
747.04	237.60
747.37	237.51
747.70	237.43
748.03	237.33
748.36	237.25
748.68	237.15
749.01	237.02
749.34	236.93
749.67	236.83
750.00	236.75
750.33	236.75
750.65	236.67
750.98	236.38
751.31	236.29
751.64	236.20
751.97	236.18
752.29	236.07
752.62	235.92
752.95	235.84
753.28	235.73
753.60	235.64
753.93	235.59
754.26	235.50
754.59	235.37
754.91	235.27
755.24	235.16
755.57	235.13
755.90	235.05
756.22	234.94
756.55	234.84
756.88	234.72
757.20	234.55
757.53	234.43
757.86	234.35
758.19	234.28
758.51	234.19
758.84	234.05
759.17	233.95
759.49	233.88
759.82	233.86
760.15	233.80
760.47	233.72
760.80	233.60
761.13	233.56
761.45	233.49
761.78	233.42
762.11	233.37
762.43	233.23
762.76	233.15
763.08	233.10
763.41	233.04
763.74	233.00
764.06	232.94
764.39	232.89
764.71	232.83
765.04	232.75
765.37	232.69
765.69	232.63
766.02	232.57
766.34	232.50
766.67	232.39
767.00	232.36
767.32	232.37
767.65	232.40
767.97	232.32
768.30	232.28
768.62	232.24
768.95	232.17
769.27	232.11
769.60	232.08
769.92	232.01
770.25	231.95
770.57	231.88
770.90	231.83
771.22	231.76
771.55	231.71
771.87	231.67
772.20	231.63
772.52	231.69
772.85	231.80
773.17	231.78
773.50	231.73
773.82	231.66
774.15	231.56
774.47	231.44
774.80	231.39
775.12	231.35
775.45	231.30
775.77	231.28
776.09	231.26
776.42	231.22
776.74	231.23
777.07	231.19
777.39	231.16
777.72	231.11
778.04	231.09
778.36	231.06
778.69	231.02
779.01	231.00
779.33	230.87
779.66	230.69
779.98	230.65
780.31	230.63
780.63	230.66
780.95	230.65
781.28	230.61
781.60	230.57
781.92	230.53
782.25	230.50
782.57	230.48
782.89	230.43
783.22	230.40
783.54	230.35
783.86	230.33
784.19	230.31
784.51	230.33
784.83	230.29
785.16	230.26
785.48	230.24
785.80	230.21
786.12	230.19
786.45	230.17
786.77	230.16
787.09	230.13
787.42	230.06
787.74	230.04
788.06	230.02
788.38	230.01
788.71	229.99
789.03	229.97
789.35	229.96
789.67	229.93
789.99	229.92
790.32	229.89
790.64	229.87
790.96	229.96
791.28	229.90
791.61	229.88
791.93	229.86
792.25	229.83
792.57	229.90
792.89	229.86
793.21	229.85
793.54	229.81
793.86	229.78
794.18	229.76
794.50	229.72
794.82	229.70
795.14	229.70
795.47	229.70
795.79	229.69
796.11	229.65
796.43	229.62
796.75	229.60
797.07	229.60
797.39	229.59
797.71	229.46
798.04	229.45
798.36	229.44
798.68	229.42
799.00	229.41
799.32	229.34
799.64	229.34
799.96	229.32
800.28	229.33
800.60	229.31
800.92	229.30
801.24	229.28
801.56	229.27
801.89	229.24
802.21	229.23
802.53	229.19
802.85	229.21
803.17	229.26
803.49	229.22
803.81	229.19
804.13	229.16
804.45	229.13
804.77	229.13
805.09	229.11
805.41	229.08
805.73	229.05
806.05	228.99
806.37	228.97
806.69	228.95
807.01	228.92
807.33	228.92
807.65	228.86
807.97	228.91
808.28	228.88
808.60	228.87
808.92	228.83
809.24	228.89
809.56	228.86
809.88	228.79
810.20	228.78
810.52	228.79
810.84	228.77
811.16	228.76
811.48	228.73
811.80	228.77
812.12	228.75
812.43	228.77
812.75	228.77
813.07	228.76
813.39	228.76
813.71	228.73
814.03	228.70
814.35	228.70
814.67	228.63
814.98	228.61
815.30	228.60
815.62	228.57
815.94	228.48
816.26	228.49
816.58	228.45
816.89	228.46
817.21	228.41
817.53	228.41
817.85	228.40
818.17	228.39
818.48	228.33
