SpectraSuite Data File
++++++++++++++++++++++++++++++++++++
Date: Fri Oct 02 18:30:41 EDT 2015
User: lab3
Dark Spectrum Present: No
Reference Spectrum Present: No
Number of Sampled Component Spectra: 1
Spectrometers: USB2E7196
Integration Time (usec): 46000 (USB2E7196)
Spectra Averaged: 1500 (USB2E7196)
Boxcar Smoothing: 10 (USB2E7196)
Correct for Electrical Dark: No (USB2E7196)
Strobe/Lamp Enabled: No (USB2E7196)
Correct for Detector Non-linearity: No (USB2E7196)
Correct for Stray Light: No (USB2E7196)
Number of Pixels in Processed Spectrum: 2048
>>>>>Begin Processed Spectral Data<<<<<
339.09	0.00
339.48	215.39
339.86	216.90
340.24	218.39
340.63	219.58
341.01	222.79
341.39	222.42
341.78	223.75
342.16	224.90
342.54	225.23
342.93	213.80
343.31	224.60
343.69	225.14
344.07	225.61
344.46	226.04
344.84	226.43
345.22	226.66
345.60	226.92
345.99	227.11
346.37	227.25
346.75	227.36
347.13	227.44
347.52	227.50
347.90	227.60
348.28	227.63
348.66	227.70
349.05	227.69
349.43	227.74
349.81	227.79
350.19	227.83
350.57	227.90
350.96	227.97
351.34	228.06
351.72	228.14
352.10	228.24
352.48	228.32
352.87	228.38
353.25	228.44
353.63	228.50
354.01	228.57
354.39	228.64
354.77	228.72
355.15	228.83
355.54	228.88
355.92	228.91
356.30	228.99
356.68	229.13
357.06	229.21
357.44	229.25
357.82	229.32
358.20	229.44
358.58	229.50
358.97	229.57
359.35	229.66
359.73	229.74
360.11	229.79
360.49	229.84
360.87	229.89
361.25	229.95
361.63	230.03
362.01	230.08
362.39	230.11
362.77	230.16
363.15	230.18
363.53	230.21
363.91	230.24
364.29	230.26
364.67	230.15
365.05	230.17
365.43	230.21
365.81	230.23
366.19	230.24
366.57	230.29
366.95	230.29
367.33	230.25
367.71	230.25
368.09	230.27
368.47	230.26
368.85	230.24
369.23	230.25
369.61	230.19
369.99	230.21
370.37	230.21
370.75	230.29
371.13	230.26
371.51	230.21
371.89	230.19
372.27	230.17
372.65	230.16
373.03	230.12
373.41	230.08
373.78	230.03
374.16	229.93
374.54	229.85
374.92	229.79
375.30	229.75
375.68	229.68
376.06	229.63
376.44	229.57
376.82	229.52
377.19	229.47
377.57	229.42
377.95	229.32
378.33	229.27
378.71	229.10
379.09	229.05
379.47	229.02
379.84	228.95
380.22	228.89
380.60	228.82
380.98	228.77
381.36	228.71
381.73	228.65
382.11	228.62
382.49	228.59
382.87	228.54
383.25	228.50
383.62	228.61
384.00	228.55
384.38	228.52
384.76	228.51
385.13	228.50
385.51	228.46
385.89	228.41
386.27	228.38
386.64	228.37
387.02	228.32
387.40	228.27
387.78	228.25
388.15	228.23
388.53	228.19
388.91	228.16
389.29	228.13
389.66	228.12
390.04	228.09
390.42	228.09
390.79	228.08
391.17	228.06
391.55	227.91
391.92	227.89
392.30	227.89
392.68	227.85
393.05	227.84
393.43	227.84
393.81	227.84
394.18	227.82
394.56	227.81
394.94	227.85
395.31	227.85
395.69	227.90
396.06	227.92
396.44	227.95
396.82	227.97
397.19	228.06
397.57	228.07
397.95	228.12
398.32	228.11
398.70	228.16
399.07	228.23
399.45	228.27
399.82	228.30
400.20	228.33
400.58	228.40
400.95	228.41
401.33	228.49
401.70	228.64
402.08	228.74
402.45	228.82
402.83	228.93
403.20	229.05
403.58	229.13
403.95	229.26
404.33	229.41
404.71	229.54
405.08	229.75
405.46	229.90
405.83	230.06
406.21	230.24
406.58	230.45
406.96	230.65
407.33	230.89
407.70	231.16
408.08	231.53
408.45	231.85
408.83	232.20
409.20	232.52
409.58	232.80
409.95	233.19
410.33	233.61
410.70	234.01
411.08	234.48
411.45	234.98
411.82	235.48
412.20	236.05
412.57	236.75
412.95	237.27
413.32	237.97
413.69	238.69
414.07	239.46
414.44	240.28
414.82	241.13
415.19	242.13
415.56	243.14
415.94	244.18
416.31	245.34
416.68	246.51
417.06	247.87
417.43	249.13
417.81	250.60
418.18	252.10
418.55	253.72
418.93	255.41
419.30	257.18
419.67	259.04
420.04	260.95
420.42	262.94
420.79	265.26
421.16	267.60
421.54	269.98
421.91	272.47
422.28	275.03
422.66	277.80
423.03	280.44
423.40	283.20
423.77	286.15
424.15	289.19
424.52	292.36
424.89	295.77
425.26	299.18
425.64	302.34
426.01	305.89
426.38	309.53
426.75	313.28
427.13	317.13
427.50	321.17
427.87	325.37
428.24	329.61
428.61	333.66
428.99	338.06
429.36	342.88
429.73	347.49
430.10	352.11
430.47	356.82
430.85	361.68
431.22	366.91
431.59	372.30
431.96	377.53
432.33	383.34
432.70	388.89
433.08	395.44
433.45	401.63
433.82	407.71
434.19	414.54
434.56	421.26
434.93	427.73
435.30	434.13
435.68	441.38
436.05	448.46
436.42	455.52
436.79	461.98
437.16	468.94
437.53	476.38
437.90	483.83
438.27	491.12
438.64	498.97
439.01	506.08
439.38	512.58
439.75	518.84
440.13	525.91
440.50	532.62
440.87	537.94
441.24	543.75
441.61	550.11
441.98	554.70
442.35	560.15
442.72	565.74
443.09	571.03
443.46	574.35
443.83	576.75
444.20	578.74
444.57	581.74
444.94	583.37
445.31	585.09
445.68	586.50
446.05	587.49
446.42	586.98
446.79	586.28
447.16	585.65
447.53	585.07
447.90	582.65
448.27	580.32
448.64	576.86
449.01	574.41
449.37	569.70
449.74	565.44
450.11	559.99
450.48	554.02
450.85	548.08
451.22	542.99
451.59	538.03
451.96	533.52
452.33	527.04
452.70	521.31
453.07	514.32
453.43	507.37
453.80	500.63
454.17	494.19
454.54	488.28
454.91	481.60
455.28	475.35
455.65	469.48
456.02	463.27
456.38	458.26
456.75	451.84
457.12	446.67
457.49	441.46
457.86	436.55
458.23	432.28
458.59	427.53
458.96	422.67
459.33	418.39
459.70	414.06
460.07	410.79
460.43	406.91
460.80	403.29
461.17	400.15
461.54	396.73
461.91	393.56
462.27	390.32
462.64	387.73
463.01	384.70
463.38	381.66
463.74	378.93
464.11	376.54
464.48	374.39
464.85	372.04
465.21	370.27
465.58	368.30
465.95	366.02
466.32	364.21
466.68	362.43
467.05	360.65
467.42	358.89
467.78	356.99
468.15	355.24
468.52	353.99
468.88	352.29
469.25	350.73
469.62	349.51
469.98	348.16
470.35	346.97
470.72	345.88
471.08	344.77
471.45	343.83
471.82	342.79
472.18	341.67
472.55	340.96
472.92	340.05
473.28	339.33
473.65	338.57
474.02	337.85
474.38	337.24
474.75	336.88
475.11	336.39
475.48	336.15
475.85	335.90
476.21	335.77
476.58	335.68
476.94	335.81
477.31	335.89
477.67	335.98
478.04	336.16
478.41	336.45
478.77	336.86
479.14	337.12
479.50	337.62
479.87	338.26
480.23	338.89
480.60	339.51
480.96	340.15
481.33	341.10
481.69	342.02
482.06	342.95
482.42	343.81
482.79	344.87
483.15	346.10
483.52	347.50
483.88	348.84
484.25	350.29
484.61	351.78
484.98	353.38
485.34	355.19
485.71	357.11
486.07	359.14
486.44	361.16
486.80	363.43
487.17	365.78
487.53	368.36
487.90	371.06
488.26	374.01
488.62	377.09
488.99	380.19
489.35	383.45
489.72	386.99
490.08	390.71
490.44	394.57
490.81	398.57
491.17	402.68
491.54	407.10
491.90	411.65
492.26	416.52
492.63	421.64
492.99	426.97
493.36	432.49
493.72	438.29
494.08	444.26
494.45	450.58
494.81	457.14
495.17	463.89
495.54	471.02
495.90	478.43
496.26	486.02
496.63	493.86
496.99	502.03
497.35	510.56
497.72	519.37
498.08	528.38
498.44	537.71
498.80	547.59
499.17	557.72
499.53	568.16
499.89	578.98
500.26	589.99
500.62	601.31
500.98	613.25
501.34	625.37
501.71	637.99
502.07	650.82
502.43	664.18
502.79	677.72
503.16	691.71
503.52	705.93
503.88	720.59
504.24	735.67
504.60	750.93
504.97	766.72
505.33	782.90
505.69	799.98
506.05	817.36
506.41	834.66
506.78	852.20
507.14	870.25
507.50	888.72
507.86	907.56
508.22	926.61
508.59	945.50
508.95	965.22
509.31	985.68
509.67	1006.77
510.03	1027.86
510.39	1049.09
510.75	1070.54
511.12	1092.22
511.48	1114.04
511.84	1135.98
512.20	1158.37
512.56	1181.54
512.92	1204.75
513.28	1227.62
513.64	1250.83
514.00	1274.46
514.37	1298.33
514.73	1322.26
515.09	1346.06
515.45	1370.28
515.81	1394.60
516.17	1419.13
516.53	1443.15
516.89	1467.06
517.25	1491.19
517.61	1515.28
517.97	1539.82
518.33	1563.85
518.69	1587.86
519.05	1612.42
519.41	1637.23
519.77	1662.20
520.13	1686.52
520.49	1710.78
520.85	1735.44
521.21	1759.52
521.57	1784.10
521.93	1808.18
522.29	1832.81
522.65	1856.93
523.01	1880.98
523.37	1904.75
523.73	1929.18
524.09	1953.37
524.45	1977.42
524.81	2001.08
525.17	2024.56
525.53	2047.49
525.89	2070.90
526.25	2094.29
526.61	2116.64
526.97	2139.21
527.33	2161.77
527.68	2184.00
528.04	2205.50
528.40	2226.03
528.76	2247.02
529.12	2267.44
529.48	2287.48
529.84	2305.82
530.20	2324.87
530.56	2343.35
530.91	2361.91
531.27	2380.18
531.63	2397.60
531.99	2414.64
532.35	2431.00
532.71	2447.50
533.07	2464.60
533.42	2479.99
533.78	2496.40
534.14	2513.03
534.50	2528.59
534.86	2543.97
535.21	2557.45
535.57	2571.48
535.93	2585.29
536.29	2597.86
536.65	2610.39
537.00	2622.29
537.36	2635.05
537.72	2646.28
538.08	2657.10
538.44	2667.33
538.79	2677.11
539.15	2686.07
539.51	2694.57
539.87	2702.47
540.22	2708.48
540.58	2714.63
540.94	2721.95
541.29	2727.60
541.65	2731.52
542.01	2734.77
542.37	2737.44
542.72	2741.47
543.08	2743.74
543.44	2746.61
543.79	2748.42
544.15	2749.36
544.51	2750.79
544.87	2751.04
545.22	2750.55
545.58	2749.36
545.94	2748.20
546.29	2745.67
546.65	2743.25
547.01	2740.80
547.36	2739.05
547.72	2737.25
548.07	2733.77
548.43	2728.77
548.79	2722.93
549.14	2718.37
549.50	2714.05
549.86	2708.64
550.21	2702.11
550.57	2696.58
550.92	2688.72
551.28	2681.52
551.64	2674.56
551.99	2667.07
552.35	2658.91
552.70	2651.14
553.06	2643.58
553.41	2635.36
553.77	2626.99
554.13	2618.50
554.48	2609.10
554.84	2598.51
555.19	2588.53
555.55	2578.50
555.90	2568.47
556.26	2558.97
556.61	2548.38
556.97	2536.07
557.32	2524.35
557.68	2512.57
558.03	2500.53
558.39	2489.71
558.74	2479.10
559.10	2466.80
559.45	2454.76
559.81	2443.40
560.16	2431.22
560.52	2419.37
560.87	2407.80
561.23	2395.40
561.58	2383.11
561.94	2370.53
562.29	2357.29
562.64	2344.76
563.00	2331.89
563.35	2319.56
563.71	2306.95
564.06	2294.16
564.42	2282.21
564.77	2269.57
565.12	2256.82
565.48	2244.05
565.83	2231.23
566.19	2218.50
566.54	2205.70
566.89	2191.71
567.25	2177.90
567.60	2165.48
567.96	2152.11
568.31	2137.40
568.66	2123.43
569.02	2110.61
569.37	2097.65
569.72	2085.29
570.08	2071.65
570.43	2057.66
570.78	2043.41
571.14	2028.52
571.49	2014.32
571.84	2000.65
572.20	1985.70
572.55	1971.06
572.90	1956.24
573.26	1941.44
573.61	1926.13
573.96	1911.26
574.31	1896.69
574.67	1882.12
575.02	1866.49
575.37	1851.05
575.72	1836.40
576.08	1822.08
576.43	1806.51
576.78	1791.44
577.13	1776.63
577.49	1762.12
577.84	1748.26
578.19	1733.44
578.54	1718.80
578.90	1703.63
579.25	1688.36
579.60	1674.75
579.95	1660.97
580.30	1647.03
580.66	1632.83
581.01	1618.53
581.36	1604.23
581.71	1590.97
582.06	1577.51
582.42	1564.36
582.77	1551.18
583.12	1537.97
583.47	1524.66
583.82	1511.45
584.17	1497.88
584.53	1483.96
584.88	1470.40
585.23	1456.40
585.58	1443.27
585.93	1430.35
586.28	1418.22
586.63	1406.06
586.98	1393.37
587.34	1380.74
587.69	1367.81
588.04	1355.26
588.39	1343.12
588.74	1331.08
589.09	1318.79
589.44	1306.13
589.79	1294.11
590.14	1282.17
590.49	1270.15
590.84	1258.26
591.19	1246.83
591.54	1235.19
591.89	1223.72
592.25	1212.42
592.60	1200.78
592.95	1189.54
593.30	1178.49
593.65	1167.12
594.00	1155.85
594.35	1145.19
594.70	1134.12
595.05	1123.95
595.40	1113.62
595.75	1103.11
596.10	1093.21
596.45	1082.99
596.80	1073.09
597.15	1062.95
597.50	1052.97
597.85	1043.40
598.19	1033.68
598.54	1024.02
598.89	1014.79
599.24	1005.86
599.59	996.78
599.94	988.64
600.29	980.25
600.64	971.55
600.99	962.48
601.34	953.86
601.69	944.86
602.04	936.52
602.39	928.03
602.74	919.58
603.08	911.12
603.43	902.61
603.78	894.29
604.13	886.15
604.48	877.97
604.83	869.97
605.18	861.90
605.53	853.98
605.87	845.84
606.22	838.09
606.57	830.27
606.92	822.31
607.27	814.25
607.62	806.57
607.96	799.30
608.31	792.48
608.66	785.45
609.01	778.74
609.36	772.11
609.70	765.20
610.05	758.33
610.40	751.73
610.75	745.09
611.10	738.80
611.44	732.35
611.79	726.01
612.14	719.60
612.49	713.30
612.83	707.29
613.18	701.41
613.53	695.38
613.88	689.41
614.22	683.90
614.57	678.31
614.92	672.51
615.27	666.90
615.61	661.31
615.96	655.76
616.31	650.21
616.65	644.75
617.00	639.54
617.35	634.41
617.70	629.34
618.04	624.27
618.39	619.16
618.74	614.30
619.08	609.49
619.43	604.79
619.78	600.13
620.12	595.39
620.47	590.86
620.82	586.42
621.16	582.02
621.51	577.45
621.85	572.97
622.20	568.69
622.55	564.39
622.89	560.18
623.24	555.98
623.59	551.83
623.93	547.84
624.28	543.92
624.62	540.11
624.97	536.32
625.32	532.55
625.66	528.70
626.01	524.82
626.35	521.02
626.70	517.28
627.04	513.69
627.39	510.08
627.73	506.63
628.08	503.25
628.43	499.89
628.77	496.62
629.12	493.45
629.46	490.30
629.81	487.04
630.15	483.80
630.50	480.65
630.84	477.55
631.19	474.51
631.53	471.58
631.88	468.62
632.22	465.68
632.57	463.02
632.91	460.41
633.26	457.90
633.60	455.40
633.95	452.96
634.29	450.41
634.64	447.94
634.98	445.25
635.32	442.76
635.67	440.43
636.01	438.03
636.36	435.68
636.70	433.47
637.05	431.28
637.39	429.10
637.73	426.96
638.08	424.93
638.42	422.87
638.77	420.67
639.11	418.41
639.45	416.26
639.80	414.07
640.14	411.97
640.49	409.84
640.83	407.67
641.17	405.60
641.52	403.59
641.86	401.59
642.20	399.82
642.55	397.88
642.89	395.97
643.23	394.14
643.58	392.50
643.92	390.70
644.26	388.98
644.61	387.31
644.95	385.60
645.29	383.82
645.64	382.05
645.98	380.38
646.32	378.84
646.66	377.27
647.01	375.69
647.35	374.18
647.69	372.66
648.04	371.28
648.38	369.81
648.72	368.37
649.06	366.94
649.41	365.52
649.75	364.13
650.09	362.77
650.43	361.42
650.78	360.01
651.12	358.64
651.46	357.32
651.80	356.03
652.14	354.77
652.49	353.55
652.83	352.32
653.17	351.14
653.51	349.98
653.85	348.89
654.20	347.74
654.54	346.52
654.88	345.38
655.22	344.27
655.56	343.16
655.90	342.08
656.25	341.04
656.59	340.00
656.93	339.00
657.27	338.02
657.61	336.98
657.95	335.98
658.29	334.99
658.64	334.03
658.98	333.08
659.32	332.15
659.66	331.28
660.00	330.43
660.34	329.55
660.68	328.64
661.02	327.67
661.36	326.78
661.70	325.92
662.05	325.08
662.39	324.22
662.73	323.46
663.07	322.69
663.41	321.90
663.75	321.08
664.09	320.28
664.43	319.43
664.77	318.68
665.11	317.87
665.45	317.14
665.79	316.41
666.13	315.63
666.47	314.84
666.81	314.03
667.15	313.20
667.49	312.48
667.83	311.83
668.17	311.15
668.51	310.53
668.85	309.91
669.19	309.32
669.53	308.64
669.87	307.95
670.21	307.30
670.55	306.66
670.89	306.09
671.23	305.50
671.57	304.92
671.91	304.38
672.25	303.85
672.58	303.31
672.92	302.71
673.26	302.19
673.60	301.69
673.94	301.19
674.28	300.73
674.62	300.22
674.96	299.66
675.30	299.15
675.64	298.59
675.97	298.04
676.31	297.46
676.65	296.94
676.99	296.49
677.33	295.94
677.67	295.45
678.01	294.89
678.34	294.40
678.68	293.93
679.02	293.39
679.36	292.88
679.70	292.36
680.04	291.90
680.37	291.41
680.71	290.95
681.05	290.49
681.39	289.99
681.73	289.47
682.06	288.97
682.40	288.49
682.74	288.08
683.08	287.70
683.42	287.27
683.75	286.86
684.09	286.36
684.43	285.94
684.77	285.50
685.10	285.12
685.44	284.70
685.78	284.28
686.12	283.89
686.45	283.48
686.79	283.06
687.13	282.67
687.46	282.23
687.80	281.81
688.14	281.36
688.48	280.97
688.81	280.57
689.15	280.21
689.49	279.79
689.82	279.37
690.16	278.89
690.50	278.49
690.83	278.08
691.17	277.66
691.51	277.25
691.84	276.88
692.18	276.45
692.52	276.02
692.85	275.62
693.19	275.25
693.52	274.84
693.86	274.44
694.20	274.05
694.53	273.67
694.87	273.26
695.21	272.86
695.54	272.47
695.88	272.09
696.21	271.67
696.55	271.28
696.88	270.90
697.22	270.53
697.56	270.14
697.89	269.72
698.23	269.35
698.56	268.95
698.90	268.57
699.23	268.18
699.57	267.80
699.90	267.41
700.24	267.03
700.58	266.69
700.91	266.38
701.25	266.15
701.58	265.86
701.92	265.55
702.25	265.24
702.59	264.88
702.92	264.54
703.26	264.20
703.59	263.84
703.93	263.60
704.26	263.27
704.60	262.94
704.93	262.61
705.26	262.26
705.60	261.99
705.93	261.64
706.27	261.37
706.60	261.10
706.94	260.82
707.27	260.47
707.61	260.13
707.94	259.78
708.27	259.34
708.61	258.96
708.94	258.63
709.28	258.32
709.61	258.00
709.94	257.73
710.28	257.45
710.61	257.21
710.95	256.84
711.28	256.64
711.61	256.37
711.95	256.12
712.28	255.84
712.61	255.54
712.95	255.35
713.28	255.14
713.61	254.84
713.95	254.54
714.28	254.29
714.61	254.02
714.95	253.77
715.28	253.53
715.61	253.29
715.95	253.06
716.28	252.83
716.61	252.64
716.95	252.39
717.28	252.15
717.61	251.89
717.94	251.66
718.28	251.34
718.61	251.11
718.94	250.87
719.27	250.66
719.61	250.46
719.94	250.21
720.27	249.90
720.60	249.70
720.94	249.48
721.27	249.29
721.60	249.11
721.93	248.89
722.27	248.71
722.60	248.51
722.93	248.30
723.26	248.09
723.59	247.85
723.93	247.65
724.26	247.45
724.59	247.25
724.92	247.07
725.25	246.93
725.59	246.74
725.92	246.57
726.25	246.39
726.58	246.19
726.91	246.01
727.24	245.85
727.57	245.67
727.91	245.49
728.24	245.34
728.57	245.15
728.90	244.99
729.23	244.79
729.56	244.68
729.89	244.51
730.22	244.33
730.55	244.17
730.89	244.00
731.22	243.84
731.55	243.69
731.88	243.52
732.21	243.34
732.54	243.17
732.87	243.03
733.20	242.87
733.53	242.72
733.86	242.58
734.19	242.41
734.52	242.27
734.85	242.22
735.18	242.04
735.51	241.93
735.84	241.79
736.17	241.69
736.50	241.48
736.83	241.49
737.16	241.36
737.49	241.24
737.82	241.11
738.15	241.00
738.48	240.86
738.81	240.73
739.14	240.58
739.47	240.44
739.80	240.30
740.13	240.19
740.46	240.04
740.79	239.90
741.12	239.78
741.45	239.63
741.78	239.42
742.11	239.34
742.44	239.19
742.77	239.08
743.10	238.93
743.43	238.82
743.75	238.57
744.08	238.64
744.41	238.52
744.74	238.40
745.07	238.25
745.40	238.16
745.73	238.11
746.06	238.01
746.39	237.92
746.71	237.81
747.04	237.69
747.37	237.60
747.70	237.51
748.03	237.41
748.36	237.34
748.68	237.25
749.01	237.11
749.34	237.02
749.67	236.92
750.00	236.84
750.33	236.83
750.65	236.74
750.98	236.46
751.31	236.37
751.64	236.28
751.97	236.26
752.29	236.16
752.62	236.01
752.95	235.91
753.28	235.80
753.60	235.70
753.93	235.64
754.26	235.56
754.59	235.42
754.91	235.32
755.24	235.22
755.57	235.19
755.90	235.10
756.22	235.00
756.55	234.89
756.88	234.78
757.20	234.62
757.53	234.50
757.86	234.41
758.19	234.34
758.51	234.25
758.84	234.11
759.17	234.01
759.49	233.94
759.82	233.94
760.15	233.88
760.47	233.81
760.80	233.70
761.13	233.65
761.45	233.60
761.78	233.53
762.11	233.46
762.43	233.32
762.76	233.26
763.08	233.21
763.41	233.15
763.74	233.10
764.06	233.03
764.39	232.98
764.71	232.93
765.04	232.86
765.37	232.80
765.69	232.74
766.02	232.69
766.34	232.62
766.67	232.51
767.00	232.48
767.32	232.49
767.65	232.51
767.97	232.44
768.30	232.39
768.62	232.35
768.95	232.29
769.27	232.25
769.60	232.23
769.92	232.15
770.25	232.08
770.57	232.01
770.90	231.96
771.22	231.89
771.55	231.84
771.87	231.80
772.20	231.75
772.52	231.83
772.85	231.94
773.17	231.90
773.50	231.84
773.82	231.77
774.15	231.68
774.47	231.57
774.80	231.52
775.12	231.47
775.45	231.43
775.77	231.40
776.09	231.36
776.42	231.33
776.74	231.33
777.07	231.30
777.39	231.27
777.72	231.22
778.04	231.22
778.36	231.17
778.69	231.14
779.01	231.12
779.33	230.97
779.66	230.79
779.98	230.75
780.31	230.73
780.63	230.74
780.95	230.73
781.28	230.69
781.60	230.65
781.92	230.62
782.25	230.60
782.57	230.57
782.89	230.54
783.22	230.50
783.54	230.45
783.86	230.42
784.19	230.40
784.51	230.41
784.83	230.37
785.16	230.34
785.48	230.31
785.80	230.28
786.12	230.27
786.45	230.25
786.77	230.23
787.09	230.20
787.42	230.14
787.74	230.12
788.06	230.11
788.38	230.08
788.71	230.05
789.03	230.03
789.35	230.02
789.67	229.98
789.99	229.97
790.32	229.93
790.64	229.92
790.96	230.02
791.28	229.95
791.61	229.93
791.93	229.92
792.25	229.90
792.57	229.97
792.89	229.93
793.21	229.92
793.54	229.87
793.86	229.85
794.18	229.83
794.50	229.78
794.82	229.76
795.14	229.76
795.47	229.76
795.79	229.74
796.11	229.69
796.43	229.68
796.75	229.65
797.07	229.65
797.39	229.63
797.71	229.50
798.04	229.49
798.36	229.48
798.68	229.45
799.00	229.44
799.32	229.36
799.64	229.37
799.96	229.35
800.28	229.36
800.60	229.33
800.92	229.32
801.24	229.30
801.56	229.30
801.89	229.28
802.21	229.27
802.53	229.23
802.85	229.24
803.17	229.28
803.49	229.24
803.81	229.21
804.13	229.18
804.45	229.16
804.77	229.15
805.09	229.13
805.41	229.12
805.73	229.07
806.05	229.02
806.37	228.99
806.69	228.96
807.01	228.93
807.33	228.92
807.65	228.87
807.97	228.91
808.28	228.88
808.60	228.85
808.92	228.81
809.24	228.88
809.56	228.84
809.88	228.79
810.20	228.79
810.52	228.82
810.84	228.79
811.16	228.76
811.48	228.73
811.80	228.76
812.12	228.75
812.43	228.77
812.75	228.77
813.07	228.75
813.39	228.75
813.71	228.73
814.03	228.70
814.35	228.69
814.67	228.63
814.98	228.62
815.30	228.61
815.62	228.59
815.94	228.49
816.26	228.50
816.58	228.47
816.89	228.47
817.21	228.43
817.53	228.44
817.85	228.43
818.17	228.43
818.48	228.37
