SpectraSuite Data File
++++++++++++++++++++++++++++++++++++
Date: Fri Oct 02 17:27:21 EDT 2015
User: lab3
Dark Spectrum Present: No
Reference Spectrum Present: No
Number of Sampled Component Spectra: 1
Spectrometers: USB2E7196
Integration Time (usec): 46000 (USB2E7196)
Spectra Averaged: 600 (USB2E7196)
Boxcar Smoothing: 10 (USB2E7196)
Correct for Electrical Dark: No (USB2E7196)
Strobe/Lamp Enabled: No (USB2E7196)
Correct for Detector Non-linearity: No (USB2E7196)
Correct for Stray Light: No (USB2E7196)
Number of Pixels in Processed Spectrum: 2048
>>>>>Begin Processed Spectral Data<<<<<
339.09	0.00
339.48	215.21
339.86	216.78
340.24	217.94
340.63	219.41
341.01	222.62
341.39	222.16
341.78	223.26
342.16	224.73
342.54	225.19
342.93	213.55
343.31	224.34
343.69	224.87
344.07	225.35
344.46	225.79
344.84	226.17
345.22	226.40
345.60	226.65
345.99	226.86
346.37	226.99
346.75	227.11
347.13	227.21
347.52	227.28
347.90	227.37
348.28	227.41
348.66	227.47
349.05	227.47
349.43	227.52
349.81	227.58
350.19	227.65
350.57	227.72
350.96	227.78
351.34	227.87
351.72	227.98
352.10	228.07
352.48	228.15
352.87	228.21
353.25	228.26
353.63	228.32
354.01	228.39
354.39	228.47
354.77	228.55
355.15	228.63
355.54	228.68
355.92	228.69
356.30	228.77
356.68	228.91
357.06	228.99
357.44	229.04
357.82	229.08
358.20	229.20
358.58	229.25
358.97	229.32
359.35	229.40
359.73	229.49
360.11	229.53
360.49	229.58
360.87	229.61
361.25	229.68
361.63	229.77
362.01	229.81
362.39	229.84
362.77	229.87
363.15	229.91
363.53	229.94
363.91	229.98
364.29	230.00
364.67	229.90
365.05	229.91
365.43	229.94
365.81	229.98
366.19	229.99
366.57	230.05
366.95	230.06
367.33	230.02
367.71	229.99
368.09	230.01
368.47	229.99
368.85	230.00
369.23	230.01
369.61	229.94
369.99	229.95
370.37	229.94
370.75	230.02
371.13	229.98
371.51	229.95
371.89	229.92
372.27	229.90
372.65	229.90
373.03	229.86
373.41	229.82
373.78	229.76
374.16	229.66
374.54	229.58
374.92	229.53
375.30	229.50
375.68	229.43
376.06	229.39
376.44	229.33
376.82	229.28
377.19	229.24
377.57	229.20
377.95	229.11
378.33	229.04
378.71	228.88
379.09	228.84
379.47	228.80
379.84	228.74
380.22	228.67
380.60	228.60
380.98	228.54
381.36	228.50
381.73	228.44
382.11	228.41
382.49	228.38
382.87	228.32
383.25	228.27
383.62	228.37
384.00	228.30
384.38	228.27
384.76	228.26
385.13	228.26
385.51	228.22
385.89	228.18
386.27	228.15
386.64	228.14
387.02	228.10
387.40	228.05
387.78	228.03
388.15	228.00
388.53	227.96
388.91	227.92
389.29	227.89
389.66	227.88
390.04	227.84
390.42	227.83
390.79	227.82
391.17	227.80
391.55	227.67
391.92	227.66
392.30	227.66
392.68	227.63
393.05	227.60
393.43	227.60
393.81	227.60
394.18	227.59
394.56	227.59
394.94	227.63
395.31	227.64
395.69	227.68
396.06	227.72
396.44	227.75
396.82	227.76
397.19	227.85
397.57	227.86
397.95	227.91
398.32	227.91
398.70	227.96
399.07	228.02
399.45	228.04
399.82	228.08
400.20	228.12
400.58	228.17
400.95	228.18
401.33	228.27
401.70	228.42
402.08	228.51
402.45	228.59
402.83	228.69
403.20	228.80
403.58	228.89
403.95	229.01
404.33	229.16
404.71	229.32
405.08	229.51
405.46	229.66
405.83	229.85
406.21	230.03
406.58	230.25
406.96	230.46
407.33	230.71
407.70	231.01
408.08	231.38
408.45	231.72
408.83	232.05
409.20	232.38
409.58	232.66
409.95	233.07
410.33	233.49
410.70	233.90
411.08	234.38
411.45	234.90
411.82	235.42
412.20	235.99
412.57	236.68
412.95	237.22
413.32	237.95
413.69	238.68
414.07	239.46
414.44	240.30
414.82	241.16
415.19	242.17
415.56	243.18
415.94	244.23
416.31	245.41
416.68	246.63
417.06	248.01
417.43	249.31
417.81	250.80
418.18	252.32
418.55	253.98
418.93	255.71
419.30	257.51
419.67	259.43
420.04	261.40
420.42	263.45
420.79	265.84
421.16	268.23
421.54	270.66
421.91	273.20
422.28	275.84
422.66	278.69
423.03	281.41
423.40	284.25
423.77	287.31
424.15	290.45
424.52	293.70
424.89	297.21
425.26	300.72
425.64	303.99
426.01	307.67
426.38	311.41
426.75	315.28
427.13	319.24
427.50	323.38
427.87	327.72
428.24	332.07
428.61	336.27
428.99	340.81
429.36	345.77
429.73	350.53
430.10	355.29
430.47	360.15
430.85	365.18
431.22	370.59
431.59	376.15
431.96	381.55
432.33	387.58
432.70	393.31
433.08	400.06
433.45	406.46
433.82	412.78
434.19	419.85
434.56	426.81
434.93	433.50
435.30	440.16
435.68	447.66
436.05	455.00
436.42	462.30
436.79	469.00
437.16	476.23
437.53	483.95
437.90	491.68
438.27	499.22
438.64	507.35
439.01	514.72
439.38	521.44
439.75	527.96
440.13	535.29
440.50	542.24
440.87	547.76
441.24	553.75
441.61	560.30
441.98	565.07
442.35	570.70
442.72	576.46
443.09	581.91
443.46	585.32
443.83	587.78
444.20	589.78
444.57	592.81
444.94	594.47
445.31	596.18
445.68	597.59
446.05	598.57
446.42	597.97
446.79	597.19
447.16	596.50
447.53	595.81
447.90	593.20
448.27	590.72
448.64	587.08
449.01	584.48
449.37	579.54
449.74	575.05
450.11	569.34
450.48	563.13
450.85	556.91
451.22	551.56
451.59	546.37
451.96	541.68
452.33	534.95
452.70	528.93
453.07	521.67
453.43	514.43
453.80	507.42
454.17	500.74
454.54	494.60
454.91	487.65
455.28	481.18
455.65	475.08
456.02	468.64
456.38	463.47
456.75	456.83
457.12	451.48
457.49	446.09
457.86	441.04
458.23	436.63
458.59	431.74
458.96	426.73
459.33	422.34
459.70	417.87
460.07	414.49
460.43	410.51
460.80	406.82
461.17	403.60
461.54	400.10
461.91	396.85
462.27	393.52
462.64	390.86
463.01	387.77
463.38	384.67
463.74	381.87
464.11	379.39
464.48	377.19
464.85	374.77
465.21	372.94
465.58	370.90
465.95	368.55
466.32	366.71
466.68	364.91
467.05	363.08
467.42	361.29
467.78	359.34
468.15	357.59
468.52	356.30
468.88	354.57
469.25	352.97
469.62	351.71
469.98	350.32
470.35	349.09
470.72	347.97
471.08	346.84
471.45	345.90
471.82	344.87
472.18	343.74
472.55	343.04
472.92	342.14
473.28	341.43
473.65	340.67
474.02	339.92
474.38	339.31
474.75	338.95
475.11	338.45
475.48	338.23
475.85	337.96
476.21	337.83
476.58	337.76
476.94	337.90
477.31	337.99
477.67	338.09
478.04	338.30
478.41	338.60
478.77	339.03
479.14	339.31
479.50	339.79
479.87	340.46
480.23	341.11
480.60	341.75
480.96	342.41
481.33	343.36
481.69	344.33
482.06	345.27
482.42	346.17
482.79	347.27
483.15	348.52
483.52	349.96
483.88	351.34
484.25	352.81
484.61	354.37
484.98	356.03
485.34	357.92
485.71	359.88
486.07	361.99
486.44	364.06
486.80	366.40
487.17	368.81
487.53	371.44
487.90	374.22
488.26	377.24
488.62	380.44
488.99	383.64
489.35	387.01
489.72	390.67
490.08	394.50
490.44	398.44
490.81	402.56
491.17	406.78
491.54	411.32
491.90	416.01
492.26	421.00
492.63	426.24
492.99	431.71
493.36	437.39
493.72	443.36
494.08	449.48
494.45	455.96
494.81	462.69
495.17	469.61
495.54	476.91
495.90	484.51
496.26	492.27
496.63	500.29
496.99	508.65
497.35	517.40
497.72	526.39
498.08	535.63
498.44	545.15
498.80	555.26
499.17	565.60
499.53	576.25
499.89	587.29
500.26	598.54
500.62	610.09
500.98	622.24
501.34	634.53
501.71	647.39
502.07	660.42
502.43	674.03
502.79	687.83
503.16	702.08
503.52	716.53
503.88	731.37
504.24	746.68
504.60	762.19
504.97	778.19
505.33	794.61
505.69	811.91
506.05	829.54
506.41	847.06
506.78	864.78
507.14	883.05
507.50	901.76
507.86	920.76
508.22	939.97
508.59	959.06
508.95	978.97
509.31	999.62
509.67	1020.90
510.03	1042.16
510.39	1063.53
510.75	1085.10
511.12	1106.88
511.48	1128.86
511.84	1150.91
512.20	1173.30
512.56	1196.56
512.92	1219.83
513.28	1242.78
513.64	1265.94
514.00	1289.54
514.37	1313.40
514.73	1337.19
515.09	1360.94
515.45	1385.12
515.81	1409.44
516.17	1433.86
516.53	1457.76
516.89	1481.49
517.25	1505.48
517.61	1529.40
517.97	1553.72
518.33	1577.51
518.69	1601.35
519.05	1625.62
519.41	1650.15
519.77	1674.83
520.13	1698.77
520.49	1722.74
520.85	1747.00
521.21	1770.73
521.57	1794.91
521.93	1818.61
522.29	1842.84
522.65	1866.54
523.01	1890.15
523.37	1913.36
523.73	1937.31
524.09	1960.98
524.45	1984.46
524.81	2007.49
525.17	2030.32
525.53	2052.59
525.89	2075.34
526.25	2098.06
526.61	2119.81
526.97	2141.68
527.33	2163.55
527.68	2185.10
528.04	2205.85
528.40	2225.59
528.76	2245.79
529.12	2265.38
529.48	2284.63
529.84	2302.09
530.20	2320.25
530.56	2337.77
530.91	2355.47
531.27	2372.79
531.63	2389.29
531.99	2405.42
532.35	2420.92
532.71	2436.49
533.07	2452.71
533.42	2467.21
533.78	2482.57
534.14	2498.12
534.50	2512.69
534.86	2527.01
535.21	2539.50
535.57	2552.45
535.93	2565.20
536.29	2576.77
536.65	2588.31
537.00	2599.17
537.36	2610.96
537.72	2621.17
538.08	2630.98
538.44	2640.07
538.79	2648.76
539.15	2656.72
539.51	2664.23
539.87	2671.07
540.22	2676.13
540.58	2681.29
540.94	2687.54
541.29	2692.27
541.65	2695.21
542.01	2697.51
542.37	2699.14
542.72	2702.14
543.08	2703.46
543.44	2705.33
543.79	2706.22
544.15	2706.24
544.51	2706.65
544.87	2706.01
545.22	2704.58
545.58	2702.51
545.94	2700.55
546.29	2697.25
546.65	2693.96
547.01	2690.61
547.36	2687.96
547.72	2685.24
548.07	2680.88
548.43	2674.99
548.79	2668.32
549.14	2662.93
549.50	2657.78
549.86	2651.75
550.21	2644.53
550.57	2638.25
550.92	2629.79
551.28	2621.86
551.64	2614.17
551.99	2606.01
552.35	2597.27
552.70	2588.86
553.06	2580.74
553.41	2572.00
553.77	2563.03
554.13	2553.95
554.48	2544.03
554.84	2532.98
555.19	2522.52
555.55	2512.05
555.90	2501.70
556.26	2491.71
556.61	2480.71
556.97	2468.11
557.32	2455.97
557.68	2443.87
558.03	2431.54
558.39	2420.33
558.74	2409.40
559.10	2396.80
559.45	2384.49
559.81	2372.75
560.16	2360.29
560.52	2348.08
560.87	2336.14
561.23	2323.46
561.58	2311.02
561.94	2298.15
562.29	2284.83
562.64	2272.20
563.00	2259.17
563.35	2246.64
563.71	2233.90
564.06	2221.04
564.42	2208.90
564.77	2196.19
565.12	2183.30
565.48	2170.38
565.83	2157.50
566.19	2144.63
566.54	2131.84
566.89	2117.94
567.25	2104.15
567.60	2091.71
567.96	2078.39
568.31	2063.80
568.66	2049.98
569.02	2037.11
569.37	2024.35
569.72	2011.94
570.08	1998.29
570.43	1984.36
570.78	1970.16
571.14	1955.44
571.49	1941.35
571.84	1927.79
572.20	1913.05
572.55	1898.60
572.90	1884.05
573.26	1869.44
573.61	1854.42
573.96	1839.78
574.31	1825.39
574.67	1811.01
575.02	1795.76
575.37	1780.52
575.72	1766.16
576.08	1752.01
576.43	1736.79
576.78	1721.98
577.13	1707.51
577.49	1693.38
577.84	1679.81
578.19	1665.34
578.54	1651.02
578.90	1636.29
579.25	1621.42
579.60	1608.12
579.95	1594.68
580.30	1580.98
580.66	1567.16
581.01	1553.21
581.36	1539.26
581.71	1526.35
582.06	1513.35
582.42	1500.50
582.77	1487.71
583.12	1474.82
583.47	1461.89
583.82	1449.05
584.17	1435.86
584.53	1422.39
584.88	1409.22
585.23	1395.65
585.58	1382.99
585.93	1370.49
586.28	1358.71
586.63	1346.96
586.98	1334.65
587.34	1322.42
587.69	1310.00
588.04	1297.85
588.39	1286.10
588.74	1274.51
589.09	1262.68
589.44	1250.41
589.79	1238.83
590.14	1227.39
590.49	1215.90
590.84	1204.49
591.19	1193.49
591.54	1182.31
591.89	1171.26
592.25	1160.36
592.60	1149.22
592.95	1138.40
593.30	1127.78
593.65	1116.82
594.00	1105.99
594.35	1095.80
594.70	1085.20
595.05	1075.44
595.40	1065.54
595.75	1055.53
596.10	1046.00
596.45	1036.19
596.80	1026.76
597.15	1017.05
597.50	1007.47
597.85	998.29
598.19	989.00
598.54	979.77
598.89	970.93
599.24	962.39
599.59	953.75
599.94	945.97
600.29	937.99
600.64	929.74
600.99	921.14
601.34	912.90
601.69	904.28
602.04	896.38
602.39	888.31
602.74	880.30
603.08	872.27
603.43	864.20
603.78	856.28
604.13	848.55
604.48	840.75
604.83	833.18
605.18	825.55
605.53	818.02
605.87	810.30
606.22	802.95
606.57	795.54
606.92	787.98
607.27	780.39
607.62	773.07
607.96	766.15
608.31	759.67
608.66	753.01
609.01	746.64
609.36	740.34
609.70	733.85
610.05	727.31
610.40	721.03
610.75	714.78
611.10	708.84
611.44	702.72
611.79	696.78
612.14	690.71
612.49	684.72
612.83	679.01
613.18	673.49
613.53	667.83
613.88	662.21
614.22	657.02
614.57	651.68
614.92	646.25
615.27	640.95
615.61	635.69
615.96	630.45
616.31	625.25
616.65	620.09
617.00	615.15
617.35	610.36
617.70	605.58
618.04	600.81
618.39	596.02
618.74	591.47
619.08	586.93
619.43	582.53
619.78	578.15
620.12	573.73
620.47	569.44
620.82	565.26
621.16	561.10
621.51	556.86
621.85	552.65
622.20	548.63
622.55	544.59
622.89	540.67
623.24	536.73
623.59	532.84
623.93	529.11
624.28	525.44
624.62	521.88
624.97	518.36
625.32	514.83
625.66	511.22
626.01	507.57
626.35	504.01
626.70	500.48
627.04	497.11
627.39	493.72
627.73	490.47
628.08	487.33
628.43	484.15
628.77	481.05
629.12	478.08
629.46	475.10
629.81	472.07
630.15	469.03
630.50	466.06
630.84	463.18
631.19	460.34
631.53	457.60
631.88	454.81
632.22	452.03
632.57	449.56
632.91	447.12
633.26	444.77
633.60	442.43
633.95	440.16
634.29	437.80
634.64	435.50
634.98	433.02
635.32	430.67
635.67	428.53
636.01	426.30
636.36	424.10
636.70	422.07
637.05	420.02
637.39	417.98
637.73	416.02
638.08	414.13
638.42	412.21
638.77	410.18
639.11	408.09
639.45	406.12
639.80	404.04
640.14	402.07
640.49	400.08
640.83	398.07
641.17	396.16
641.52	394.27
641.86	392.43
642.20	390.77
642.55	388.97
642.89	387.19
643.23	385.49
643.58	383.98
643.92	382.29
644.26	380.69
644.61	379.15
644.95	377.55
645.29	375.87
645.64	374.22
645.98	372.65
646.32	371.20
646.66	369.72
647.01	368.27
647.35	366.87
647.69	365.45
648.04	364.18
648.38	362.81
648.72	361.48
649.06	360.12
649.41	358.79
649.75	357.50
650.09	356.21
650.43	354.96
650.78	353.62
651.12	352.34
651.46	351.10
651.80	349.87
652.14	348.69
652.49	347.56
652.83	346.39
653.17	345.28
653.51	344.19
653.85	343.16
654.20	342.06
654.54	340.90
654.88	339.84
655.22	338.76
655.56	337.69
655.90	336.68
656.25	335.71
656.59	334.71
656.93	333.80
657.27	332.89
657.61	331.89
657.95	330.98
658.29	330.02
658.64	329.14
658.98	328.27
659.32	327.38
659.66	326.55
660.00	325.76
660.34	324.93
660.68	324.10
661.02	323.21
661.36	322.37
661.70	321.55
662.05	320.75
662.39	319.96
662.73	319.25
663.07	318.54
663.41	317.79
663.75	317.06
664.09	316.29
664.43	315.50
664.77	314.79
665.11	314.03
665.45	313.35
665.79	312.67
666.13	311.92
666.47	311.20
666.81	310.45
667.15	309.66
667.49	309.01
667.83	308.37
668.17	307.73
668.51	307.14
668.85	306.58
669.19	306.03
669.53	305.38
669.87	304.73
670.21	304.09
670.55	303.50
670.89	302.95
671.23	302.39
671.57	301.84
671.91	301.33
672.25	300.83
672.58	300.33
672.92	299.76
673.26	299.27
673.60	298.78
673.94	298.30
674.28	297.86
674.62	297.36
674.96	296.84
675.30	296.36
675.64	295.83
675.97	295.31
676.31	294.74
676.65	294.26
676.99	293.83
677.33	293.32
677.67	292.85
678.01	292.30
678.34	291.82
678.68	291.38
679.02	290.86
679.36	290.36
679.70	289.88
680.04	289.41
680.37	288.95
680.71	288.50
681.05	288.07
681.39	287.60
681.73	287.11
682.06	286.62
682.40	286.15
682.74	285.75
683.08	285.39
683.42	284.98
683.75	284.58
684.09	284.11
684.43	283.70
684.77	283.27
685.10	282.90
685.44	282.50
685.78	282.08
686.12	281.71
686.45	281.31
686.79	280.89
687.13	280.51
687.46	280.07
687.80	279.69
688.14	279.23
688.48	278.84
688.81	278.42
689.15	278.06
689.49	277.66
689.82	277.25
690.16	276.77
690.50	276.37
690.83	275.98
691.17	275.58
691.51	275.19
691.84	274.81
692.18	274.40
692.52	273.98
692.85	273.60
693.19	273.24
693.52	272.85
693.86	272.45
694.20	272.08
694.53	271.74
694.87	271.34
695.21	270.97
695.54	270.61
695.88	270.25
696.21	269.85
696.55	269.49
696.88	269.13
697.22	268.77
697.56	268.41
697.89	268.00
698.23	267.64
698.56	267.25
698.90	266.89
699.23	266.51
699.57	266.12
699.90	265.76
700.24	265.38
700.58	265.06
700.91	264.76
701.25	264.52
701.58	264.23
701.92	263.95
702.25	263.64
702.59	263.30
702.92	262.96
703.26	262.64
703.59	262.29
703.93	262.06
704.26	261.75
704.60	261.41
704.93	261.10
705.26	260.79
705.60	260.54
705.93	260.20
706.27	259.94
706.60	259.71
706.94	259.44
707.27	259.11
707.61	258.80
707.94	258.48
708.27	258.06
708.61	257.69
708.94	257.36
709.28	257.06
709.61	256.76
709.94	256.50
710.28	256.22
710.61	255.99
710.95	255.63
711.28	255.44
711.61	255.18
711.95	254.94
712.28	254.65
712.61	254.34
712.95	254.13
713.28	253.94
713.61	253.64
713.95	253.34
714.28	253.11
714.61	252.84
714.95	252.59
715.28	252.35
715.61	252.12
715.95	251.89
716.28	251.66
716.61	251.47
716.95	251.22
717.28	250.99
717.61	250.75
717.94	250.52
718.28	250.19
718.61	249.95
718.94	249.71
719.27	249.48
719.61	249.31
719.94	249.08
720.27	248.78
720.60	248.56
720.94	248.37
721.27	248.16
721.60	247.97
721.93	247.76
722.27	247.60
722.60	247.41
722.93	247.21
723.26	247.01
723.59	246.77
723.93	246.59
724.26	246.39
724.59	246.20
724.92	246.01
725.25	245.88
725.59	245.72
725.92	245.57
726.25	245.40
726.58	245.22
726.91	245.04
727.24	244.89
727.57	244.73
727.91	244.52
728.24	244.36
728.57	244.19
728.90	244.04
729.23	243.82
729.56	243.73
729.89	243.53
730.22	243.37
730.55	243.21
730.89	243.05
731.22	242.88
731.55	242.73
731.88	242.58
732.21	242.40
732.54	242.24
732.87	242.08
733.20	241.94
733.53	241.78
733.86	241.65
734.19	241.49
734.52	241.35
734.85	241.32
735.18	241.17
735.51	241.07
735.84	240.94
736.17	240.84
736.50	240.62
736.83	240.65
737.16	240.54
737.49	240.42
737.82	240.30
738.15	240.18
738.48	240.07
738.81	239.95
739.14	239.82
739.47	239.69
739.80	239.56
740.13	239.44
740.46	239.30
740.79	239.17
741.12	239.05
741.45	238.91
741.78	238.71
742.11	238.62
742.44	238.46
742.77	238.35
743.10	238.20
743.43	238.09
743.75	237.85
744.08	237.93
744.41	237.80
744.74	237.69
745.07	237.57
745.40	237.48
745.73	237.41
746.06	237.31
746.39	237.22
746.71	237.12
747.04	237.02
747.37	236.93
747.70	236.84
748.03	236.75
748.36	236.68
748.68	236.58
749.01	236.45
749.34	236.37
749.67	236.28
750.00	236.22
750.33	236.24
750.65	236.15
750.98	235.87
751.31	235.78
751.64	235.72
751.97	235.70
752.29	235.59
752.62	235.46
752.95	235.37
753.28	235.27
753.60	235.18
753.93	235.11
754.26	235.04
754.59	234.91
754.91	234.82
755.24	234.73
755.57	234.71
755.90	234.63
756.22	234.54
756.55	234.46
756.88	234.35
757.20	234.19
757.53	234.06
757.86	233.99
758.19	233.93
758.51	233.84
758.84	233.70
759.17	233.62
759.49	233.55
759.82	233.53
760.15	233.48
760.47	233.41
760.80	233.32
761.13	233.27
761.45	233.22
761.78	233.16
762.11	233.09
762.43	232.96
762.76	232.89
763.08	232.86
763.41	232.79
763.74	232.74
764.06	232.68
764.39	232.65
764.71	232.60
765.04	232.52
765.37	232.44
765.69	232.40
766.02	232.35
766.34	232.29
766.67	232.19
767.00	232.16
767.32	232.18
767.65	232.20
767.97	232.14
768.30	232.09
768.62	232.03
768.95	231.96
769.27	231.90
769.60	231.87
769.92	231.81
770.25	231.74
770.57	231.67
770.90	231.62
771.22	231.56
771.55	231.50
771.87	231.47
772.20	231.43
772.52	231.49
772.85	231.60
773.17	231.57
773.50	231.51
773.82	231.44
774.15	231.34
774.47	231.21
774.80	231.15
775.12	231.12
775.45	231.08
775.77	231.06
776.09	231.03
776.42	231.00
776.74	230.99
777.07	230.97
777.39	230.93
777.72	230.89
778.04	230.88
778.36	230.84
778.69	230.80
779.01	230.77
779.33	230.63
779.66	230.46
779.98	230.40
780.31	230.38
780.63	230.40
780.95	230.38
781.28	230.37
781.60	230.35
781.92	230.32
782.25	230.29
782.57	230.26
782.89	230.23
783.22	230.19
783.54	230.14
783.86	230.12
784.19	230.08
784.51	230.10
784.83	230.06
785.16	230.03
785.48	230.00
785.80	229.98
786.12	229.96
786.45	229.94
786.77	229.93
787.09	229.89
787.42	229.84
787.74	229.82
788.06	229.78
788.38	229.74
788.71	229.70
789.03	229.69
789.35	229.68
789.67	229.65
789.99	229.64
790.32	229.60
790.64	229.59
790.96	229.69
791.28	229.62
791.61	229.60
791.93	229.59
792.25	229.57
792.57	229.63
792.89	229.61
793.21	229.59
793.54	229.57
793.86	229.54
794.18	229.53
794.50	229.48
794.82	229.48
795.14	229.49
795.47	229.48
795.79	229.47
796.11	229.42
796.43	229.40
796.75	229.39
797.07	229.37
797.39	229.34
797.71	229.23
798.04	229.22
798.36	229.22
798.68	229.19
799.00	229.18
799.32	229.12
799.64	229.11
799.96	229.08
800.28	229.08
800.60	229.07
800.92	229.05
801.24	229.04
801.56	229.02
801.89	228.99
802.21	228.99
802.53	228.93
802.85	228.96
803.17	229.01
803.49	228.95
803.81	228.93
804.13	228.90
804.45	228.87
804.77	228.85
805.09	228.83
805.41	228.80
805.73	228.77
806.05	228.71
806.37	228.68
806.69	228.67
807.01	228.63
807.33	228.61
807.65	228.57
807.97	228.61
808.28	228.59
808.60	228.59
808.92	228.56
809.24	228.64
809.56	228.59
809.88	228.53
810.20	228.53
810.52	228.55
810.84	228.52
811.16	228.49
811.48	228.47
811.80	228.52
812.12	228.50
812.43	228.52
812.75	228.52
813.07	228.50
813.39	228.51
813.71	228.49
814.03	228.47
814.35	228.46
814.67	228.41
814.98	228.39
815.30	228.37
815.62	228.34
815.94	228.25
816.26	228.26
816.58	228.23
816.89	228.23
817.21	228.19
817.53	228.21
817.85	228.21
818.17	228.20
818.48	228.14
