SpectraSuite Data File
++++++++++++++++++++++++++++++++++++
Date: Fri Oct 02 22:03:51 EDT 2015
User: lab3
Dark Spectrum Present: No
Reference Spectrum Present: No
Number of Sampled Component Spectra: 1
Spectrometers: USB2E7196
Integration Time (usec): 46000 (USB2E7196)
Spectra Averaged: 12000 (USB2E7196)
Boxcar Smoothing: 10 (USB2E7196)
Correct for Electrical Dark: No (USB2E7196)
Strobe/Lamp Enabled: No (USB2E7196)
Correct for Detector Non-linearity: No (USB2E7196)
Correct for Stray Light: No (USB2E7196)
Number of Pixels in Processed Spectrum: 2048
>>>>>Begin Processed Spectral Data<<<<<
339.09	0.00
339.48	215.45
339.86	216.89
340.24	218.26
340.63	219.73
341.01	222.93
341.39	222.37
341.78	223.77
342.16	224.94
342.54	225.36
342.93	213.80
343.31	224.60
343.69	225.14
344.07	225.60
344.46	226.03
344.84	226.42
345.22	226.64
345.60	226.90
345.99	227.09
346.37	227.22
346.75	227.33
347.13	227.41
347.52	227.48
347.90	227.57
348.28	227.61
348.66	227.67
349.05	227.66
349.43	227.71
349.81	227.77
350.19	227.82
350.57	227.89
350.96	227.97
351.34	228.06
351.72	228.16
352.10	228.26
352.48	228.34
352.87	228.39
353.25	228.46
353.63	228.52
354.01	228.58
354.39	228.66
354.77	228.73
355.15	228.84
355.54	228.88
355.92	228.91
356.30	228.99
356.68	229.13
357.06	229.21
357.44	229.25
357.82	229.31
358.20	229.43
358.58	229.49
358.97	229.55
359.35	229.64
359.73	229.72
360.11	229.77
360.49	229.83
360.87	229.88
361.25	229.94
361.63	230.03
362.01	230.08
362.39	230.10
362.77	230.15
363.15	230.17
363.53	230.21
363.91	230.25
364.29	230.27
364.67	230.17
365.05	230.20
365.43	230.23
365.81	230.26
366.19	230.28
366.57	230.33
366.95	230.33
367.33	230.30
367.71	230.29
368.09	230.31
368.47	230.31
368.85	230.30
369.23	230.30
369.61	230.24
369.99	230.27
370.37	230.26
370.75	230.34
371.13	230.30
371.51	230.26
371.89	230.24
372.27	230.21
372.65	230.19
373.03	230.15
373.41	230.11
373.78	230.06
374.16	229.96
374.54	229.88
374.92	229.83
375.30	229.79
375.68	229.72
376.06	229.68
376.44	229.62
376.82	229.57
377.19	229.53
377.57	229.48
377.95	229.38
378.33	229.32
378.71	229.17
379.09	229.12
379.47	229.09
379.84	229.02
380.22	228.96
380.60	228.89
380.98	228.84
381.36	228.79
381.73	228.73
382.11	228.71
382.49	228.67
382.87	228.60
383.25	228.56
383.62	228.66
384.00	228.59
384.38	228.56
384.76	228.55
385.13	228.54
385.51	228.51
385.89	228.45
386.27	228.42
386.64	228.40
387.02	228.36
387.40	228.31
387.78	228.29
388.15	228.27
388.53	228.24
388.91	228.21
389.29	228.17
389.66	228.17
390.04	228.13
390.42	228.13
390.79	228.12
391.17	228.10
391.55	227.94
391.92	227.93
392.30	227.93
392.68	227.89
393.05	227.87
393.43	227.87
393.81	227.87
394.18	227.85
394.56	227.85
394.94	227.89
395.31	227.88
395.69	227.93
396.06	227.96
396.44	227.98
396.82	228.00
397.19	228.08
397.57	228.09
397.95	228.13
398.32	228.13
398.70	228.17
399.07	228.24
399.45	228.27
399.82	228.31
400.20	228.35
400.58	228.41
400.95	228.42
401.33	228.51
401.70	228.66
402.08	228.77
402.45	228.85
402.83	228.97
403.20	229.08
403.58	229.16
403.95	229.30
404.33	229.44
404.71	229.59
405.08	229.79
405.46	229.95
405.83	230.14
406.21	230.33
406.58	230.55
406.96	230.76
407.33	231.00
407.70	231.28
408.08	231.66
408.45	231.98
408.83	232.33
409.20	232.65
409.58	232.94
409.95	233.33
410.33	233.76
410.70	234.16
411.08	234.64
411.45	235.14
411.82	235.65
412.20	236.24
412.57	236.94
412.95	237.48
413.32	238.19
413.69	238.92
414.07	239.70
414.44	240.54
414.82	241.40
415.19	242.41
415.56	243.43
415.94	244.49
416.31	245.68
416.68	246.87
417.06	248.25
417.43	249.54
417.81	251.02
418.18	252.54
418.55	254.19
418.93	255.91
419.30	257.71
419.67	259.61
420.04	261.56
420.42	263.59
420.79	265.95
421.16	268.33
421.54	270.74
421.91	273.27
422.28	275.88
422.66	278.70
423.03	281.40
423.40	284.22
423.77	287.24
424.15	290.33
424.52	293.55
424.89	297.05
425.26	300.52
425.64	303.74
426.01	307.36
426.38	311.07
426.75	314.89
427.13	318.81
427.50	322.92
427.87	327.18
428.24	331.49
428.61	335.63
428.99	340.11
429.36	345.01
429.73	349.70
430.10	354.39
430.47	359.19
430.85	364.14
431.22	369.46
431.59	374.93
431.96	380.25
432.33	386.17
432.70	391.81
433.08	398.47
433.45	404.77
433.82	410.97
434.19	417.90
434.56	424.73
434.93	431.32
435.30	437.84
435.68	445.22
436.05	452.43
436.42	459.61
436.79	466.17
437.16	473.26
437.53	480.83
437.90	488.41
438.27	495.84
438.64	503.83
439.01	511.08
439.38	517.70
439.75	524.08
440.13	531.28
440.50	538.10
440.87	543.51
441.24	549.44
441.61	555.91
441.98	560.60
442.35	566.18
442.72	571.86
443.09	577.26
443.46	580.66
443.83	583.13
444.20	585.16
444.57	588.24
444.94	589.93
445.31	591.70
445.68	593.18
446.05	594.21
446.42	593.73
446.79	593.05
447.16	592.45
447.53	591.88
447.90	589.45
448.27	587.10
448.64	583.62
449.01	581.16
449.37	576.40
449.74	572.09
450.11	566.55
450.48	560.52
450.85	554.49
451.22	549.33
451.59	544.29
451.96	539.73
452.33	533.14
452.70	527.31
453.07	520.19
453.43	513.12
453.80	506.25
454.17	499.69
454.54	493.65
454.91	486.84
455.28	480.47
455.65	474.46
456.02	468.14
456.38	463.04
456.75	456.47
457.12	451.20
457.49	445.88
457.86	440.88
458.23	436.50
458.59	431.65
458.96	426.70
459.33	422.34
459.70	417.90
460.07	414.55
460.43	410.58
460.80	406.89
461.17	403.69
461.54	400.21
461.91	396.96
462.27	393.67
462.64	391.01
463.01	387.93
463.38	384.84
463.74	382.04
464.11	379.58
464.48	377.38
464.85	374.97
465.21	373.17
465.58	371.14
465.95	368.80
466.32	366.95
466.68	365.13
467.05	363.29
467.42	361.50
467.78	359.56
468.15	357.78
468.52	356.50
468.88	354.74
469.25	353.15
469.62	351.88
469.98	350.50
470.35	349.27
470.72	348.16
471.08	347.03
471.45	346.08
471.82	345.02
472.18	343.89
472.55	343.16
472.92	342.24
473.28	341.52
473.65	340.74
474.02	340.00
474.38	339.39
474.75	339.02
475.11	338.52
475.48	338.29
475.85	338.03
476.21	337.89
476.58	337.80
476.94	337.93
477.31	338.00
477.67	338.08
478.04	338.27
478.41	338.55
478.77	338.97
479.14	339.22
479.50	339.71
479.87	340.35
480.23	341.00
480.60	341.63
480.96	342.27
481.33	343.22
481.69	344.17
482.06	345.12
482.42	345.99
482.79	347.06
483.15	348.30
483.52	349.72
483.88	351.08
484.25	352.54
484.61	354.05
484.98	355.70
485.34	357.55
485.71	359.49
486.07	361.56
486.44	363.61
486.80	365.92
487.17	368.31
487.53	370.92
487.90	373.66
488.26	376.64
488.62	379.79
488.99	382.94
489.35	386.25
489.72	389.85
490.08	393.64
490.44	397.54
490.81	401.61
491.17	405.77
491.54	410.25
491.90	414.89
492.26	419.83
492.63	425.01
492.99	430.41
493.36	436.00
493.72	441.89
494.08	447.93
494.45	454.34
494.81	461.00
495.17	467.85
495.54	475.08
495.90	482.59
496.26	490.27
496.63	498.21
496.99	506.47
497.35	515.11
497.72	524.02
498.08	533.14
498.44	542.58
498.80	552.58
499.17	562.83
499.53	573.37
499.89	584.31
500.26	595.45
500.62	606.90
500.98	618.96
501.34	631.19
501.71	643.94
502.07	656.90
502.43	670.38
502.79	684.06
503.16	698.19
503.52	712.54
503.88	727.32
504.24	742.53
504.60	757.96
504.97	773.86
505.33	790.20
505.69	807.42
506.05	824.95
506.41	842.40
506.78	860.08
507.14	878.27
507.50	896.90
507.86	915.89
508.22	935.08
508.59	954.12
508.95	974.01
509.31	994.64
509.67	1015.89
510.03	1037.13
510.39	1058.49
510.75	1080.05
511.12	1101.89
511.48	1123.86
511.84	1145.94
512.20	1168.46
512.56	1191.78
512.92	1215.11
513.28	1238.10
513.64	1261.39
514.00	1285.11
514.37	1309.08
514.73	1333.12
515.09	1357.08
515.45	1381.38
515.81	1405.79
516.17	1430.41
516.53	1454.48
516.89	1478.45
517.25	1502.65
517.61	1526.81
517.97	1551.43
518.33	1575.53
518.69	1599.56
519.05	1624.15
519.41	1649.00
519.77	1673.97
520.13	1698.30
520.49	1722.55
520.85	1747.18
521.21	1771.25
521.57	1795.82
521.93	1819.94
522.29	1844.51
522.65	1868.60
523.01	1892.64
523.37	1916.33
523.73	1940.68
524.09	1964.84
524.45	1988.82
524.81	2012.35
525.17	2035.76
525.53	2058.59
525.89	2081.88
526.25	2105.19
526.61	2127.49
526.97	2149.95
527.33	2172.39
527.68	2194.46
528.04	2215.81
528.40	2236.20
528.76	2257.07
529.12	2277.32
529.48	2297.17
529.84	2315.34
530.20	2334.15
530.56	2352.34
530.91	2370.75
531.27	2388.80
531.63	2406.00
531.99	2422.77
532.35	2438.94
532.71	2455.13
533.07	2472.00
533.42	2487.11
533.78	2503.24
534.14	2519.52
534.50	2534.74
534.86	2549.81
535.21	2563.06
535.57	2576.78
535.93	2590.31
536.29	2602.59
536.65	2614.83
537.00	2626.45
537.36	2638.94
537.72	2649.84
538.08	2660.42
538.44	2670.34
538.79	2679.81
539.15	2688.45
539.51	2696.70
539.87	2704.22
540.22	2709.98
540.58	2715.78
540.94	2722.86
541.29	2728.13
541.65	2731.69
542.01	2734.69
542.37	2737.00
542.72	2740.63
543.08	2742.58
543.44	2745.07
543.79	2746.51
544.15	2747.09
544.51	2748.09
544.87	2747.96
545.22	2747.14
545.58	2745.61
545.94	2744.12
546.29	2741.31
546.65	2738.53
547.01	2735.77
547.36	2733.75
547.72	2731.59
548.07	2727.77
548.43	2722.39
548.79	2716.28
549.14	2711.46
549.50	2706.76
549.86	2701.14
550.21	2694.40
550.57	2688.57
550.92	2680.53
551.28	2673.17
551.64	2666.02
551.99	2658.32
552.35	2650.00
552.70	2641.99
553.06	2634.27
553.41	2625.86
553.77	2617.24
554.13	2608.52
554.48	2598.88
554.84	2588.11
555.19	2578.01
555.55	2567.83
555.90	2557.66
556.26	2547.99
556.61	2537.23
556.97	2524.89
557.32	2513.11
557.68	2501.16
558.03	2489.08
558.39	2478.10
558.74	2467.34
559.10	2454.87
559.45	2442.73
559.81	2431.24
560.16	2419.04
560.52	2407.03
560.87	2395.35
561.23	2382.87
561.58	2370.61
561.94	2357.92
562.29	2344.64
562.64	2332.03
563.00	2319.11
563.35	2306.78
563.71	2294.16
564.06	2281.35
564.42	2269.32
564.77	2256.58
565.12	2243.83
565.48	2231.01
565.83	2218.22
566.19	2205.46
566.54	2192.70
566.89	2178.75
567.25	2165.03
567.60	2152.57
567.96	2139.23
568.31	2124.60
568.66	2110.77
569.02	2097.95
569.37	2085.10
569.72	2072.81
570.08	2059.22
570.43	2045.37
570.78	2031.16
571.14	2016.31
571.49	2002.21
571.84	1988.62
572.20	1973.75
572.55	1959.25
572.90	1944.48
573.26	1929.72
573.61	1914.48
573.96	1899.67
574.31	1885.17
574.67	1870.57
575.02	1855.06
575.37	1839.63
575.72	1825.06
576.08	1810.73
576.43	1795.29
576.78	1780.27
577.13	1765.53
577.49	1751.14
577.84	1737.29
578.19	1722.52
578.54	1708.01
578.90	1692.99
579.25	1677.83
579.60	1664.30
579.95	1650.52
580.30	1636.67
580.66	1622.57
581.01	1608.34
581.36	1594.18
581.71	1581.01
582.06	1567.69
582.42	1554.59
582.77	1541.51
583.12	1528.33
583.47	1515.09
583.82	1501.94
584.17	1488.48
584.53	1474.64
584.88	1461.15
585.23	1447.20
585.58	1434.17
585.93	1421.34
586.28	1409.24
586.63	1397.15
586.98	1384.53
587.34	1372.00
587.69	1359.19
588.04	1346.71
588.39	1334.67
588.74	1322.68
589.09	1310.45
589.44	1297.86
589.79	1285.95
590.14	1274.11
590.49	1262.23
590.84	1250.45
591.19	1239.11
591.54	1227.57
591.89	1216.20
592.25	1204.96
592.60	1193.44
592.95	1182.26
593.30	1171.26
593.65	1159.95
594.00	1148.74
594.35	1138.16
594.70	1127.18
595.05	1117.09
595.40	1106.88
595.75	1096.48
596.10	1086.66
596.45	1076.48
596.80	1066.65
597.15	1056.60
597.50	1046.71
597.85	1037.19
598.19	1027.52
598.54	1017.92
598.89	1008.73
599.24	999.88
599.59	990.88
599.94	982.82
600.29	974.49
600.64	965.86
600.99	956.88
601.34	948.29
601.69	939.37
602.04	931.10
602.39	922.68
602.74	914.27
603.08	905.87
603.43	897.41
603.78	889.15
604.13	881.08
604.48	872.94
604.83	865.00
605.18	856.96
605.53	849.10
605.87	841.01
606.22	833.32
606.57	825.51
606.92	817.58
607.27	809.57
607.62	801.96
607.96	794.75
608.31	787.98
608.66	781.01
609.01	774.31
609.36	767.73
609.70	760.84
610.05	754.00
610.40	747.41
610.75	740.82
611.10	734.56
611.44	728.16
611.79	721.85
612.14	715.46
612.49	709.21
612.83	703.23
613.18	697.38
613.53	691.39
613.88	685.50
614.22	680.03
614.57	674.45
614.92	668.69
615.27	663.08
615.61	657.50
615.96	651.98
616.31	646.46
616.65	641.01
617.00	635.83
617.35	630.72
617.70	625.67
618.04	620.63
618.39	615.55
618.74	610.73
619.08	605.94
619.43	601.27
619.78	596.61
620.12	591.90
620.47	587.39
620.82	582.97
621.16	578.53
621.51	573.96
621.85	569.49
622.20	565.21
622.55	560.93
622.89	556.72
623.24	552.52
623.59	548.38
623.93	544.39
624.28	540.47
624.62	536.66
624.97	532.87
625.32	529.09
625.66	525.23
626.01	521.34
626.35	517.54
626.70	513.79
627.04	510.19
627.39	506.56
627.73	503.08
628.08	499.70
628.43	496.31
628.77	493.04
629.12	489.86
629.46	486.66
629.81	483.40
630.15	480.16
630.50	477.01
630.84	473.90
631.19	470.87
631.53	467.95
631.88	464.98
632.22	462.04
632.57	459.39
632.91	456.77
633.26	454.24
633.60	451.70
633.95	449.25
634.29	446.70
634.64	444.23
634.98	441.54
635.32	439.03
635.67	436.71
636.01	434.30
636.36	431.95
636.70	429.78
637.05	427.56
637.39	425.38
637.73	423.23
638.08	421.18
638.42	419.09
638.77	416.88
639.11	414.61
639.45	412.45
639.80	410.21
640.14	408.10
640.49	405.96
640.83	403.80
641.17	401.73
641.52	399.71
641.86	397.70
642.20	395.92
642.55	393.97
642.89	392.04
643.23	390.21
643.58	388.55
643.92	386.73
644.26	384.99
644.61	383.31
644.95	381.57
645.29	379.78
645.64	378.01
645.98	376.33
646.32	374.78
646.66	373.20
647.01	371.64
647.35	370.13
647.69	368.61
648.04	367.23
648.38	365.75
648.72	364.30
649.06	362.86
649.41	361.43
649.75	360.05
650.09	358.68
650.43	357.32
650.78	355.89
651.12	354.52
651.46	353.19
651.80	351.89
652.14	350.63
652.49	349.41
652.83	348.18
653.17	346.98
653.51	345.81
653.85	344.71
654.20	343.55
654.54	342.32
654.88	341.19
655.22	340.07
655.56	338.94
655.90	337.87
656.25	336.84
656.59	335.78
656.93	334.79
657.27	333.82
657.61	332.78
657.95	331.79
658.29	330.80
658.64	329.87
658.98	328.92
659.32	327.99
659.66	327.11
660.00	326.25
660.34	325.38
660.68	324.48
661.02	323.54
661.36	322.64
661.70	321.78
662.05	320.93
662.39	320.09
662.73	319.34
663.07	318.59
663.41	317.81
663.75	317.01
664.09	316.22
664.43	315.39
664.77	314.65
665.11	313.86
665.45	313.15
665.79	312.44
666.13	311.67
666.47	310.91
666.81	310.14
667.15	309.33
667.49	308.64
667.83	308.01
668.17	307.35
668.51	306.75
668.85	306.16
669.19	305.59
669.53	304.93
669.87	304.25
670.21	303.61
670.55	302.99
670.89	302.46
671.23	301.87
671.57	301.31
671.91	300.79
672.25	300.29
672.58	299.77
672.92	299.18
673.26	298.69
673.60	298.20
673.94	297.72
674.28	297.28
674.62	296.78
674.96	296.25
675.30	295.77
675.64	295.25
675.97	294.72
676.31	294.17
676.65	293.68
676.99	293.24
677.33	292.72
677.67	292.25
678.01	291.71
678.34	291.24
678.68	290.80
679.02	290.29
679.36	289.80
679.70	289.31
680.04	288.87
680.37	288.40
680.71	287.96
681.05	287.53
681.39	287.06
681.73	286.57
682.06	286.09
682.40	285.64
682.74	285.25
683.08	284.89
683.42	284.47
683.75	284.09
684.09	283.63
684.43	283.23
684.77	282.82
685.10	282.46
685.44	282.07
685.78	281.68
686.12	281.30
686.45	280.91
686.79	280.51
687.13	280.13
687.46	279.72
687.80	279.34
688.14	278.91
688.48	278.54
688.81	278.16
689.15	277.82
689.49	277.43
689.82	277.03
690.16	276.57
690.50	276.19
690.83	275.80
691.17	275.41
691.51	275.04
691.84	274.68
692.18	274.28
692.52	273.87
692.85	273.48
693.19	273.14
693.52	272.77
693.86	272.40
694.20	272.03
694.53	271.68
694.87	271.30
695.21	270.93
695.54	270.56
695.88	270.20
696.21	269.80
696.55	269.45
696.88	269.10
697.22	268.75
697.56	268.39
697.89	268.00
698.23	267.65
698.56	267.28
698.90	266.93
699.23	266.56
699.57	266.21
699.90	265.85
700.24	265.48
700.58	265.16
700.91	264.87
701.25	264.65
701.58	264.37
701.92	264.09
702.25	263.78
702.59	263.45
702.92	263.13
703.26	262.81
703.59	262.48
703.93	262.26
704.26	261.96
704.60	261.64
704.93	261.33
705.26	261.02
705.60	260.76
705.93	260.43
706.27	260.17
706.60	259.92
706.94	259.67
707.27	259.35
707.61	259.04
707.94	258.70
708.27	258.28
708.61	257.93
708.94	257.62
709.28	257.33
709.61	257.04
709.94	256.78
710.28	256.53
710.61	256.29
710.95	255.92
711.28	255.73
711.61	255.46
711.95	255.23
712.28	254.96
712.61	254.68
712.95	254.50
713.28	254.31
713.61	254.01
713.95	253.71
714.28	253.48
714.61	253.22
714.95	252.99
715.28	252.76
715.61	252.53
715.95	252.31
716.28	252.09
716.61	251.90
716.95	251.65
717.28	251.42
717.61	251.18
717.94	250.96
718.28	250.65
718.61	250.42
718.94	250.18
719.27	249.97
719.61	249.78
719.94	249.52
720.27	249.23
720.60	249.03
720.94	248.83
721.27	248.63
721.60	248.45
721.93	248.24
722.27	248.07
722.60	247.89
722.93	247.68
723.26	247.47
723.59	247.24
723.93	247.06
724.26	246.87
724.59	246.67
724.92	246.50
725.25	246.36
725.59	246.19
725.92	246.04
726.25	245.86
726.58	245.69
726.91	245.51
727.24	245.36
727.57	245.19
727.91	245.01
728.24	244.86
728.57	244.68
728.90	244.53
729.23	244.32
729.56	244.21
729.89	244.04
730.22	243.87
730.55	243.71
730.89	243.56
731.22	243.40
731.55	243.24
731.88	243.09
732.21	242.91
732.54	242.75
732.87	242.60
733.20	242.47
733.53	242.32
733.86	242.18
734.19	242.01
734.52	241.89
734.85	241.83
735.18	241.66
735.51	241.55
735.84	241.42
736.17	241.32
736.50	241.13
736.83	241.14
737.16	241.02
737.49	240.90
737.82	240.77
738.15	240.66
738.48	240.53
738.81	240.40
739.14	240.26
739.47	240.13
739.80	239.99
740.13	239.87
740.46	239.74
740.79	239.60
741.12	239.48
741.45	239.33
741.78	239.14
742.11	239.06
742.44	238.91
742.77	238.80
743.10	238.67
743.43	238.55
743.75	238.31
744.08	238.39
744.41	238.26
744.74	238.15
745.07	238.00
745.40	237.92
745.73	237.87
746.06	237.77
746.39	237.68
746.71	237.58
747.04	237.46
747.37	237.36
747.70	237.28
748.03	237.19
748.36	237.12
748.68	237.02
749.01	236.89
749.34	236.80
749.67	236.71
750.00	236.63
750.33	236.63
750.65	236.54
750.98	236.26
751.31	236.18
751.64	236.10
751.97	236.08
752.29	235.98
752.62	235.83
752.95	235.73
753.28	235.63
753.60	235.53
753.93	235.48
754.26	235.40
754.59	235.27
754.91	235.17
755.24	235.08
755.57	235.05
755.90	234.96
756.22	234.87
756.55	234.76
756.88	234.65
757.20	234.49
757.53	234.37
757.86	234.29
758.19	234.22
758.51	234.13
758.84	233.99
759.17	233.91
759.49	233.84
759.82	233.83
760.15	233.77
760.47	233.70
760.80	233.59
761.13	233.54
761.45	233.48
761.78	233.42
762.11	233.36
762.43	233.23
762.76	233.16
763.08	233.12
763.41	233.07
763.74	233.01
764.06	232.95
764.39	232.90
764.71	232.85
765.04	232.78
765.37	232.71
765.69	232.65
766.02	232.60
766.34	232.53
766.67	232.43
767.00	232.40
767.32	232.42
767.65	232.44
767.97	232.38
768.30	232.33
768.62	232.28
768.95	232.22
769.27	232.16
769.60	232.13
769.92	232.06
770.25	231.99
770.57	231.92
770.90	231.88
771.22	231.82
771.55	231.77
771.87	231.74
772.20	231.69
772.52	231.75
772.85	231.86
773.17	231.82
773.50	231.77
773.82	231.71
774.15	231.61
774.47	231.48
774.80	231.43
775.12	231.39
775.45	231.35
775.77	231.32
776.09	231.30
776.42	231.26
776.74	231.26
777.07	231.23
777.39	231.20
777.72	231.16
778.04	231.14
778.36	231.10
778.69	231.07
779.01	231.05
779.33	230.91
779.66	230.73
779.98	230.70
780.31	230.67
780.63	230.70
780.95	230.69
781.28	230.66
781.60	230.63
781.92	230.60
782.25	230.57
782.57	230.54
782.89	230.50
783.22	230.46
783.54	230.41
783.86	230.39
784.19	230.35
784.51	230.37
784.83	230.33
785.16	230.30
785.48	230.27
785.80	230.24
786.12	230.23
786.45	230.20
786.77	230.19
787.09	230.15
787.42	230.08
787.74	230.06
788.06	230.04
788.38	230.02
788.71	229.99
789.03	229.97
789.35	229.97
789.67	229.93
789.99	229.92
790.32	229.89
790.64	229.88
790.96	229.97
791.28	229.91
791.61	229.89
791.93	229.87
792.25	229.85
792.57	229.92
792.89	229.87
793.21	229.86
793.54	229.83
793.86	229.80
794.18	229.79
794.50	229.74
794.82	229.72
795.14	229.72
795.47	229.73
795.79	229.71
796.11	229.66
796.43	229.64
796.75	229.62
797.07	229.61
797.39	229.59
797.71	229.47
798.04	229.46
798.36	229.45
798.68	229.43
799.00	229.43
799.32	229.35
799.64	229.36
799.96	229.34
800.28	229.34
800.60	229.32
800.92	229.32
801.24	229.29
801.56	229.29
801.89	229.26
802.21	229.25
802.53	229.22
802.85	229.23
803.17	229.28
803.49	229.24
803.81	229.21
804.13	229.19
804.45	229.17
804.77	229.16
805.09	229.14
805.41	229.12
805.73	229.08
806.05	229.04
806.37	229.01
806.69	228.99
807.01	228.96
807.33	228.96
807.65	228.91
807.97	228.95
808.28	228.92
808.60	228.91
808.92	228.87
809.24	228.94
809.56	228.90
809.88	228.84
810.20	228.84
810.52	228.85
810.84	228.83
811.16	228.80
811.48	228.78
811.80	228.82
812.12	228.80
812.43	228.81
812.75	228.81
813.07	228.79
813.39	228.79
813.71	228.76
814.03	228.74
814.35	228.73
814.67	228.67
814.98	228.66
815.30	228.64
815.62	228.62
815.94	228.52
816.26	228.53
816.58	228.50
816.89	228.50
817.21	228.46
817.53	228.46
817.85	228.46
818.17	228.45
818.48	228.39
