SpectraSuite Data File
++++++++++++++++++++++++++++++++++++
Date: Fri Oct 02 15:38:58 EDT 2015
User: lab3
Dark Spectrum Present: No
Reference Spectrum Present: No
Number of Sampled Component Spectra: 1
Spectrometers: USB2E7196
Integration Time (usec): 46000 (USB2E7196)
Spectra Averaged: 1200 (USB2E7196)
Boxcar Smoothing: 10 (USB2E7196)
Correct for Electrical Dark: No (USB2E7196)
Strobe/Lamp Enabled: No (USB2E7196)
Correct for Detector Non-linearity: No (USB2E7196)
Correct for Stray Light: No (USB2E7196)
Number of Pixels in Processed Spectrum: 2048
>>>>>Begin Processed Spectral Data<<<<<
339.09	0.00
339.48	213.63
339.86	215.09
340.24	216.51
340.63	217.84
341.01	221.15
341.39	220.83
341.78	222.06
342.16	223.16
342.54	223.60
342.93	212.14
343.31	222.85
343.69	223.39
344.07	223.85
344.46	224.28
344.84	224.67
345.22	224.89
345.60	225.13
345.99	225.32
346.37	225.46
346.75	225.57
347.13	225.65
347.52	225.72
347.90	225.81
348.28	225.85
348.66	225.89
349.05	225.89
349.43	225.94
349.81	225.99
350.19	226.04
350.57	226.10
350.96	226.17
351.34	226.27
351.72	226.37
352.10	226.48
352.48	226.55
352.87	226.61
353.25	226.68
353.63	226.75
354.01	226.80
354.39	226.88
354.77	226.97
355.15	227.08
355.54	227.12
355.92	227.14
356.30	227.20
356.68	227.36
357.06	227.43
357.44	227.48
357.82	227.54
358.20	227.66
358.58	227.72
358.97	227.78
359.35	227.86
359.73	227.94
360.11	227.98
360.49	228.04
360.87	228.08
361.25	228.13
361.63	228.21
362.01	228.27
362.39	228.29
362.77	228.32
363.15	228.34
363.53	228.37
363.91	228.42
364.29	228.44
364.67	228.33
365.05	228.36
365.43	228.38
365.81	228.41
366.19	228.42
366.57	228.48
366.95	228.47
367.33	228.44
367.71	228.43
368.09	228.45
368.47	228.44
368.85	228.43
369.23	228.44
369.61	228.37
369.99	228.38
370.37	228.38
370.75	228.45
371.13	228.43
371.51	228.37
371.89	228.35
372.27	228.33
372.65	228.31
373.03	228.27
373.41	228.23
373.78	228.18
374.16	228.07
374.54	227.98
374.92	227.94
375.30	227.90
375.68	227.84
376.06	227.80
376.44	227.74
376.82	227.69
377.19	227.64
377.57	227.59
377.95	227.50
378.33	227.43
378.71	227.27
379.09	227.22
379.47	227.20
379.84	227.14
380.22	227.07
380.60	227.00
380.98	226.95
381.36	226.90
381.73	226.85
382.11	226.82
382.49	226.78
382.87	226.71
383.25	226.67
383.62	226.78
384.00	226.71
384.38	226.68
384.76	226.67
385.13	226.67
385.51	226.63
385.89	226.59
386.27	226.56
386.64	226.56
387.02	226.51
387.40	226.46
387.78	226.43
388.15	226.41
388.53	226.37
388.91	226.34
389.29	226.30
389.66	226.30
390.04	226.26
390.42	226.26
390.79	226.26
391.17	226.25
391.55	226.09
391.92	226.09
392.30	226.08
392.68	226.04
393.05	226.02
393.43	226.02
393.81	226.03
394.18	226.01
394.56	226.01
394.94	226.04
395.31	226.04
395.69	226.09
396.06	226.10
396.44	226.14
396.82	226.16
397.19	226.25
397.57	226.26
397.95	226.30
398.32	226.29
398.70	226.33
399.07	226.39
399.45	226.43
399.82	226.47
400.20	226.51
400.58	226.57
400.95	226.57
401.33	226.65
401.70	226.80
402.08	226.90
402.45	226.98
402.83	227.10
403.20	227.22
403.58	227.31
403.95	227.45
404.33	227.59
404.71	227.73
405.08	227.93
405.46	228.10
405.83	228.29
406.21	228.49
406.58	228.71
406.96	228.92
407.33	229.17
407.70	229.45
408.08	229.84
408.45	230.17
408.83	230.54
409.20	230.86
409.58	231.15
409.95	231.56
410.33	232.01
410.70	232.42
411.08	232.91
411.45	233.44
411.82	233.96
412.20	234.55
412.57	235.27
412.95	235.83
413.32	236.56
413.69	237.30
414.07	238.08
414.44	238.95
414.82	239.83
415.19	240.86
415.56	241.91
415.94	242.99
416.31	244.21
416.68	245.41
417.06	246.83
417.43	248.15
417.81	249.66
418.18	251.20
418.55	252.88
418.93	254.64
419.30	256.46
419.67	258.42
420.04	260.44
420.42	262.53
420.79	264.95
421.16	267.39
421.54	269.88
421.91	272.49
422.28	275.16
422.66	278.05
423.03	280.81
423.40	283.71
423.77	286.82
424.15	290.00
424.52	293.34
424.89	296.92
425.26	300.50
425.64	303.83
426.01	307.56
426.38	311.37
426.75	315.31
427.13	319.36
427.50	323.60
427.87	328.00
428.24	332.43
428.61	336.70
428.99	341.32
429.36	346.39
429.73	351.24
430.10	356.11
430.47	361.08
430.85	366.19
431.22	371.68
431.59	377.32
431.96	382.82
432.33	388.94
432.70	394.79
433.08	401.68
433.45	408.20
433.82	414.65
434.19	421.85
434.56	428.93
434.93	435.78
435.30	442.53
435.68	450.16
436.05	457.66
436.42	465.14
436.79	471.95
437.16	479.29
437.53	487.16
437.90	495.06
438.27	502.78
438.64	511.12
439.01	518.69
439.38	525.63
439.75	532.30
440.13	539.81
440.50	546.96
440.87	552.65
441.24	558.84
441.61	565.58
441.98	570.47
442.35	576.27
442.72	582.19
443.09	587.85
443.46	591.40
443.83	593.97
444.20	596.10
444.57	599.32
444.94	601.10
445.31	602.92
445.68	604.43
446.05	605.50
446.42	604.98
446.79	604.26
447.16	603.56
447.53	602.94
447.90	600.36
448.27	597.86
448.64	594.19
449.01	591.58
449.37	586.59
449.74	582.07
450.11	576.29
450.48	569.99
450.85	563.67
451.22	558.26
451.59	552.99
451.96	548.22
452.33	541.34
452.70	535.22
453.07	527.82
453.43	520.46
453.80	513.31
454.17	506.47
454.54	500.19
454.91	493.12
455.28	486.49
455.65	480.26
456.02	473.69
456.38	468.39
456.75	461.59
457.12	456.11
457.49	450.58
457.86	445.42
458.23	440.91
458.59	435.90
458.96	430.78
459.33	426.28
459.70	421.69
460.07	418.23
460.43	414.16
460.80	410.37
461.17	407.07
461.54	403.49
461.91	400.16
462.27	396.77
462.64	394.05
463.01	390.89
463.38	387.71
463.74	384.84
464.11	382.33
464.48	380.07
464.85	377.61
465.21	375.77
465.58	373.68
465.95	371.26
466.32	369.38
466.68	367.52
467.05	365.64
467.42	363.81
467.78	361.83
468.15	360.00
468.52	358.68
468.88	356.86
469.25	355.21
469.62	353.91
469.98	352.49
470.35	351.21
470.72	350.07
471.08	348.90
471.45	347.94
471.82	346.83
472.18	345.67
472.55	344.94
472.92	343.99
473.28	343.25
473.65	342.47
474.02	341.71
474.38	341.08
474.75	340.72
475.11	340.21
475.48	339.97
475.85	339.71
476.21	339.58
476.58	339.52
476.94	339.65
477.31	339.73
477.67	339.83
478.04	340.05
478.41	340.36
478.77	340.79
479.14	341.06
479.50	341.59
479.87	342.26
480.23	342.95
480.60	343.63
480.96	344.31
481.33	345.30
481.69	346.27
482.06	347.25
482.42	348.15
482.79	349.27
483.15	350.56
483.52	352.03
483.88	353.45
484.25	354.96
484.61	356.55
484.98	358.24
485.34	360.15
485.71	362.14
486.07	364.28
486.44	366.41
486.80	368.79
487.17	371.26
487.53	373.98
487.90	376.78
488.26	379.87
488.62	383.09
488.99	386.33
489.35	389.75
489.72	393.45
490.08	397.34
490.44	401.35
490.81	405.52
491.17	409.81
491.54	414.40
491.90	419.14
492.26	424.23
492.63	429.56
492.99	435.12
493.36	440.88
493.72	446.91
494.08	453.12
494.45	459.69
494.81	466.51
495.17	473.50
495.54	480.88
495.90	488.58
496.26	496.47
496.63	504.58
496.99	513.01
497.35	521.82
497.72	530.93
498.08	540.26
498.44	549.90
498.80	560.11
499.17	570.55
499.53	581.36
499.89	592.50
500.26	603.88
500.62	615.46
500.98	627.73
501.34	640.17
501.71	653.14
502.07	666.23
502.43	679.81
502.79	693.70
503.16	708.04
503.52	722.56
503.88	737.51
504.24	752.91
504.60	768.49
504.97	784.53
505.33	800.90
505.69	818.20
506.05	835.78
506.41	853.39
506.78	871.14
507.14	889.34
507.50	907.98
507.86	926.96
508.22	946.23
508.59	965.30
508.95	985.17
509.31	1005.67
509.67	1026.93
510.03	1048.23
510.39	1069.49
510.75	1090.91
511.12	1112.59
511.48	1134.44
511.84	1156.31
512.20	1178.49
512.56	1201.53
512.92	1224.61
513.28	1247.26
513.64	1270.10
514.00	1293.26
514.37	1316.84
514.73	1340.36
515.09	1363.75
515.45	1387.42
515.81	1411.39
516.17	1435.24
516.53	1458.72
516.89	1482.07
517.25	1505.56
517.61	1528.94
517.97	1552.63
518.33	1575.69
518.69	1598.78
519.05	1622.28
519.41	1645.92
519.77	1669.88
520.13	1693.08
520.49	1716.25
520.85	1739.62
521.21	1762.78
521.57	1786.30
521.93	1809.17
522.29	1832.57
522.65	1855.27
523.01	1877.93
523.37	1900.10
523.73	1923.20
524.09	1945.77
524.45	1968.27
524.81	1990.25
525.17	2011.90
525.53	2033.14
525.89	2055.01
526.25	2076.73
526.61	2097.45
526.97	2118.23
527.33	2138.78
527.68	2159.07
528.04	2178.75
528.40	2197.44
528.76	2216.03
529.12	2234.07
529.48	2252.12
529.84	2268.18
530.20	2284.99
530.56	2301.21
530.91	2317.40
531.27	2333.14
531.63	2348.25
531.99	2362.68
532.35	2376.64
532.71	2390.86
533.07	2405.47
533.42	2418.06
533.78	2431.54
534.14	2445.40
534.50	2458.46
534.86	2471.37
535.21	2482.42
535.57	2493.83
535.93	2505.07
536.29	2515.25
536.65	2525.39
537.00	2534.49
537.36	2544.73
537.72	2553.73
538.08	2561.91
538.44	2569.56
538.79	2576.98
539.15	2583.50
539.51	2589.83
539.87	2595.40
540.22	2599.03
540.58	2602.74
540.94	2607.78
541.29	2611.44
541.65	2613.25
542.01	2614.45
542.37	2614.88
542.72	2616.52
543.08	2616.61
543.44	2617.26
543.79	2616.95
544.15	2615.84
544.51	2615.07
544.87	2613.13
545.22	2610.43
545.58	2607.17
545.94	2603.86
546.29	2599.29
546.65	2594.87
547.01	2590.22
547.36	2586.18
547.72	2582.37
548.07	2577.13
548.43	2570.68
548.79	2563.12
549.14	2556.65
549.50	2550.56
549.86	2543.43
550.21	2535.44
550.57	2528.14
550.92	2518.76
551.28	2510.00
551.64	2501.36
551.99	2492.49
552.35	2483.17
552.70	2474.06
553.06	2465.62
553.41	2456.58
553.77	2447.25
554.13	2437.66
554.48	2427.51
554.84	2416.15
555.19	2405.19
555.55	2394.18
555.90	2383.13
556.26	2372.66
556.61	2361.25
556.97	2348.44
557.32	2336.23
557.68	2323.81
558.03	2311.13
558.39	2299.75
558.74	2288.50
559.10	2275.89
559.45	2263.31
559.81	2251.22
560.16	2238.74
560.52	2226.30
560.87	2214.11
561.23	2201.34
561.58	2188.65
561.94	2175.61
562.29	2162.31
562.64	2149.51
563.00	2136.49
563.35	2123.86
563.71	2111.08
564.06	2098.33
564.42	2086.07
564.77	2073.27
565.12	2060.53
565.48	2047.91
565.83	2035.05
566.19	2022.45
566.54	2009.78
566.89	1996.21
567.25	1982.74
567.60	1970.33
567.96	1957.31
568.31	1943.05
568.66	1929.20
569.02	1916.62
569.37	1904.00
569.72	1891.76
570.08	1878.56
570.43	1864.88
570.78	1851.01
571.14	1836.73
571.49	1822.90
571.84	1809.55
572.20	1795.36
572.55	1781.22
572.90	1766.99
573.26	1752.88
573.61	1738.27
573.96	1724.06
574.31	1710.00
574.67	1696.16
575.02	1681.38
575.37	1666.49
575.72	1652.53
576.08	1639.06
576.43	1624.50
576.78	1610.34
577.13	1596.48
577.49	1583.00
577.84	1570.14
578.19	1556.52
578.54	1542.86
578.90	1528.85
579.25	1514.76
579.60	1502.03
579.95	1489.34
580.30	1476.44
580.66	1463.24
581.01	1450.01
581.36	1436.76
581.71	1424.42
582.06	1411.98
582.42	1399.78
582.77	1387.77
583.12	1375.78
583.47	1363.41
583.82	1351.38
584.17	1339.00
584.53	1326.30
584.88	1313.83
585.23	1301.13
585.58	1289.10
585.93	1277.32
586.28	1266.17
586.63	1254.94
586.98	1243.42
587.34	1231.94
587.69	1220.26
588.04	1208.91
588.39	1197.92
588.74	1187.16
589.09	1176.25
589.44	1164.91
589.79	1154.05
590.14	1143.32
590.49	1132.49
590.84	1121.91
591.19	1111.51
591.54	1100.95
591.89	1090.60
592.25	1080.47
592.60	1070.02
592.95	1059.86
593.30	1049.98
593.65	1039.89
594.00	1029.93
594.35	1020.42
594.70	1010.46
595.05	1001.27
595.40	992.12
595.75	982.85
596.10	973.90
596.45	964.83
596.80	956.05
597.15	947.12
597.50	938.30
597.85	929.87
598.19	921.30
598.54	912.74
598.89	904.64
599.24	896.73
599.59	888.71
599.94	881.45
600.29	874.09
600.64	866.47
600.99	858.55
601.34	850.92
601.69	843.00
602.04	835.67
602.39	828.25
602.74	820.89
603.08	813.46
603.43	806.02
603.78	798.71
604.13	791.56
604.48	784.42
604.83	777.39
605.18	770.28
605.53	763.42
605.87	756.45
606.22	749.69
606.57	742.95
606.92	736.08
607.27	729.19
607.62	722.60
607.96	716.29
608.31	710.36
608.66	704.29
609.01	698.47
609.36	692.81
609.70	686.97
610.05	681.00
610.40	675.30
610.75	669.62
611.10	664.23
611.44	658.71
611.79	653.30
612.14	647.85
612.49	642.43
612.83	637.23
613.18	632.15
613.53	627.00
613.88	621.87
614.22	617.13
614.57	612.34
614.92	607.37
615.27	602.52
615.61	597.71
615.96	592.99
616.31	588.28
616.65	583.61
617.00	579.11
617.35	574.72
617.70	570.36
618.04	566.12
618.39	561.79
618.74	557.66
619.08	553.57
619.43	549.58
619.78	545.61
620.12	541.64
620.47	537.80
620.82	534.06
621.16	530.37
621.51	526.60
621.85	522.84
622.20	519.22
622.55	515.64
622.89	512.13
623.24	508.65
623.59	505.18
623.93	501.80
624.28	498.51
624.62	495.35
624.97	492.24
625.32	489.03
625.66	485.80
626.01	482.57
626.35	479.36
626.70	476.18
627.04	473.23
627.39	470.18
627.73	467.24
628.08	464.41
628.43	461.56
628.77	458.77
629.12	456.10
629.46	453.48
629.81	450.78
630.15	448.07
630.50	445.43
630.84	442.84
631.19	440.32
631.53	437.90
631.88	435.42
632.22	432.94
632.57	430.74
632.91	428.58
633.26	426.49
633.60	424.42
633.95	422.41
634.29	420.30
634.64	418.29
634.98	416.11
635.32	414.05
635.67	412.14
636.01	410.18
636.36	408.23
636.70	406.39
637.05	404.57
637.39	402.80
637.73	401.05
638.08	399.39
638.42	397.73
638.77	395.96
639.11	394.12
639.45	392.36
639.80	390.54
640.14	388.81
640.49	387.04
640.83	385.29
641.17	383.59
641.52	381.93
641.86	380.26
642.20	378.80
642.55	377.20
642.89	375.63
643.23	374.12
643.58	372.76
643.92	371.28
644.26	369.83
644.61	368.45
644.95	367.01
645.29	365.52
645.64	364.03
645.98	362.63
646.32	361.33
646.66	360.01
647.01	358.71
647.35	357.45
647.69	356.19
648.04	355.03
648.38	353.80
648.72	352.59
649.06	351.39
649.41	350.17
649.75	349.02
650.09	347.89
650.43	346.74
650.78	345.54
651.12	344.39
651.46	343.29
651.80	342.21
652.14	341.17
652.49	340.15
652.83	339.11
653.17	338.10
653.51	337.14
653.85	336.24
654.20	335.27
654.54	334.22
654.88	333.24
655.22	332.29
655.56	331.33
655.90	330.44
656.25	329.57
656.59	328.71
656.93	327.86
657.27	327.01
657.61	326.11
657.95	325.29
658.29	324.44
658.64	323.63
658.98	322.79
659.32	321.97
659.66	321.22
660.00	320.47
660.34	319.71
660.68	318.93
661.02	318.11
661.36	317.34
661.70	316.62
662.05	315.89
662.39	315.17
662.73	314.53
663.07	313.88
663.41	313.19
663.75	312.49
664.09	311.80
664.43	311.06
664.77	310.42
665.11	309.70
665.45	309.06
665.79	308.44
666.13	307.79
666.47	307.12
666.81	306.41
667.15	305.69
667.49	305.06
667.83	304.47
668.17	303.87
668.51	303.29
668.85	302.74
669.19	302.24
669.53	301.63
669.87	300.99
670.21	300.38
670.55	299.79
670.89	299.29
671.23	298.74
671.57	298.20
671.91	297.72
672.25	297.27
672.58	296.81
672.92	296.26
673.26	295.77
673.60	295.30
673.94	294.85
674.28	294.43
674.62	293.97
674.96	293.45
675.30	293.01
675.64	292.53
675.97	292.02
676.31	291.49
676.65	291.00
676.99	290.60
677.33	290.10
677.67	289.65
678.01	289.13
678.34	288.67
678.68	288.25
679.02	287.74
679.36	287.27
679.70	286.79
680.04	286.34
680.37	285.89
680.71	285.46
681.05	285.05
681.39	284.59
681.73	284.11
682.06	283.66
682.40	283.21
682.74	282.79
683.08	282.44
683.42	282.02
683.75	281.65
684.09	281.17
684.43	280.77
684.77	280.34
685.10	279.98
685.44	279.59
685.78	279.19
686.12	278.83
686.45	278.42
686.79	278.00
687.13	277.62
687.46	277.19
687.80	276.79
688.14	276.35
688.48	275.96
688.81	275.56
689.15	275.21
689.49	274.80
689.82	274.40
690.16	273.93
690.50	273.55
690.83	273.14
691.17	272.75
691.51	272.38
691.84	272.02
692.18	271.61
692.52	271.20
692.85	270.80
693.19	270.46
693.52	270.07
693.86	269.70
694.20	269.32
694.53	268.97
694.87	268.58
695.21	268.19
695.54	267.82
695.88	267.44
696.21	267.03
696.55	266.68
696.88	266.32
697.22	265.97
697.56	265.62
697.89	265.22
698.23	264.87
698.56	264.49
698.90	264.14
699.23	263.77
699.57	263.42
699.90	263.05
700.24	262.65
700.58	262.33
700.91	262.03
701.25	261.79
701.58	261.52
701.92	261.23
702.25	260.93
702.59	260.60
702.92	260.30
703.26	259.98
703.59	259.65
703.93	259.43
704.26	259.13
704.60	258.82
704.93	258.50
705.26	258.17
705.60	257.90
705.93	257.57
706.27	257.31
706.60	257.03
706.94	256.79
707.27	256.47
707.61	256.17
707.94	255.84
708.27	255.43
708.61	255.08
708.94	254.76
709.28	254.47
709.61	254.18
709.94	253.90
710.28	253.64
710.61	253.40
710.95	253.02
711.28	252.82
711.61	252.55
711.95	252.32
712.28	252.06
712.61	251.77
712.95	251.58
713.28	251.40
713.61	251.13
713.95	250.83
714.28	250.60
714.61	250.34
714.95	250.09
715.28	249.85
715.61	249.63
715.95	249.41
716.28	249.18
716.61	249.00
716.95	248.76
717.28	248.53
717.61	248.29
717.94	248.09
718.28	247.77
718.61	247.55
718.94	247.31
719.27	247.09
719.61	246.91
719.94	246.67
720.27	246.36
720.60	246.16
720.94	245.96
721.27	245.76
721.60	245.57
721.93	245.38
722.27	245.22
722.60	245.04
722.93	244.82
723.26	244.63
723.59	244.40
723.93	244.23
724.26	244.05
724.59	243.86
724.92	243.68
725.25	243.55
725.59	243.38
725.92	243.24
726.25	243.07
726.58	242.90
726.91	242.71
727.24	242.57
727.57	242.41
727.91	242.23
728.24	242.11
728.57	241.95
728.90	241.80
729.23	241.61
729.56	241.50
729.89	241.35
730.22	241.19
730.55	241.04
730.89	240.89
731.22	240.73
731.55	240.57
731.88	240.43
732.21	240.26
732.54	240.11
732.87	239.96
733.20	239.82
733.53	239.69
733.86	239.57
734.19	239.41
734.52	239.29
734.85	239.25
735.18	239.09
735.51	238.99
735.84	238.86
736.17	238.77
736.50	238.57
736.83	238.60
737.16	238.47
737.49	238.36
737.82	238.23
738.15	238.13
738.48	238.02
738.81	237.90
739.14	237.77
739.47	237.65
739.80	237.52
740.13	237.40
740.46	237.27
740.79	237.12
741.12	237.01
741.45	236.86
741.78	236.67
742.11	236.59
742.44	236.44
742.77	236.34
743.10	236.21
743.43	236.10
743.75	235.85
744.08	235.95
744.41	235.84
744.74	235.73
745.07	235.59
745.40	235.52
745.73	235.47
746.06	235.37
746.39	235.29
746.71	235.19
747.04	235.09
747.37	234.99
747.70	234.92
748.03	234.84
748.36	234.78
748.68	234.69
749.01	234.57
749.34	234.47
749.67	234.39
750.00	234.32
750.33	234.33
750.65	234.26
750.98	233.98
751.31	233.89
751.64	233.81
751.97	233.79
752.29	233.69
752.62	233.53
752.95	233.44
753.28	233.34
753.60	233.24
753.93	233.20
754.26	233.14
754.59	233.01
754.91	232.92
755.24	232.81
755.57	232.78
755.90	232.71
756.22	232.62
756.55	232.53
756.88	232.42
757.20	232.26
757.53	232.14
757.86	232.05
758.19	231.98
758.51	231.91
758.84	231.78
759.17	231.69
759.49	231.63
759.82	231.62
760.15	231.57
760.47	231.51
760.80	231.41
761.13	231.35
761.45	231.29
761.78	231.22
762.11	231.16
762.43	231.04
762.76	230.97
763.08	230.93
763.41	230.87
763.74	230.83
764.06	230.77
764.39	230.73
764.71	230.68
765.04	230.61
765.37	230.54
765.69	230.48
766.02	230.44
766.34	230.38
766.67	230.29
767.00	230.26
767.32	230.28
767.65	230.30
767.97	230.25
768.30	230.21
768.62	230.17
768.95	230.11
769.27	230.06
769.60	230.02
769.92	229.95
770.25	229.89
770.57	229.82
770.90	229.77
771.22	229.71
771.55	229.67
771.87	229.64
772.20	229.60
772.52	229.68
772.85	229.79
773.17	229.75
773.50	229.70
773.82	229.64
774.15	229.54
774.47	229.42
774.80	229.38
775.12	229.33
775.45	229.30
775.77	229.28
776.09	229.26
776.42	229.24
776.74	229.26
777.07	229.23
777.39	229.21
777.72	229.17
778.04	229.16
778.36	229.12
778.69	229.08
779.01	229.07
779.33	228.93
779.66	228.75
779.98	228.71
780.31	228.69
780.63	228.72
780.95	228.71
781.28	228.69
781.60	228.66
781.92	228.65
782.25	228.62
782.57	228.59
782.89	228.55
783.22	228.51
783.54	228.45
783.86	228.44
784.19	228.41
784.51	228.43
784.83	228.40
785.16	228.37
785.48	228.36
785.80	228.32
786.12	228.31
786.45	228.30
786.77	228.30
787.09	228.26
787.42	228.20
787.74	228.18
788.06	228.16
788.38	228.13
788.71	228.10
789.03	228.08
789.35	228.08
789.67	228.04
789.99	228.04
790.32	228.00
790.64	227.99
790.96	228.09
791.28	228.03
791.61	227.99
791.93	227.99
792.25	227.96
792.57	228.03
792.89	227.99
793.21	227.97
793.54	227.94
793.86	227.92
794.18	227.90
794.50	227.87
794.82	227.85
795.14	227.85
795.47	227.86
795.79	227.84
796.11	227.80
796.43	227.78
796.75	227.76
797.07	227.76
797.39	227.73
797.71	227.60
798.04	227.59
798.36	227.58
798.68	227.57
799.00	227.55
799.32	227.48
799.64	227.49
799.96	227.46
800.28	227.47
800.60	227.45
800.92	227.44
801.24	227.41
801.56	227.40
801.89	227.37
802.21	227.35
802.53	227.32
802.85	227.32
803.17	227.37
803.49	227.32
803.81	227.30
804.13	227.27
804.45	227.24
804.77	227.25
805.09	227.22
805.41	227.19
805.73	227.16
806.05	227.12
806.37	227.10
806.69	227.08
807.01	227.05
807.33	227.05
807.65	226.99
807.97	227.02
808.28	227.00
808.60	226.98
808.92	226.96
809.24	227.02
809.56	226.99
809.88	226.94
810.20	226.94
810.52	226.95
810.84	226.93
811.16	226.92
811.48	226.89
811.80	226.94
812.12	226.92
812.43	226.95
812.75	226.94
813.07	226.92
813.39	226.92
813.71	226.89
814.03	226.87
814.35	226.87
814.67	226.83
814.98	226.82
815.30	226.81
815.62	226.78
815.94	226.71
816.26	226.71
816.58	226.67
816.89	226.67
817.21	226.63
817.53	226.63
817.85	226.62
818.17	226.62
818.48	226.55
818.80	226.57
