SpectraSuite Data File
++++++++++++++++++++++++++++++++++++
Date: Sat Oct 03 05:07:45 EDT 2015
User: lab3
Dark Spectrum Present: No
Reference Spectrum Present: No
Number of Sampled Component Spectra: 1
Spectrometers: USB2E7196
Integration Time (usec): 46000 (USB2E7196)
Spectra Averaged: 12000 (USB2E7196)
Boxcar Smoothing: 10 (USB2E7196)
Correct for Electrical Dark: No (USB2E7196)
Strobe/Lamp Enabled: No (USB2E7196)
Correct for Detector Non-linearity: No (USB2E7196)
Correct for Stray Light: No (USB2E7196)
Number of Pixels in Processed Spectrum: 2048
>>>>>Begin Processed Spectral Data<<<<<
339.09	0.00
339.48	213.74
339.86	215.22
340.24	216.60
340.63	218.02
341.01	221.36
341.39	220.76
341.78	222.08
342.16	223.35
342.54	223.72
342.93	212.21
343.31	222.93
343.69	223.47
344.07	223.93
344.46	224.36
344.84	224.75
345.22	224.97
345.60	225.23
345.99	225.42
346.37	225.56
346.75	225.67
347.13	225.75
347.52	225.82
347.90	225.91
348.28	225.95
348.66	226.00
349.05	226.00
349.43	226.05
349.81	226.10
350.19	226.16
350.57	226.23
350.96	226.31
351.34	226.41
351.72	226.50
352.10	226.61
352.48	226.68
352.87	226.73
353.25	226.80
353.63	226.86
354.01	226.92
354.39	226.99
354.77	227.07
355.15	227.18
355.54	227.23
355.92	227.25
356.30	227.33
356.68	227.49
357.06	227.56
357.44	227.61
357.82	227.67
358.20	227.78
358.58	227.84
358.97	227.90
359.35	227.99
359.73	228.07
360.11	228.12
360.49	228.18
360.87	228.23
361.25	228.29
361.63	228.38
362.01	228.43
362.39	228.46
362.77	228.50
363.15	228.53
363.53	228.56
363.91	228.60
364.29	228.62
364.67	228.52
365.05	228.54
365.43	228.57
365.81	228.61
366.19	228.63
366.57	228.68
366.95	228.68
367.33	228.65
367.71	228.65
368.09	228.67
368.47	228.66
368.85	228.65
369.23	228.66
369.61	228.60
369.99	228.62
370.37	228.62
370.75	228.70
371.13	228.67
371.51	228.62
371.89	228.60
372.27	228.58
372.65	228.56
373.03	228.52
373.41	228.47
373.78	228.42
374.16	228.31
374.54	228.23
374.92	228.18
375.30	228.14
375.68	228.07
376.06	228.03
376.44	227.97
376.82	227.93
377.19	227.88
377.57	227.83
377.95	227.74
378.33	227.68
378.71	227.52
379.09	227.47
379.47	227.44
379.84	227.38
380.22	227.31
380.60	227.24
380.98	227.20
381.36	227.15
381.73	227.08
382.11	227.06
382.49	227.02
382.87	226.96
383.25	226.92
383.62	227.02
384.00	226.95
384.38	226.91
384.76	226.90
385.13	226.90
385.51	226.86
385.89	226.81
386.27	226.77
386.64	226.76
387.02	226.71
387.40	226.67
387.78	226.64
388.15	226.62
388.53	226.59
388.91	226.56
389.29	226.52
389.66	226.52
390.04	226.48
390.42	226.48
390.79	226.47
391.17	226.45
391.55	226.29
391.92	226.28
392.30	226.29
392.68	226.25
393.05	226.23
393.43	226.22
393.81	226.23
394.18	226.21
394.56	226.21
394.94	226.25
395.31	226.25
395.69	226.29
396.06	226.32
396.44	226.35
396.82	226.36
397.19	226.45
397.57	226.46
397.95	226.51
398.32	226.50
398.70	226.55
399.07	226.62
399.45	226.65
399.82	226.70
400.20	226.73
400.58	226.80
400.95	226.81
401.33	226.89
401.70	227.05
402.08	227.15
402.45	227.24
402.83	227.36
403.20	227.47
403.58	227.56
403.95	227.70
404.33	227.85
404.71	228.00
405.08	228.22
405.46	228.38
405.83	228.57
406.21	228.76
406.58	228.99
406.96	229.20
407.33	229.46
407.70	229.74
408.08	230.13
408.45	230.46
408.83	230.83
409.20	231.16
409.58	231.45
409.95	231.86
410.33	232.31
410.70	232.72
411.08	233.21
411.45	233.73
411.82	234.26
412.20	234.86
412.57	235.58
412.95	236.14
413.32	236.87
413.69	237.63
414.07	238.43
414.44	239.30
414.82	240.19
415.19	241.23
415.56	242.28
415.94	243.37
416.31	244.59
416.68	245.82
417.06	247.24
417.43	248.57
417.81	250.10
418.18	251.66
418.55	253.37
418.93	255.13
419.30	256.99
419.67	258.95
420.04	260.97
420.42	263.07
420.79	265.51
421.16	267.96
421.54	270.45
421.91	273.06
422.28	275.76
422.66	278.67
423.03	281.45
423.40	284.37
423.77	287.49
424.15	290.68
424.52	294.02
424.89	297.63
425.26	301.21
425.64	304.55
426.01	308.29
426.38	312.13
426.75	316.09
427.13	320.14
427.50	324.38
427.87	328.79
428.24	333.25
428.61	337.52
428.99	342.15
429.36	347.22
429.73	352.07
430.10	356.93
430.47	361.90
430.85	367.01
431.22	372.50
431.59	378.15
431.96	383.66
432.33	389.78
432.70	395.61
433.08	402.47
433.45	408.98
433.82	415.38
434.19	422.53
434.56	429.58
434.93	436.39
435.30	443.13
435.68	450.74
436.05	458.20
436.42	465.62
436.79	472.40
437.16	479.71
437.53	487.54
437.90	495.38
438.27	503.05
438.64	511.34
439.01	518.85
439.38	525.71
439.75	532.32
440.13	539.77
440.50	546.86
440.87	552.47
441.24	558.62
441.61	565.33
441.98	570.21
442.35	576.00
442.72	581.90
443.09	587.53
443.46	591.06
443.83	593.64
444.20	595.76
444.57	598.97
444.94	600.76
445.31	602.62
445.68	604.18
446.05	605.28
446.42	604.82
446.79	604.16
447.16	603.55
447.53	602.99
447.90	600.49
448.27	598.09
448.64	594.52
449.01	592.00
449.37	587.09
449.74	582.64
450.11	576.94
450.48	570.73
450.85	564.49
451.22	559.18
451.59	553.98
451.96	549.29
452.33	542.50
452.70	536.48
453.07	529.14
453.43	521.82
453.80	514.73
454.17	507.93
454.54	501.69
454.91	494.63
455.28	488.05
455.65	481.83
456.02	475.28
456.38	470.01
456.75	463.21
457.12	457.76
457.49	452.25
457.86	447.06
458.23	442.54
458.59	437.52
458.96	432.38
459.33	427.86
459.70	423.26
460.07	419.77
460.43	415.66
460.80	411.82
461.17	408.50
461.54	404.88
461.91	401.50
462.27	398.08
462.64	395.33
463.01	392.13
463.38	388.92
463.74	386.01
464.11	383.46
464.48	381.17
464.85	378.66
465.21	376.79
465.58	374.68
465.95	372.24
466.32	370.31
466.68	368.41
467.05	366.50
467.42	364.64
467.78	362.62
468.15	360.76
468.52	359.42
468.88	357.59
469.25	355.93
469.62	354.62
469.98	353.17
470.35	351.87
470.72	350.71
471.08	349.52
471.45	348.52
471.82	347.41
472.18	346.22
472.55	345.46
472.92	344.49
473.28	343.73
473.65	342.92
474.02	342.14
474.38	341.48
474.75	341.10
475.11	340.56
475.48	340.30
475.85	340.02
476.21	339.86
476.58	339.76
476.94	339.88
477.31	339.92
477.67	340.00
478.04	340.19
478.41	340.47
478.77	340.88
479.14	341.14
479.50	341.64
479.87	342.29
480.23	342.95
480.60	343.59
480.96	344.24
481.33	345.21
481.69	346.18
482.06	347.15
482.42	348.03
482.79	349.13
483.15	350.40
483.52	351.86
483.88	353.25
484.25	354.74
484.61	356.30
484.98	357.98
485.34	359.87
485.71	361.85
486.07	363.97
486.44	366.08
486.80	368.43
487.17	370.88
487.53	373.56
487.90	376.37
488.26	379.42
488.62	382.64
488.99	385.87
489.35	389.26
489.72	392.93
490.08	396.80
490.44	400.80
490.81	404.97
491.17	409.23
491.54	413.82
491.90	418.55
492.26	423.61
492.63	428.91
492.99	434.44
493.36	440.17
493.72	446.20
494.08	452.37
494.45	458.94
494.81	465.75
495.17	472.75
495.54	480.14
495.90	487.83
496.26	495.69
496.63	503.80
496.99	512.22
497.35	521.04
497.72	530.16
498.08	539.47
498.44	549.10
498.80	559.30
499.17	569.76
499.53	580.55
499.89	591.71
500.26	603.11
500.62	614.80
500.98	627.12
501.34	639.62
501.71	652.63
502.07	665.83
502.43	679.56
502.79	693.53
503.16	707.96
503.52	722.59
503.88	737.64
504.24	753.16
504.60	768.88
504.97	785.09
505.33	801.72
505.69	819.25
506.05	837.13
506.41	854.95
506.78	872.95
507.14	891.45
507.50	910.42
507.86	929.71
508.22	949.25
508.59	968.62
508.95	988.79
509.31	1009.71
509.67	1031.34
510.03	1052.97
510.39	1074.65
510.75	1096.52
511.12	1118.67
511.48	1141.02
511.84	1163.40
512.20	1186.17
512.56	1209.81
512.92	1233.47
513.28	1256.77
513.64	1280.32
514.00	1304.34
514.37	1328.66
514.73	1352.98
515.09	1377.17
515.45	1401.69
515.81	1426.41
516.17	1451.25
516.53	1475.65
516.89	1499.92
517.25	1524.36
517.61	1548.68
517.97	1573.49
518.33	1597.82
518.69	1622.05
519.05	1646.72
519.41	1671.68
519.77	1696.95
520.13	1721.42
520.49	1745.83
520.85	1770.55
521.21	1794.91
521.57	1819.59
521.93	1843.78
522.29	1868.51
522.65	1892.70
523.01	1916.87
523.37	1940.62
523.73	1965.09
524.09	1989.29
524.45	2013.29
524.81	2036.90
525.17	2060.38
525.53	2083.30
525.89	2106.65
526.25	2129.98
526.61	2152.34
526.97	2174.86
527.33	2197.23
527.68	2219.39
528.04	2240.76
528.40	2261.24
528.76	2281.83
529.12	2302.03
529.48	2322.00
529.84	2340.09
530.20	2358.79
530.56	2376.88
530.91	2395.11
531.27	2413.01
531.63	2430.03
531.99	2446.56
532.35	2462.49
532.71	2478.57
533.07	2495.31
533.42	2510.23
533.78	2526.12
534.14	2542.19
534.50	2557.38
534.86	2572.31
535.21	2585.35
535.57	2598.85
535.93	2612.12
536.29	2624.34
536.65	2636.31
537.00	2647.50
537.36	2659.69
537.72	2670.49
538.08	2680.80
538.44	2690.43
538.79	2699.67
539.15	2708.09
539.51	2716.26
539.87	2723.75
540.22	2729.15
540.58	2734.58
540.94	2741.19
541.29	2746.33
541.65	2749.75
542.01	2752.31
542.37	2754.24
542.72	2757.50
543.08	2759.07
543.44	2761.26
543.79	2762.34
544.15	2762.60
544.51	2763.29
544.87	2762.81
545.22	2761.64
545.58	2759.80
545.94	2757.93
546.29	2754.78
546.65	2751.58
547.01	2748.22
547.36	2745.59
547.72	2743.24
548.07	2739.11
548.43	2733.60
548.79	2727.02
549.14	2721.66
549.50	2716.70
549.86	2710.79
550.21	2703.72
550.57	2697.63
550.92	2689.25
551.28	2681.42
551.64	2673.94
551.99	2665.99
552.35	2657.42
552.70	2649.08
553.06	2641.09
553.41	2632.47
553.77	2623.58
554.13	2614.67
554.48	2605.00
554.84	2594.03
555.19	2583.47
555.55	2572.96
555.90	2562.50
556.26	2552.62
556.61	2541.71
556.97	2529.13
557.32	2517.07
557.68	2504.96
558.03	2492.53
558.39	2481.29
558.74	2470.37
559.10	2457.70
559.45	2445.23
559.81	2433.42
560.16	2420.98
560.52	2408.75
560.87	2396.90
561.23	2384.25
561.58	2371.63
561.94	2358.70
562.29	2345.27
562.64	2332.52
563.00	2319.48
563.35	2306.82
563.71	2294.01
564.06	2281.05
564.42	2268.84
564.77	2256.02
565.12	2243.08
565.48	2230.18
565.83	2217.19
566.19	2204.35
566.54	2191.51
566.89	2177.52
567.25	2163.64
567.60	2151.12
567.96	2137.68
568.31	2122.91
568.66	2108.82
569.02	2096.00
569.37	2083.05
569.72	2070.58
570.08	2056.86
570.43	2042.83
570.78	2028.66
571.14	2013.74
571.49	1999.46
571.84	1985.68
572.20	1970.73
572.55	1956.01
572.90	1941.22
573.26	1926.45
573.61	1911.18
573.96	1896.36
574.31	1881.75
574.67	1867.23
575.02	1851.63
575.37	1836.14
575.72	1821.46
576.08	1807.15
576.43	1791.67
576.78	1776.61
577.13	1761.82
577.49	1747.39
577.84	1733.57
578.19	1718.80
578.54	1704.22
578.90	1689.14
579.25	1673.98
579.60	1660.35
579.95	1646.66
580.30	1632.78
580.66	1618.67
581.01	1604.41
581.36	1590.08
581.71	1576.81
582.06	1563.45
582.42	1550.31
582.77	1537.25
583.12	1524.16
583.47	1510.90
583.82	1497.77
584.17	1484.30
584.53	1470.50
584.88	1457.08
585.23	1443.21
585.58	1430.14
585.93	1417.28
586.28	1405.19
586.63	1393.06
586.98	1380.52
587.34	1368.00
587.69	1355.17
588.04	1342.65
588.39	1330.55
588.74	1318.64
589.09	1306.49
589.44	1293.87
589.79	1281.90
590.14	1270.04
590.49	1258.10
590.84	1246.36
591.19	1234.98
591.54	1223.41
591.89	1211.97
592.25	1200.71
592.60	1189.11
592.95	1177.92
593.30	1166.95
593.65	1155.64
594.00	1144.50
594.35	1133.89
594.70	1122.84
595.05	1112.72
595.40	1102.50
595.75	1092.12
596.10	1082.24
596.45	1072.10
596.80	1062.31
597.15	1052.24
597.50	1042.33
597.85	1032.87
598.19	1023.20
598.54	1013.57
598.89	1004.41
599.24	995.58
599.59	986.54
599.94	978.43
600.29	970.10
600.64	961.52
600.99	952.57
601.34	943.97
601.69	935.03
602.04	926.79
602.39	918.35
602.74	909.97
603.08	901.57
603.43	893.12
603.78	884.85
604.13	876.73
604.48	868.65
604.83	860.72
605.18	852.68
605.53	844.82
605.87	836.77
606.22	829.03
606.57	821.23
606.92	813.38
607.27	805.44
607.62	797.79
607.96	790.56
608.31	783.78
608.66	776.79
609.01	770.07
609.36	763.45
609.70	756.63
610.05	749.76
610.40	743.18
610.75	736.58
611.10	730.34
611.44	723.90
611.79	717.59
612.14	711.20
612.49	704.91
612.83	698.91
613.18	693.05
613.53	687.07
613.88	681.13
614.22	675.59
614.57	670.01
614.92	664.28
615.27	658.65
615.61	653.06
615.96	647.55
616.31	642.03
616.65	636.57
617.00	631.32
617.35	626.19
617.70	621.10
618.04	616.07
618.39	610.97
618.74	606.12
619.08	601.30
619.43	596.61
619.78	591.93
620.12	587.20
620.47	582.64
620.82	578.21
621.16	573.80
621.51	569.27
621.85	564.78
622.20	560.44
622.55	556.13
622.89	551.92
623.24	547.71
623.59	543.55
623.93	539.54
624.28	535.61
624.62	531.78
624.97	527.99
625.32	524.17
625.66	520.29
626.01	516.39
626.35	512.56
626.70	508.78
627.04	505.18
627.39	501.51
627.73	498.02
628.08	494.60
628.43	491.18
628.77	487.85
629.12	484.63
629.46	481.45
629.81	478.18
630.15	474.89
630.50	471.70
630.84	468.57
631.19	465.51
631.53	462.55
631.88	459.56
632.22	456.58
632.57	453.90
632.91	451.26
633.26	448.69
633.60	446.14
633.95	443.65
634.29	441.09
634.64	438.59
634.98	435.90
635.32	433.35
635.67	431.00
636.01	428.59
636.36	426.21
636.70	423.97
637.05	421.73
637.39	419.53
637.73	417.35
638.08	415.30
638.42	413.20
638.77	410.97
639.11	408.68
639.45	406.49
639.80	404.23
640.14	402.08
640.49	399.92
640.83	397.73
641.17	395.63
641.52	393.58
641.86	391.56
642.20	389.75
642.55	387.77
642.89	385.82
643.23	383.97
643.58	382.26
643.92	380.45
644.26	378.68
644.61	376.98
644.95	375.24
645.29	373.42
645.64	371.63
645.98	369.93
646.32	368.36
646.66	366.76
647.01	365.19
647.35	363.65
647.69	362.10
648.04	360.70
648.38	359.21
648.72	357.74
649.06	356.28
649.41	354.82
649.75	353.43
650.09	352.05
650.43	350.67
650.78	349.24
651.12	347.86
651.46	346.52
651.80	345.21
652.14	343.93
652.49	342.71
652.83	341.45
653.17	340.24
653.51	339.06
653.85	337.95
654.20	336.79
654.54	335.55
654.88	334.41
655.22	333.28
655.56	332.14
655.90	331.06
656.25	330.03
656.59	328.97
656.93	327.97
657.27	326.98
657.61	325.94
657.95	324.95
658.29	323.95
658.64	323.00
658.98	322.04
659.32	321.12
659.66	320.23
660.00	319.38
660.34	318.52
660.68	317.63
661.02	316.71
661.36	315.82
661.70	314.98
662.05	314.16
662.39	313.34
662.73	312.61
663.07	311.88
663.41	311.10
663.75	310.33
664.09	309.56
664.43	308.75
664.77	308.03
665.11	307.26
665.45	306.56
665.79	305.87
666.13	305.15
666.47	304.41
666.81	303.66
667.15	302.88
667.49	302.21
667.83	301.59
668.17	300.95
668.51	300.35
668.85	299.77
669.19	299.24
669.53	298.60
669.87	297.95
670.21	297.32
670.55	296.74
670.89	296.23
671.23	295.67
671.57	295.13
671.91	294.63
672.25	294.16
672.58	293.67
672.92	293.11
673.26	292.64
673.60	292.16
673.94	291.71
674.28	291.28
674.62	290.82
674.96	290.30
675.30	289.85
675.64	289.36
675.97	288.86
676.31	288.33
676.65	287.85
676.99	287.45
677.33	286.96
677.67	286.51
678.01	285.99
678.34	285.55
678.68	285.15
679.02	284.67
679.36	284.21
679.70	283.75
680.04	283.34
680.37	282.90
680.71	282.50
681.05	282.10
681.39	281.67
681.73	281.21
682.06	280.77
682.40	280.35
682.74	279.99
683.08	279.67
683.42	279.28
683.75	278.93
684.09	278.50
684.43	278.14
684.77	277.76
685.10	277.43
685.44	277.07
685.78	276.71
686.12	276.37
686.45	276.00
686.79	275.63
687.13	275.28
687.46	274.90
687.80	274.55
688.14	274.14
688.48	273.80
688.81	273.45
689.15	273.14
689.49	272.78
689.82	272.41
690.16	271.98
690.50	271.64
690.83	271.29
691.17	270.93
691.51	270.58
691.84	270.25
692.18	269.88
692.52	269.51
692.85	269.15
693.19	268.84
693.52	268.50
693.86	268.17
694.20	267.84
694.53	267.53
694.87	267.18
695.21	266.84
695.54	266.51
695.88	266.17
696.21	265.80
696.55	265.48
696.88	265.16
697.22	264.84
697.56	264.51
697.89	264.15
698.23	263.84
698.56	263.50
698.90	263.18
699.23	262.84
699.57	262.52
699.90	262.19
700.24	261.84
700.58	261.55
700.91	261.28
701.25	261.08
701.58	260.83
701.92	260.58
702.25	260.29
702.59	259.99
702.92	259.71
703.26	259.41
703.59	259.11
703.93	258.92
704.26	258.64
704.60	258.34
704.93	258.06
705.26	257.76
705.60	257.52
705.93	257.21
706.27	256.97
706.60	256.74
706.94	256.51
707.27	256.21
707.61	255.92
707.94	255.62
708.27	255.22
708.61	254.89
708.94	254.59
709.28	254.32
709.61	254.04
709.94	253.80
710.28	253.56
710.61	253.34
710.95	252.99
711.28	252.82
711.61	252.57
711.95	252.36
712.28	252.12
712.61	251.85
712.95	251.69
713.28	251.51
713.61	251.24
713.95	250.96
714.28	250.74
714.61	250.50
714.95	250.27
715.28	250.04
715.61	249.83
715.95	249.63
716.28	249.42
716.61	249.24
716.95	249.01
717.28	248.79
717.61	248.56
717.94	248.35
718.28	248.05
718.61	247.83
718.94	247.59
719.27	247.39
719.61	247.21
719.94	246.97
720.27	246.69
720.60	246.49
720.94	246.30
721.27	246.11
721.60	245.94
721.93	245.75
722.27	245.60
722.60	245.42
722.93	245.22
723.26	245.03
723.59	244.81
723.93	244.63
724.26	244.45
724.59	244.26
724.92	244.10
725.25	243.97
725.59	243.81
725.92	243.66
726.25	243.50
726.58	243.33
726.91	243.15
727.24	243.01
727.57	242.85
727.91	242.67
728.24	242.54
728.57	242.37
728.90	242.23
729.23	242.03
729.56	241.93
729.89	241.77
730.22	241.60
730.55	241.45
730.89	241.30
731.22	241.15
731.55	241.00
731.88	240.85
732.21	240.67
732.54	240.52
732.87	240.37
733.20	240.24
733.53	240.10
733.86	239.97
734.19	239.81
734.52	239.70
734.85	239.65
735.18	239.48
735.51	239.39
735.84	239.26
736.17	239.16
736.50	238.97
736.83	238.99
737.16	238.87
737.49	238.76
737.82	238.63
738.15	238.53
738.48	238.42
738.81	238.29
739.14	238.16
739.47	238.04
739.80	237.91
740.13	237.80
740.46	237.66
740.79	237.52
741.12	237.40
741.45	237.26
741.78	237.07
742.11	237.00
742.44	236.85
742.77	236.75
743.10	236.61
743.43	236.50
743.75	236.25
744.08	236.34
744.41	236.23
744.74	236.12
745.07	235.98
745.40	235.90
745.73	235.85
746.06	235.76
746.39	235.68
746.71	235.57
747.04	235.46
747.37	235.37
747.70	235.30
748.03	235.21
748.36	235.14
748.68	235.05
749.01	234.92
749.34	234.83
749.67	234.74
750.00	234.67
750.33	234.68
750.65	234.60
750.98	234.32
751.31	234.24
751.64	234.16
751.97	234.15
752.29	234.05
752.62	233.91
752.95	233.82
753.28	233.71
753.60	233.63
753.93	233.58
754.26	233.51
754.59	233.39
754.91	233.29
755.24	233.20
755.57	233.18
755.90	233.10
756.22	233.01
756.55	232.91
756.88	232.80
757.20	232.63
757.53	232.52
757.86	232.44
758.19	232.37
758.51	232.29
758.84	232.15
759.17	232.07
759.49	232.00
759.82	231.99
760.15	231.94
760.47	231.87
760.80	231.76
761.13	231.71
761.45	231.65
761.78	231.58
762.11	231.52
762.43	231.39
762.76	231.33
763.08	231.29
763.41	231.24
763.74	231.19
764.06	231.13
764.39	231.09
764.71	231.03
765.04	230.97
765.37	230.90
765.69	230.85
766.02	230.80
766.34	230.74
766.67	230.64
767.00	230.61
767.32	230.63
767.65	230.65
767.97	230.59
768.30	230.55
768.62	230.50
768.95	230.44
769.27	230.39
769.60	230.35
769.92	230.28
770.25	230.22
770.57	230.15
770.90	230.10
771.22	230.04
771.55	230.00
771.87	229.96
772.20	229.92
772.52	229.98
772.85	230.09
773.17	230.06
773.50	230.01
773.82	229.95
774.15	229.84
774.47	229.72
774.80	229.67
775.12	229.63
775.45	229.59
775.77	229.56
776.09	229.53
776.42	229.50
776.74	229.51
777.07	229.47
777.39	229.45
777.72	229.40
778.04	229.39
778.36	229.35
778.69	229.32
779.01	229.30
779.33	229.16
779.66	228.98
779.98	228.94
780.31	228.92
780.63	228.95
780.95	228.94
781.28	228.91
781.60	228.88
781.92	228.85
782.25	228.82
782.57	228.79
782.89	228.76
783.22	228.72
783.54	228.67
783.86	228.65
784.19	228.62
784.51	228.63
784.83	228.59
785.16	228.57
785.48	228.54
785.80	228.51
786.12	228.50
786.45	228.48
786.77	228.46
787.09	228.43
787.42	228.36
787.74	228.34
788.06	228.33
788.38	228.30
788.71	228.27
789.03	228.25
789.35	228.25
789.67	228.21
789.99	228.20
790.32	228.17
790.64	228.16
790.96	228.26
791.28	228.19
791.61	228.16
791.93	228.15
792.25	228.12
792.57	228.19
792.89	228.16
793.21	228.15
793.54	228.12
793.86	228.09
794.18	228.07
794.50	228.03
794.82	228.01
795.14	228.01
795.47	228.02
795.79	228.00
796.11	227.95
796.43	227.93
796.75	227.91
797.07	227.90
797.39	227.88
797.71	227.76
798.04	227.75
798.36	227.74
798.68	227.72
799.00	227.72
799.32	227.64
799.64	227.64
799.96	227.62
800.28	227.63
800.60	227.61
800.92	227.60
801.24	227.58
801.56	227.58
801.89	227.55
802.21	227.54
802.53	227.50
802.85	227.52
803.17	227.56
803.49	227.53
803.81	227.50
804.13	227.48
804.45	227.45
804.77	227.45
805.09	227.43
805.41	227.41
805.73	227.37
806.05	227.33
806.37	227.30
806.69	227.28
807.01	227.26
807.33	227.26
807.65	227.20
807.97	227.24
808.28	227.21
808.60	227.20
808.92	227.16
809.24	227.24
809.56	227.20
809.88	227.14
810.20	227.14
810.52	227.15
810.84	227.12
811.16	227.10
811.48	227.08
811.80	227.12
812.12	227.10
812.43	227.12
812.75	227.11
813.07	227.09
813.39	227.09
813.71	227.06
814.03	227.04
814.35	227.04
814.67	226.98
814.98	226.96
815.30	226.95
815.62	226.92
815.94	226.83
816.26	226.83
816.58	226.80
816.89	226.81
817.21	226.76
817.53	226.77
817.85	226.76
818.17	226.75
818.48	226.69
