SpectraSuite Data File
++++++++++++++++++++++++++++++++++++
Date: Fri Oct 02 18:42:28 EDT 2015
User: lab3
Dark Spectrum Present: No
Reference Spectrum Present: No
Number of Sampled Component Spectra: 1
Spectrometers: USB2E7196
Integration Time (usec): 46000 (USB2E7196)
Spectra Averaged: 1500 (USB2E7196)
Boxcar Smoothing: 10 (USB2E7196)
Correct for Electrical Dark: No (USB2E7196)
Strobe/Lamp Enabled: No (USB2E7196)
Correct for Detector Non-linearity: No (USB2E7196)
Correct for Stray Light: No (USB2E7196)
Number of Pixels in Processed Spectrum: 2048
>>>>>Begin Processed Spectral Data<<<<<
339.09	0.00
339.48	215.38
339.86	216.97
340.24	218.23
340.63	219.56
341.01	222.87
341.39	222.38
341.78	223.78
342.16	224.95
342.54	225.40
342.93	213.76
343.31	224.56
343.69	225.09
344.07	225.54
344.46	225.98
344.84	226.37
345.22	226.59
345.60	226.85
345.99	227.04
346.37	227.17
346.75	227.27
347.13	227.35
347.52	227.42
347.90	227.51
348.28	227.54
348.66	227.60
349.05	227.59
349.43	227.63
349.81	227.70
350.19	227.75
350.57	227.83
350.96	227.93
351.34	228.02
351.72	228.12
352.10	228.24
352.48	228.31
352.87	228.36
353.25	228.42
353.63	228.49
354.01	228.54
354.39	228.61
354.77	228.68
355.15	228.79
355.54	228.83
355.92	228.85
356.30	228.93
356.68	229.08
357.06	229.16
357.44	229.20
357.82	229.26
358.20	229.38
358.58	229.44
358.97	229.49
359.35	229.57
359.73	229.65
360.11	229.70
360.49	229.76
360.87	229.81
361.25	229.87
361.63	229.94
362.01	230.00
362.39	230.03
362.77	230.07
363.15	230.09
363.53	230.14
363.91	230.17
364.29	230.19
364.67	230.09
365.05	230.12
365.43	230.15
365.81	230.18
366.19	230.20
366.57	230.25
366.95	230.25
367.33	230.23
367.71	230.23
368.09	230.24
368.47	230.23
368.85	230.22
369.23	230.23
369.61	230.17
369.99	230.19
370.37	230.19
370.75	230.27
371.13	230.23
371.51	230.18
371.89	230.17
372.27	230.16
372.65	230.14
373.03	230.09
373.41	230.05
373.78	230.00
374.16	229.88
374.54	229.79
374.92	229.75
375.30	229.71
375.68	229.64
376.06	229.60
376.44	229.55
376.82	229.51
377.19	229.47
377.57	229.42
377.95	229.33
378.33	229.27
378.71	229.11
379.09	229.08
379.47	229.05
379.84	228.99
380.22	228.92
380.60	228.84
380.98	228.78
381.36	228.73
381.73	228.67
382.11	228.65
382.49	228.61
382.87	228.55
383.25	228.50
383.62	228.60
384.00	228.53
384.38	228.50
384.76	228.49
385.13	228.48
385.51	228.45
385.89	228.40
386.27	228.38
386.64	228.36
387.02	228.31
387.40	228.27
387.78	228.25
388.15	228.22
388.53	228.19
388.91	228.17
389.29	228.14
389.66	228.15
390.04	228.10
390.42	228.10
390.79	228.09
391.17	228.07
391.55	227.91
391.92	227.90
392.30	227.90
392.68	227.85
393.05	227.83
393.43	227.81
393.81	227.82
394.18	227.80
394.56	227.80
394.94	227.84
395.31	227.84
395.69	227.87
396.06	227.89
396.44	227.92
396.82	227.93
397.19	228.01
397.57	228.01
397.95	228.07
398.32	228.06
398.70	228.11
399.07	228.17
399.45	228.22
399.82	228.25
400.20	228.29
400.58	228.34
400.95	228.36
401.33	228.44
401.70	228.59
402.08	228.68
402.45	228.76
402.83	228.86
403.20	228.97
403.58	229.07
403.95	229.21
404.33	229.34
404.71	229.49
405.08	229.70
405.46	229.86
405.83	230.03
406.21	230.21
406.58	230.41
406.96	230.62
407.33	230.86
407.70	231.13
408.08	231.49
408.45	231.82
408.83	232.16
409.20	232.47
409.58	232.75
409.95	233.14
410.33	233.56
410.70	233.96
411.08	234.43
411.45	234.92
411.82	235.41
412.20	235.98
412.57	236.67
412.95	237.19
413.32	237.90
413.69	238.61
414.07	239.38
414.44	240.21
414.82	241.06
415.19	242.05
415.56	243.04
415.94	244.08
416.31	245.24
416.68	246.41
417.06	247.76
417.43	249.04
417.81	250.50
418.18	251.99
418.55	253.61
418.93	255.29
419.30	257.07
419.67	258.93
420.04	260.86
420.42	262.86
420.79	265.19
421.16	267.52
421.54	269.91
421.91	272.40
422.28	274.99
422.66	277.78
423.03	280.44
423.40	283.22
423.77	286.21
424.15	289.26
424.52	292.45
424.89	295.89
425.26	299.32
425.64	302.49
426.01	306.07
426.38	309.72
426.75	313.50
427.13	317.36
427.50	321.42
427.87	325.63
428.24	329.88
428.61	333.97
428.99	338.40
429.36	343.23
429.73	347.86
430.10	352.50
430.47	357.26
430.85	362.15
431.22	367.42
431.59	372.84
431.96	378.12
432.33	383.98
432.70	389.57
433.08	396.18
433.45	402.43
433.82	408.57
434.19	415.46
434.56	422.24
434.93	428.79
435.30	435.29
435.68	442.61
436.05	449.78
436.42	456.90
436.79	463.42
437.16	470.44
437.53	477.98
437.90	485.49
438.27	492.84
438.64	500.77
439.01	507.93
439.38	514.48
439.75	520.79
440.13	527.91
440.50	534.68
440.87	540.00
441.24	545.85
441.61	552.25
441.98	556.86
442.35	562.33
442.72	567.93
443.09	573.21
443.46	576.53
443.83	578.90
444.20	580.85
444.57	583.81
444.94	585.41
445.31	587.08
445.68	588.45
446.05	589.38
446.42	588.77
446.79	588.03
447.16	587.34
447.53	586.67
447.90	584.16
448.27	581.74
448.64	578.22
449.01	575.70
449.37	570.89
449.74	566.53
450.11	560.99
450.48	554.94
450.85	548.91
451.22	543.73
451.59	538.69
451.96	534.13
452.33	527.57
452.70	521.77
453.07	514.70
453.43	507.69
453.80	500.89
454.17	494.42
454.54	488.44
454.91	481.70
455.28	475.41
455.65	469.49
456.02	463.25
456.38	458.22
456.75	451.75
457.12	446.56
457.49	441.33
457.86	436.40
458.23	432.09
458.59	427.33
458.96	422.44
459.33	418.16
459.70	413.81
460.07	410.53
460.43	406.65
460.80	403.04
461.17	399.90
461.54	396.48
461.91	393.30
462.27	390.07
462.64	387.47
463.01	384.45
463.38	381.41
463.74	378.66
464.11	376.26
464.48	374.11
464.85	371.74
465.21	369.95
465.58	367.98
465.95	365.68
466.32	363.86
466.68	362.07
467.05	360.28
467.42	358.52
467.78	356.61
468.15	354.84
468.52	353.57
468.88	351.85
469.25	350.28
469.62	349.05
469.98	347.68
470.35	346.48
470.72	345.39
471.08	344.28
471.45	343.35
471.82	342.30
472.18	341.18
472.55	340.47
472.92	339.57
473.28	338.86
473.65	338.10
474.02	337.39
474.38	336.79
474.75	336.44
475.11	335.96
475.48	335.73
475.85	335.50
476.21	335.38
476.58	335.29
476.94	335.42
477.31	335.48
477.67	335.57
478.04	335.78
478.41	336.07
478.77	336.48
479.14	336.75
479.50	337.25
479.87	337.89
480.23	338.54
480.60	339.17
480.96	339.80
481.33	340.74
481.69	341.68
482.06	342.61
482.42	343.47
482.79	344.54
483.15	345.77
483.52	347.17
483.88	348.51
484.25	349.96
484.61	351.46
484.98	353.09
485.34	354.93
485.71	356.83
486.07	358.86
486.44	360.90
486.80	363.16
487.17	365.53
487.53	368.11
487.90	370.83
488.26	373.78
488.62	376.90
488.99	380.01
489.35	383.30
489.72	386.86
490.08	390.61
490.44	394.47
490.81	398.49
491.17	402.63
491.54	407.07
491.90	411.66
492.26	416.56
492.63	421.71
492.99	427.06
493.36	432.61
493.72	438.45
494.08	444.42
494.45	450.79
494.81	457.39
495.17	464.19
495.54	471.35
495.90	478.80
496.26	486.43
496.63	494.30
496.99	502.49
497.35	511.06
497.72	519.90
498.08	528.96
498.44	538.34
498.80	548.24
499.17	558.41
499.53	568.87
499.89	579.71
500.26	590.76
500.62	602.14
500.98	614.12
501.34	626.27
501.71	638.94
502.07	651.82
502.43	665.23
502.79	678.81
503.16	692.87
503.52	707.16
503.88	721.84
504.24	736.96
504.60	752.30
504.97	768.12
505.33	784.35
505.69	801.50
506.05	818.93
506.41	836.29
506.78	853.91
507.14	872.04
507.50	890.60
507.86	909.53
508.22	928.64
508.59	947.62
508.95	967.46
509.31	988.03
509.67	1009.19
510.03	1030.37
510.39	1051.70
510.75	1073.23
511.12	1095.03
511.48	1116.99
511.84	1139.04
512.20	1161.53
512.56	1184.81
512.92	1208.11
513.28	1231.08
513.64	1254.37
514.00	1278.11
514.37	1302.10
514.73	1326.17
515.09	1350.17
515.45	1374.50
515.81	1398.95
516.17	1423.62
516.53	1447.70
516.89	1471.76
517.25	1496.04
517.61	1520.27
517.97	1544.95
518.33	1569.15
518.69	1593.24
519.05	1617.93
519.41	1642.94
519.77	1668.00
520.13	1692.50
520.49	1716.95
520.85	1741.78
521.21	1766.04
521.57	1790.76
521.93	1815.02
522.29	1839.69
522.65	1863.96
523.01	1888.21
523.37	1912.15
523.73	1936.71
524.09	1961.10
524.45	1985.24
524.81	2009.03
525.17	2032.67
525.53	2055.71
525.89	2079.22
526.25	2102.77
526.61	2125.29
526.97	2148.01
527.33	2170.80
527.68	2193.16
528.04	2214.76
528.40	2235.42
528.76	2256.56
529.12	2277.12
529.48	2297.27
529.84	2315.84
530.20	2334.95
530.56	2353.49
530.91	2372.21
531.27	2390.59
531.63	2408.19
531.99	2425.40
532.35	2441.95
532.71	2458.52
533.07	2475.79
533.42	2491.32
533.78	2507.84
534.14	2524.53
534.50	2540.15
534.86	2555.60
535.21	2569.19
535.57	2583.32
535.93	2597.22
536.29	2609.87
536.65	2622.50
537.00	2634.56
537.36	2647.39
537.72	2658.67
538.08	2669.57
538.44	2679.85
538.79	2689.71
539.15	2698.75
539.51	2707.30
539.87	2715.17
540.22	2721.28
540.58	2727.48
540.94	2734.89
541.29	2740.56
541.65	2744.52
542.01	2747.90
542.37	2750.58
542.72	2754.62
543.08	2756.99
543.44	2759.85
543.79	2761.67
544.15	2762.62
544.51	2763.98
544.87	2764.19
545.22	2763.69
545.58	2762.51
545.94	2761.37
546.29	2758.91
546.65	2756.43
547.01	2753.96
547.36	2752.22
547.72	2750.32
548.07	2746.79
548.43	2741.66
548.79	2735.84
549.14	2731.29
549.50	2726.77
549.86	2721.40
550.21	2714.85
550.57	2709.22
550.92	2701.37
551.28	2694.17
551.64	2687.20
551.99	2679.65
552.35	2671.55
552.70	2663.78
553.06	2656.22
553.41	2647.97
553.77	2639.50
554.13	2630.87
554.48	2621.39
554.84	2610.80
555.19	2600.87
555.55	2590.83
555.90	2580.83
556.26	2571.26
556.61	2560.57
556.97	2548.33
557.32	2536.58
557.68	2524.73
558.03	2512.70
558.39	2501.82
558.74	2491.16
559.10	2478.78
559.45	2466.75
559.81	2455.27
560.16	2443.08
560.52	2431.14
560.87	2419.46
561.23	2406.96
561.58	2394.75
561.94	2382.10
562.29	2368.81
562.64	2356.22
563.00	2343.32
563.35	2330.96
563.71	2318.36
564.06	2305.54
564.42	2293.50
564.77	2280.76
565.12	2267.99
565.48	2255.12
565.83	2242.32
566.19	2229.54
566.54	2216.75
566.89	2202.69
567.25	2188.92
567.60	2176.37
567.96	2163.02
568.31	2148.35
568.66	2134.50
569.02	2121.59
569.37	2108.68
569.72	2096.30
570.08	2082.63
570.43	2068.59
570.78	2054.25
571.14	2039.27
571.49	2025.06
571.84	2011.36
572.20	1996.40
572.55	1981.72
572.90	1966.84
573.26	1951.91
573.61	1936.50
573.96	1921.53
574.31	1906.91
574.67	1892.20
575.02	1876.62
575.37	1861.05
575.72	1846.32
576.08	1831.87
576.43	1816.27
576.78	1801.10
577.13	1786.24
577.49	1771.70
577.84	1757.77
578.19	1742.86
578.54	1728.20
578.90	1713.01
579.25	1697.72
579.60	1684.01
579.95	1670.14
580.30	1656.17
580.66	1641.92
581.01	1627.58
581.36	1613.27
581.71	1599.99
582.06	1586.50
582.42	1573.22
582.77	1559.94
583.12	1546.62
583.47	1533.18
583.82	1519.89
584.17	1506.28
584.53	1492.26
584.88	1478.59
585.23	1464.45
585.58	1451.27
585.93	1438.31
586.28	1426.07
586.63	1413.84
586.98	1401.07
587.34	1388.34
587.69	1375.36
588.04	1362.75
588.39	1350.55
588.74	1338.39
589.09	1326.01
589.44	1313.27
589.79	1301.20
590.14	1289.22
590.49	1277.19
590.84	1265.27
591.19	1253.80
591.54	1242.08
591.89	1230.55
592.25	1219.18
592.60	1207.52
592.95	1196.19
593.30	1185.02
593.65	1173.56
594.00	1162.18
594.35	1151.46
594.70	1140.36
595.05	1130.12
595.40	1119.76
595.75	1109.18
596.10	1099.23
596.45	1088.92
596.80	1078.95
597.15	1068.75
597.50	1058.74
597.85	1049.05
598.19	1039.25
598.54	1029.51
598.89	1020.19
599.24	1011.21
599.59	1002.10
599.94	993.91
600.29	985.46
600.64	976.72
600.99	967.61
601.34	958.90
601.69	949.90
602.04	941.52
602.39	932.99
602.74	924.47
603.08	915.96
603.43	907.39
603.78	899.02
604.13	890.85
604.48	882.62
604.83	874.57
605.18	866.46
605.53	858.47
605.87	850.25
606.22	842.47
606.57	834.57
606.92	826.52
607.27	818.39
607.62	810.69
607.96	803.39
608.31	796.53
608.66	789.47
609.01	782.65
609.36	775.98
609.70	769.00
610.05	762.06
610.40	755.38
610.75	748.73
611.10	742.37
611.44	735.88
611.79	729.50
612.14	723.02
612.49	716.67
612.83	710.65
613.18	704.74
613.53	698.67
613.88	692.69
614.22	687.19
614.57	681.56
614.92	675.73
615.27	670.05
615.61	664.42
615.96	658.82
616.31	653.26
616.65	647.75
617.00	642.52
617.35	637.38
617.70	632.29
618.04	627.20
618.39	622.05
618.74	617.17
619.08	612.31
619.43	607.59
619.78	602.91
620.12	598.13
620.47	593.58
620.82	589.13
621.16	584.65
621.51	580.04
621.85	575.51
622.20	571.18
622.55	566.88
622.89	562.61
623.24	558.37
623.59	554.20
623.93	550.18
624.28	546.22
624.62	542.37
624.97	538.53
625.32	534.73
625.66	530.86
626.01	526.93
626.35	523.11
626.70	519.35
627.04	515.71
627.39	512.07
627.73	508.55
628.08	505.15
628.43	501.75
628.77	498.44
629.12	495.25
629.46	492.03
629.81	488.74
630.15	485.49
630.50	482.35
630.84	479.20
631.19	476.14
631.53	473.18
631.88	470.20
632.22	467.25
632.57	464.57
632.91	461.95
633.26	459.41
633.60	456.86
633.95	454.38
634.29	451.82
634.64	449.34
634.98	446.63
635.32	444.10
635.67	441.78
636.01	439.37
636.36	436.99
636.70	434.80
637.05	432.58
637.39	430.39
637.73	428.23
638.08	426.19
638.42	424.10
638.77	421.89
639.11	419.62
639.45	417.45
639.80	415.22
640.14	413.09
640.49	410.94
640.83	408.79
641.17	406.72
641.52	404.68
641.86	402.66
642.20	400.88
642.55	398.92
642.89	396.99
643.23	395.15
643.58	393.48
643.92	391.66
644.26	389.92
644.61	388.24
644.95	386.48
645.29	384.67
645.64	382.88
645.98	381.19
646.32	379.62
646.66	378.03
647.01	376.45
647.35	374.94
647.69	373.40
648.04	372.03
648.38	370.55
648.72	369.10
649.06	367.65
649.41	366.21
649.75	364.84
650.09	363.46
650.43	362.10
650.78	360.68
651.12	359.30
651.46	357.96
651.80	356.65
652.14	355.40
652.49	354.18
652.83	352.95
653.17	351.75
653.51	350.59
653.85	349.49
654.20	348.33
654.54	347.09
654.88	345.94
655.22	344.81
655.56	343.67
655.90	342.60
656.25	341.56
656.59	340.50
656.93	339.50
657.27	338.51
657.61	337.46
657.95	336.45
658.29	335.44
658.64	334.50
658.98	333.54
659.32	332.61
659.66	331.71
660.00	330.83
660.34	329.96
660.68	329.04
661.02	328.07
661.36	327.16
661.70	326.28
662.05	325.42
662.39	324.57
662.73	323.81
663.07	323.03
663.41	322.22
663.75	321.40
664.09	320.59
664.43	319.74
664.77	318.99
665.11	318.20
665.45	317.46
665.79	316.72
666.13	315.93
666.47	315.14
666.81	314.35
667.15	313.52
667.49	312.80
667.83	312.15
668.17	311.47
668.51	310.85
668.85	310.22
669.19	309.64
669.53	308.95
669.87	308.25
670.21	307.57
670.55	306.93
670.89	306.39
671.23	305.78
671.57	305.19
671.91	304.64
672.25	304.10
672.58	303.56
672.92	302.95
673.26	302.44
673.60	301.93
673.94	301.42
674.28	300.96
674.62	300.45
674.96	299.88
675.30	299.38
675.64	298.84
675.97	298.29
676.31	297.72
676.65	297.20
676.99	296.73
677.33	296.18
677.67	295.68
678.01	295.11
678.34	294.62
678.68	294.15
679.02	293.62
679.36	293.09
679.70	292.58
680.04	292.09
680.37	291.60
680.71	291.13
681.05	290.68
681.39	290.17
681.73	289.64
682.06	289.13
682.40	288.65
682.74	288.23
683.08	287.85
683.42	287.41
683.75	287.00
684.09	286.52
684.43	286.11
684.77	285.67
685.10	285.27
685.44	284.86
685.78	284.44
686.12	284.05
686.45	283.64
686.79	283.21
687.13	282.82
687.46	282.38
687.80	281.97
688.14	281.50
688.48	281.11
688.81	280.71
689.15	280.34
689.49	279.92
689.82	279.49
690.16	279.01
690.50	278.61
690.83	278.20
691.17	277.79
691.51	277.38
691.84	277.00
692.18	276.57
692.52	276.14
692.85	275.72
693.19	275.34
693.52	274.94
693.86	274.54
694.20	274.16
694.53	273.79
694.87	273.38
695.21	272.99
695.54	272.60
695.88	272.21
696.21	271.78
696.55	271.42
696.88	271.03
697.22	270.65
697.56	270.28
697.89	269.85
698.23	269.47
698.56	269.07
698.90	268.70
699.23	268.31
699.57	267.93
699.90	267.56
700.24	267.17
700.58	266.83
700.91	266.52
701.25	266.27
701.58	265.97
701.92	265.67
702.25	265.34
702.59	264.99
702.92	264.66
703.26	264.32
703.59	263.96
703.93	263.73
704.26	263.41
704.60	263.07
704.93	262.74
705.26	262.42
705.60	262.13
705.93	261.78
706.27	261.50
706.60	261.23
706.94	260.96
707.27	260.62
707.61	260.29
707.94	259.94
708.27	259.51
708.61	259.15
708.94	258.82
709.28	258.51
709.61	258.19
709.94	257.91
710.28	257.65
710.61	257.40
710.95	257.01
711.28	256.80
711.61	256.52
711.95	256.27
712.28	255.99
712.61	255.69
712.95	255.50
713.28	255.28
713.61	254.96
713.95	254.66
714.28	254.40
714.61	254.13
714.95	253.88
715.28	253.62
715.61	253.37
715.95	253.14
716.28	252.90
716.61	252.70
716.95	252.44
717.28	252.20
717.61	251.94
717.94	251.71
718.28	251.40
718.61	251.16
718.94	250.89
719.27	250.68
719.61	250.48
719.94	250.22
720.27	249.93
720.60	249.71
720.94	249.50
721.27	249.29
721.60	249.11
721.93	248.88
722.27	248.71
722.60	248.53
722.93	248.30
723.26	248.09
723.59	247.85
723.93	247.66
724.26	247.47
724.59	247.27
724.92	247.08
725.25	246.94
725.59	246.76
725.92	246.60
726.25	246.42
726.58	246.24
726.91	246.04
727.24	245.89
727.57	245.72
727.91	245.52
728.24	245.37
728.57	245.18
728.90	245.03
729.23	244.81
729.56	244.69
729.89	244.52
730.22	244.34
730.55	244.18
730.89	244.01
731.22	243.84
731.55	243.69
731.88	243.52
732.21	243.33
732.54	243.16
732.87	243.00
733.20	242.86
733.53	242.70
733.86	242.57
734.19	242.39
734.52	242.27
734.85	242.21
735.18	242.03
735.51	241.92
735.84	241.78
736.17	241.68
736.50	241.48
736.83	241.49
737.16	241.36
737.49	241.23
737.82	241.09
738.15	240.98
738.48	240.85
738.81	240.72
739.14	240.57
739.47	240.43
739.80	240.29
740.13	240.17
740.46	240.03
740.79	239.87
741.12	239.75
741.45	239.60
741.78	239.40
742.11	239.32
742.44	239.17
742.77	239.05
743.10	238.91
743.43	238.79
743.75	238.55
744.08	238.62
744.41	238.49
744.74	238.36
745.07	238.22
745.40	238.14
745.73	238.08
746.06	237.97
746.39	237.89
746.71	237.77
747.04	237.65
747.37	237.54
747.70	237.46
748.03	237.38
748.36	237.30
748.68	237.19
749.01	237.05
749.34	236.96
749.67	236.87
750.00	236.79
750.33	236.79
750.65	236.70
750.98	236.42
751.31	236.34
751.64	236.27
751.97	236.24
752.29	236.13
752.62	235.99
752.95	235.90
753.28	235.78
753.60	235.69
753.93	235.63
754.26	235.56
754.59	235.44
754.91	235.33
755.24	235.23
755.57	235.20
755.90	235.11
756.22	235.01
756.55	234.91
756.88	234.79
757.20	234.62
757.53	234.50
757.86	234.43
758.19	234.35
758.51	234.25
758.84	234.10
759.17	234.01
759.49	233.94
759.82	233.94
760.15	233.89
760.47	233.81
760.80	233.70
761.13	233.65
761.45	233.58
761.78	233.51
762.11	233.43
762.43	233.31
762.76	233.24
763.08	233.19
763.41	233.13
763.74	233.08
764.06	233.01
764.39	232.96
764.71	232.89
765.04	232.83
765.37	232.76
765.69	232.72
766.02	232.66
766.34	232.59
766.67	232.48
767.00	232.45
767.32	232.47
767.65	232.49
767.97	232.44
768.30	232.39
768.62	232.35
768.95	232.29
769.27	232.24
769.60	232.21
769.92	232.15
770.25	232.09
770.57	232.01
770.90	231.96
771.22	231.90
771.55	231.85
771.87	231.81
772.20	231.76
772.52	231.82
772.85	231.93
773.17	231.90
773.50	231.86
773.82	231.79
774.15	231.68
774.47	231.55
774.80	231.49
775.12	231.46
775.45	231.41
775.77	231.38
776.09	231.35
776.42	231.32
776.74	231.32
777.07	231.28
777.39	231.25
777.72	231.22
778.04	231.20
778.36	231.16
778.69	231.14
779.01	231.12
779.33	230.97
779.66	230.79
779.98	230.74
780.31	230.71
780.63	230.72
780.95	230.71
781.28	230.70
781.60	230.66
781.92	230.63
782.25	230.60
782.57	230.57
782.89	230.53
783.22	230.48
783.54	230.43
783.86	230.41
784.19	230.37
784.51	230.38
784.83	230.34
785.16	230.31
785.48	230.27
785.80	230.23
786.12	230.22
786.45	230.19
786.77	230.18
787.09	230.14
787.42	230.08
787.74	230.06
788.06	230.04
788.38	230.02
788.71	229.99
789.03	229.96
789.35	229.96
789.67	229.93
789.99	229.92
790.32	229.89
790.64	229.88
790.96	229.98
791.28	229.92
791.61	229.89
791.93	229.88
792.25	229.86
792.57	229.93
792.89	229.89
793.21	229.89
793.54	229.85
793.86	229.82
794.18	229.81
794.50	229.76
794.82	229.74
795.14	229.73
795.47	229.73
795.79	229.71
796.11	229.67
796.43	229.64
796.75	229.62
797.07	229.60
797.39	229.58
797.71	229.45
798.04	229.44
798.36	229.44
798.68	229.43
799.00	229.42
799.32	229.35
799.64	229.35
799.96	229.33
800.28	229.33
800.60	229.32
800.92	229.31
801.24	229.29
801.56	229.28
801.89	229.25
802.21	229.24
802.53	229.21
802.85	229.22
803.17	229.27
803.49	229.23
803.81	229.20
804.13	229.17
804.45	229.15
804.77	229.14
805.09	229.12
805.41	229.10
805.73	229.06
806.05	229.01
806.37	228.98
806.69	228.96
807.01	228.94
807.33	228.94
807.65	228.87
807.97	228.92
808.28	228.89
808.60	228.88
808.92	228.84
809.24	228.91
809.56	228.87
809.88	228.81
810.20	228.80
810.52	228.82
810.84	228.79
811.16	228.76
811.48	228.74
811.80	228.77
812.12	228.76
812.43	228.77
812.75	228.77
813.07	228.75
813.39	228.74
813.71	228.70
814.03	228.67
814.35	228.68
814.67	228.62
814.98	228.60
815.30	228.59
815.62	228.57
815.94	228.48
816.26	228.49
816.58	228.45
816.89	228.45
817.21	228.41
817.53	228.42
817.85	228.41
818.17	228.40
818.48	228.34
