SpectraSuite Data File
++++++++++++++++++++++++++++++++++++
Date: Fri Oct 02 18:48:21 EDT 2015
User: lab3
Dark Spectrum Present: No
Reference Spectrum Present: No
Number of Sampled Component Spectra: 1
Spectrometers: USB2E7196
Integration Time (usec): 46000 (USB2E7196)
Spectra Averaged: 1500 (USB2E7196)
Boxcar Smoothing: 10 (USB2E7196)
Correct for Electrical Dark: No (USB2E7196)
Strobe/Lamp Enabled: No (USB2E7196)
Correct for Detector Non-linearity: No (USB2E7196)
Correct for Stray Light: No (USB2E7196)
Number of Pixels in Processed Spectrum: 2048
>>>>>Begin Processed Spectral Data<<<<<
339.09	0.00
339.48	215.59
339.86	216.99
340.24	218.30
340.63	219.81
341.01	223.06
341.39	222.46
341.78	223.88
342.16	225.23
342.54	225.38
342.93	213.89
343.31	224.69
343.69	225.21
344.07	225.67
344.46	226.11
344.84	226.49
345.22	226.71
345.60	226.97
345.99	227.15
346.37	227.28
346.75	227.38
347.13	227.46
347.52	227.53
347.90	227.61
348.28	227.64
348.66	227.69
349.05	227.68
349.43	227.72
349.81	227.78
350.19	227.84
350.57	227.90
350.96	227.98
351.34	228.07
351.72	228.16
352.10	228.26
352.48	228.34
352.87	228.39
353.25	228.46
353.63	228.52
354.01	228.58
354.39	228.65
354.77	228.74
355.15	228.85
355.54	228.90
355.92	228.93
356.30	229.02
356.68	229.16
357.06	229.24
357.44	229.29
357.82	229.35
358.20	229.46
358.58	229.52
358.97	229.59
359.35	229.68
359.73	229.77
360.11	229.82
360.49	229.88
360.87	229.93
361.25	229.99
361.63	230.08
362.01	230.13
362.39	230.16
362.77	230.21
363.15	230.23
363.53	230.26
363.91	230.29
364.29	230.31
364.67	230.21
365.05	230.24
365.43	230.28
365.81	230.31
366.19	230.33
366.57	230.39
366.95	230.40
367.33	230.37
367.71	230.36
368.09	230.38
368.47	230.38
368.85	230.37
369.23	230.37
369.61	230.31
369.99	230.33
370.37	230.33
370.75	230.39
371.13	230.36
371.51	230.32
371.89	230.30
372.27	230.28
372.65	230.26
373.03	230.22
373.41	230.17
373.78	230.12
374.16	230.02
374.54	229.92
374.92	229.87
375.30	229.83
375.68	229.75
376.06	229.71
376.44	229.65
376.82	229.61
377.19	229.57
377.57	229.51
377.95	229.43
378.33	229.37
378.71	229.22
379.09	229.18
379.47	229.14
379.84	229.08
380.22	229.02
380.60	228.95
380.98	228.90
381.36	228.85
381.73	228.79
382.11	228.77
382.49	228.73
382.87	228.67
383.25	228.63
383.62	228.74
384.00	228.68
384.38	228.65
384.76	228.63
385.13	228.62
385.51	228.59
385.89	228.54
386.27	228.50
386.64	228.49
387.02	228.44
387.40	228.40
387.78	228.38
388.15	228.36
388.53	228.33
388.91	228.30
389.29	228.27
389.66	228.26
390.04	228.23
390.42	228.23
390.79	228.21
391.17	228.19
391.55	228.03
391.92	228.02
392.30	228.02
392.68	227.98
393.05	227.96
393.43	227.95
393.81	227.97
394.18	227.95
394.56	227.94
394.94	227.97
395.31	227.96
395.69	228.01
396.06	228.05
396.44	228.06
396.82	228.07
397.19	228.16
397.57	228.16
397.95	228.20
398.32	228.19
398.70	228.24
399.07	228.30
399.45	228.33
399.82	228.37
400.20	228.40
400.58	228.45
400.95	228.46
401.33	228.54
401.70	228.68
402.08	228.78
402.45	228.86
402.83	228.97
403.20	229.07
403.58	229.16
403.95	229.29
404.33	229.44
404.71	229.57
405.08	229.76
405.46	229.92
405.83	230.10
406.21	230.29
406.58	230.49
406.96	230.70
407.33	230.94
407.70	231.22
408.08	231.58
408.45	231.91
408.83	232.25
409.20	232.56
409.58	232.84
409.95	233.22
410.33	233.64
410.70	234.03
411.08	234.51
411.45	235.00
411.82	235.49
412.20	236.08
412.57	236.77
412.95	237.30
413.32	238.00
413.69	238.72
414.07	239.48
414.44	240.32
414.82	241.16
415.19	242.16
415.56	243.17
415.94	244.22
416.31	245.39
416.68	246.56
417.06	247.92
417.43	249.19
417.81	250.65
418.18	252.15
418.55	253.77
418.93	255.45
419.30	257.22
419.67	259.10
420.04	261.01
420.42	263.01
420.79	265.34
421.16	267.67
421.54	270.05
421.91	272.55
422.28	275.12
422.66	277.90
423.03	280.55
423.40	283.33
423.77	286.31
424.15	289.37
424.52	292.56
424.89	296.01
425.26	299.44
425.64	302.64
426.01	306.22
426.38	309.90
426.75	313.69
427.13	317.58
427.50	321.65
427.87	325.87
428.24	330.14
428.61	334.24
428.99	338.69
429.36	343.55
429.73	348.21
430.10	352.89
430.47	357.67
430.85	362.57
431.22	367.84
431.59	373.26
431.96	378.56
432.33	384.45
432.70	390.06
433.08	396.68
433.45	402.95
433.82	409.13
434.19	416.01
434.56	422.79
434.93	429.36
435.30	435.86
435.68	443.22
436.05	450.41
436.42	457.56
436.79	464.08
437.16	471.13
437.53	478.66
437.90	486.19
438.27	493.58
438.64	501.55
439.01	508.74
439.38	515.32
439.75	521.65
440.13	528.78
440.50	535.52
440.87	540.86
441.24	546.70
441.61	553.07
441.98	557.70
442.35	563.20
442.72	568.76
443.09	574.05
443.46	577.33
443.83	579.69
444.20	581.62
444.57	584.58
444.94	586.16
445.31	587.81
445.68	589.16
446.05	590.05
446.42	589.42
446.79	588.64
447.16	587.92
447.53	587.22
447.90	584.67
448.27	582.24
448.64	578.70
449.01	576.14
449.37	571.29
449.74	566.90
450.11	561.31
450.48	555.25
450.85	549.19
451.22	543.99
451.59	538.90
451.96	534.32
452.33	527.75
452.70	521.91
453.07	514.82
453.43	507.77
453.80	500.94
454.17	494.45
454.54	488.46
454.91	481.71
455.28	475.41
455.65	469.47
456.02	463.22
456.38	458.17
456.75	451.69
457.12	446.51
457.49	441.28
457.86	436.33
458.23	432.02
458.59	427.24
458.96	422.36
459.33	418.09
459.70	413.74
460.07	410.44
460.43	406.54
460.80	402.92
461.17	399.78
461.54	396.36
461.91	393.15
462.27	389.92
462.64	387.31
463.01	384.29
463.38	381.25
463.74	378.49
464.11	376.08
464.48	373.92
464.85	371.54
465.21	369.77
465.58	367.79
465.95	365.50
466.32	363.69
466.68	361.91
467.05	360.12
467.42	358.36
467.78	356.47
468.15	354.72
468.52	353.46
468.88	351.75
469.25	350.19
469.62	348.96
469.98	347.60
470.35	346.41
470.72	345.32
471.08	344.21
471.45	343.28
471.82	342.25
472.18	341.15
472.55	340.44
472.92	339.53
473.28	338.84
473.65	338.07
474.02	337.35
474.38	336.75
474.75	336.40
475.11	335.90
475.48	335.68
475.85	335.44
476.21	335.32
476.58	335.24
476.94	335.37
477.31	335.43
477.67	335.51
478.04	335.72
478.41	336.01
478.77	336.42
479.14	336.68
479.50	337.16
479.87	337.81
480.23	338.45
480.60	339.10
480.96	339.75
481.33	340.69
481.69	341.63
482.06	342.58
482.42	343.43
482.79	344.50
483.15	345.73
483.52	347.13
483.88	348.48
484.25	349.93
484.61	351.43
484.98	353.07
485.34	354.91
485.71	356.80
486.07	358.84
486.44	360.87
486.80	363.15
487.17	365.53
487.53	368.11
487.90	370.83
488.26	373.77
488.62	376.88
488.99	380.00
489.35	383.28
489.72	386.84
490.08	390.60
490.44	394.48
490.81	398.49
491.17	402.61
491.54	407.06
491.90	411.64
492.26	416.55
492.63	421.68
492.99	427.04
493.36	432.61
493.72	438.46
494.08	444.46
494.45	450.83
494.81	457.44
495.17	464.24
495.54	471.39
495.90	478.86
496.26	486.50
496.63	494.39
496.99	502.59
497.35	511.17
497.72	520.01
498.08	529.08
498.44	538.47
498.80	548.40
499.17	558.57
499.53	569.05
499.89	579.92
500.26	591.00
500.62	602.39
500.98	614.37
501.34	626.53
501.71	639.22
502.07	652.11
502.43	665.52
502.79	679.11
503.16	693.20
503.52	707.48
503.88	722.20
504.24	737.32
504.60	752.69
504.97	768.53
505.33	784.82
505.69	801.99
506.05	819.43
506.41	836.84
506.78	854.48
507.14	872.66
507.50	891.27
507.86	910.22
508.22	929.41
508.59	948.43
508.95	968.33
509.31	988.94
509.67	1010.20
510.03	1031.45
510.39	1052.83
510.75	1074.41
511.12	1096.27
511.48	1118.27
511.84	1140.43
512.20	1163.00
512.56	1186.35
512.92	1209.70
513.28	1232.74
513.64	1256.14
514.00	1279.95
514.37	1304.00
514.73	1328.12
515.09	1352.14
515.45	1376.57
515.81	1401.06
516.17	1425.80
516.53	1449.96
516.89	1474.07
517.25	1498.40
517.61	1522.73
517.97	1547.51
518.33	1571.81
518.69	1596.02
519.05	1620.81
519.41	1645.86
519.77	1670.96
520.13	1695.52
520.49	1720.04
520.85	1744.95
521.21	1769.24
521.57	1794.04
521.93	1818.38
522.29	1843.17
522.65	1867.55
523.01	1891.85
523.37	1915.79
523.73	1940.44
524.09	1964.92
524.45	1989.16
524.81	2013.00
525.17	2036.67
525.53	2059.76
525.89	2083.35
526.25	2106.93
526.61	2129.55
526.97	2152.31
527.33	2175.15
527.68	2197.55
528.04	2219.22
528.40	2239.91
528.76	2261.13
529.12	2281.75
529.48	2301.98
529.84	2320.51
530.20	2339.70
530.56	2358.27
530.91	2377.06
531.27	2395.47
531.63	2413.05
531.99	2430.31
532.35	2446.91
532.71	2463.49
533.07	2480.78
533.42	2496.32
533.78	2512.89
534.14	2529.57
534.50	2545.17
534.86	2560.68
535.21	2574.31
535.57	2588.45
535.93	2602.39
536.29	2615.05
536.65	2627.65
537.00	2639.69
537.36	2652.61
537.72	2663.86
538.08	2674.80
538.44	2685.13
538.79	2694.99
539.15	2704.01
539.51	2712.55
539.87	2720.37
540.22	2726.52
540.58	2732.75
540.94	2740.18
541.29	2745.87
541.65	2749.80
542.01	2753.26
542.37	2755.90
542.72	2759.91
543.08	2762.26
543.44	2765.09
543.79	2766.90
544.15	2767.85
544.51	2769.19
544.87	2769.40
545.22	2768.89
545.58	2767.70
545.94	2766.57
546.29	2764.09
546.65	2761.65
547.01	2759.22
547.36	2757.47
547.72	2755.58
548.07	2752.01
548.43	2746.86
548.79	2740.97
549.14	2736.38
549.50	2731.84
549.86	2726.46
550.21	2719.94
550.57	2714.32
550.92	2706.48
551.28	2699.29
551.64	2692.30
551.99	2684.77
552.35	2676.63
552.70	2668.84
553.06	2661.32
553.41	2653.08
553.77	2644.66
554.13	2636.08
554.48	2626.54
554.84	2615.92
555.19	2606.02
555.55	2595.98
555.90	2585.97
556.26	2576.39
556.61	2565.73
556.97	2553.49
557.32	2541.81
557.68	2529.95
558.03	2517.94
558.39	2507.01
558.74	2496.32
559.10	2483.97
559.45	2471.94
559.81	2460.51
560.16	2448.36
560.52	2436.36
560.87	2424.65
561.23	2412.11
561.58	2399.86
561.94	2387.19
562.29	2373.95
562.64	2361.33
563.00	2348.42
563.35	2336.05
563.71	2323.44
564.06	2310.61
564.42	2298.52
564.77	2285.70
565.12	2272.93
565.48	2260.04
565.83	2247.26
566.19	2234.48
566.54	2221.65
566.89	2207.61
567.25	2193.80
567.60	2181.22
567.96	2167.83
568.31	2153.15
568.66	2139.30
569.02	2126.41
569.37	2113.49
569.72	2101.10
570.08	2087.35
570.43	2073.35
570.78	2058.94
571.14	2043.96
571.49	2029.78
571.84	2016.11
572.20	2001.12
572.55	1986.46
572.90	1971.58
573.26	1956.64
573.61	1941.25
573.96	1926.27
574.31	1911.62
574.67	1896.85
575.02	1881.24
575.37	1865.63
575.72	1850.91
576.08	1836.41
576.43	1820.74
576.78	1805.55
577.13	1790.69
577.49	1776.20
577.84	1762.21
578.19	1747.30
578.54	1732.61
578.90	1717.39
579.25	1702.06
579.60	1688.41
579.95	1674.47
580.30	1660.45
580.66	1646.17
581.01	1631.79
581.36	1617.45
581.71	1604.12
582.06	1590.61
582.42	1577.35
582.77	1564.09
583.12	1550.72
583.47	1537.30
583.82	1523.98
584.17	1510.33
584.53	1496.26
584.88	1482.53
585.23	1468.36
585.58	1455.15
585.93	1442.19
586.28	1429.91
586.63	1417.64
586.98	1404.79
587.34	1392.04
587.69	1379.05
588.04	1366.40
588.39	1354.16
588.74	1341.99
589.09	1329.58
589.44	1316.79
589.79	1304.68
590.14	1292.65
590.49	1280.59
590.84	1268.61
591.19	1257.10
591.54	1245.39
591.89	1233.83
592.25	1222.44
592.60	1210.75
592.95	1199.40
593.30	1188.17
593.65	1176.67
594.00	1165.25
594.35	1154.48
594.70	1143.32
595.05	1133.05
595.40	1122.68
595.75	1112.13
596.10	1102.17
596.45	1091.81
596.80	1081.83
597.15	1071.59
597.50	1061.53
597.85	1051.83
598.19	1041.98
598.54	1032.22
598.89	1022.85
599.24	1013.83
599.59	1004.71
599.94	996.52
600.29	988.07
600.64	979.32
600.99	970.21
601.34	961.48
601.69	952.42
602.04	944.03
602.39	935.47
602.74	926.90
603.08	918.36
603.43	909.73
603.78	901.32
604.13	893.11
604.48	884.84
604.83	876.75
605.18	868.59
605.53	860.59
605.87	852.35
606.22	844.54
606.57	836.60
606.92	828.50
607.27	820.33
607.62	812.59
607.96	805.25
608.31	798.36
608.66	791.28
609.01	784.48
609.36	777.78
609.70	770.78
610.05	763.82
610.40	757.09
610.75	750.39
611.10	744.03
611.44	737.51
611.79	731.11
612.14	724.63
612.49	718.27
612.83	712.21
613.18	706.29
613.53	700.21
613.88	694.22
614.22	688.68
614.57	683.04
614.92	677.17
615.27	671.46
615.61	665.80
615.96	660.20
616.31	654.61
616.65	649.10
617.00	643.85
617.35	638.67
617.70	633.56
618.04	628.46
618.39	623.32
618.74	618.45
619.08	613.58
619.43	608.85
619.78	604.15
620.12	599.38
620.47	594.81
620.82	590.33
621.16	585.84
621.51	581.20
621.85	576.67
622.20	572.34
622.55	568.01
622.89	563.74
623.24	559.47
623.59	555.27
623.93	551.21
624.28	547.24
624.62	543.37
624.97	539.53
625.32	535.71
625.66	531.81
626.01	527.87
626.35	524.02
626.70	520.21
627.04	516.57
627.39	512.92
627.73	509.42
628.08	506.00
628.43	502.58
628.77	499.30
629.12	496.08
629.46	492.85
629.81	489.57
630.15	486.31
630.50	483.13
630.84	480.00
631.19	476.95
631.53	473.99
631.88	471.01
632.22	468.04
632.57	465.37
632.91	462.73
633.26	460.19
633.60	457.64
633.95	455.18
634.29	452.61
634.64	450.10
634.98	447.38
635.32	444.86
635.67	442.53
636.01	440.11
636.36	437.73
636.70	435.54
637.05	433.29
637.39	431.08
637.73	428.92
638.08	426.86
638.42	424.75
638.77	422.52
639.11	420.24
639.45	418.07
639.80	415.82
640.14	413.70
640.49	411.53
640.83	409.37
641.17	407.27
641.52	405.22
641.86	403.20
642.20	401.40
642.55	399.43
642.89	397.48
643.23	395.61
643.58	393.94
643.92	392.11
644.26	390.37
644.61	388.68
644.95	386.93
645.29	385.13
645.64	383.33
645.98	381.65
646.32	380.08
646.66	378.48
647.01	376.90
647.35	375.37
647.69	373.84
648.04	372.46
648.38	370.98
648.72	369.53
649.06	368.08
649.41	366.64
649.75	365.25
650.09	363.88
650.43	362.52
650.78	361.09
651.12	359.71
651.46	358.37
651.80	357.07
652.14	355.81
652.49	354.59
652.83	353.36
653.17	352.15
653.51	350.99
653.85	349.87
654.20	348.71
654.54	347.48
654.88	346.32
655.22	345.18
655.56	344.04
655.90	342.95
656.25	341.90
656.59	340.83
656.93	339.83
657.27	338.83
657.61	337.79
657.95	336.79
658.29	335.79
658.64	334.85
658.98	333.88
659.32	332.94
659.66	332.04
660.00	331.15
660.34	330.26
660.68	329.34
661.02	328.37
661.36	327.45
661.70	326.57
662.05	325.71
662.39	324.85
662.73	324.08
663.07	323.30
663.41	322.50
663.75	321.67
664.09	320.86
664.43	320.01
664.77	319.25
665.11	318.42
665.45	317.68
665.79	316.93
666.13	316.14
666.47	315.35
666.81	314.56
667.15	313.72
667.49	313.01
667.83	312.35
668.17	311.67
668.51	311.04
668.85	310.43
669.19	309.84
669.53	309.15
669.87	308.44
670.21	307.79
670.55	307.15
670.89	306.58
671.23	305.98
671.57	305.39
671.91	304.83
672.25	304.31
672.58	303.77
672.92	303.16
673.26	302.65
673.60	302.14
673.94	301.62
674.28	301.15
674.62	300.64
674.96	300.08
675.30	299.58
675.64	299.03
675.97	298.47
676.31	297.90
676.65	297.38
676.99	296.93
677.33	296.38
677.67	295.89
678.01	295.32
678.34	294.82
678.68	294.36
679.02	293.83
679.36	293.31
679.70	292.80
680.04	292.32
680.37	291.82
680.71	291.36
681.05	290.92
681.39	290.41
681.73	289.89
682.06	289.36
682.40	288.89
682.74	288.46
683.08	288.07
683.42	287.63
683.75	287.21
684.09	286.71
684.43	286.29
684.77	285.84
685.10	285.47
685.44	285.05
685.78	284.62
686.12	284.22
686.45	283.80
686.79	283.38
687.13	282.97
687.46	282.52
687.80	282.09
688.14	281.62
688.48	281.23
688.81	280.82
689.15	280.46
689.49	280.04
689.82	279.62
690.16	279.14
690.50	278.74
690.83	278.33
691.17	277.91
691.51	277.52
691.84	277.14
692.18	276.69
692.52	276.26
692.85	275.85
693.19	275.49
693.52	275.08
693.86	274.66
694.20	274.27
694.53	273.90
694.87	273.51
695.21	273.12
695.54	272.72
695.88	272.33
696.21	271.92
696.55	271.55
696.88	271.17
697.22	270.78
697.56	270.40
697.89	269.98
698.23	269.61
698.56	269.21
698.90	268.83
699.23	268.44
699.57	268.07
699.90	267.70
700.24	267.30
700.58	266.97
700.91	266.66
701.25	266.43
701.58	266.13
701.92	265.82
702.25	265.49
702.59	265.13
702.92	264.80
703.26	264.44
703.59	264.08
703.93	263.84
704.26	263.53
704.60	263.19
704.93	262.85
705.26	262.50
705.60	262.23
705.93	261.87
706.27	261.59
706.60	261.33
706.94	261.05
707.27	260.70
707.61	260.37
707.94	260.03
708.27	259.59
708.61	259.22
708.94	258.89
709.28	258.58
709.61	258.27
709.94	257.99
710.28	257.73
710.61	257.49
710.95	257.11
711.28	256.90
711.61	256.61
711.95	256.37
712.28	256.10
712.61	255.79
712.95	255.60
713.28	255.39
713.61	255.08
713.95	254.77
714.28	254.53
714.61	254.24
714.95	253.99
715.28	253.73
715.61	253.48
715.95	253.25
716.28	253.01
716.61	252.81
716.95	252.55
717.28	252.29
717.61	252.02
717.94	251.78
718.28	251.46
718.61	251.22
718.94	250.97
719.27	250.74
719.61	250.53
719.94	250.27
720.27	249.96
720.60	249.74
720.94	249.53
721.27	249.32
721.60	249.13
721.93	248.92
722.27	248.75
722.60	248.56
722.93	248.34
723.26	248.13
723.59	247.89
723.93	247.70
724.26	247.51
724.59	247.31
724.92	247.12
725.25	246.97
725.59	246.79
725.92	246.63
726.25	246.45
726.58	246.27
726.91	246.08
727.24	245.93
727.57	245.75
727.91	245.56
728.24	245.41
728.57	245.23
728.90	245.07
729.23	244.85
729.56	244.73
729.89	244.56
730.22	244.37
730.55	244.22
730.89	244.04
731.22	243.89
731.55	243.72
731.88	243.57
732.21	243.39
732.54	243.22
732.87	243.07
733.20	242.92
733.53	242.77
733.86	242.64
734.19	242.46
734.52	242.33
734.85	242.27
735.18	242.10
735.51	241.98
735.84	241.84
736.17	241.74
736.50	241.54
736.83	241.55
737.16	241.43
737.49	241.30
737.82	241.16
738.15	241.04
738.48	240.92
738.81	240.79
739.14	240.64
739.47	240.50
739.80	240.36
740.13	240.24
740.46	240.10
740.79	239.95
741.12	239.83
741.45	239.68
741.78	239.49
742.11	239.39
742.44	239.24
742.77	239.14
743.10	239.01
743.43	238.90
743.75	238.65
744.08	238.73
744.41	238.60
744.74	238.49
745.07	238.35
745.40	238.26
745.73	238.20
746.06	238.11
746.39	238.01
746.71	237.90
747.04	237.78
747.37	237.68
747.70	237.60
748.03	237.51
748.36	237.44
748.68	237.33
749.01	237.20
749.34	237.10
749.67	237.01
750.00	236.93
750.33	236.92
750.65	236.83
750.98	236.55
751.31	236.47
751.64	236.38
751.97	236.36
752.29	236.25
752.62	236.10
752.95	236.02
753.28	235.91
753.60	235.83
753.93	235.77
754.26	235.68
754.59	235.56
754.91	235.46
755.24	235.36
755.57	235.33
755.90	235.24
756.22	235.15
756.55	235.03
756.88	234.91
757.20	234.74
757.53	234.63
757.86	234.54
758.19	234.46
758.51	234.38
758.84	234.25
759.17	234.16
759.49	234.08
759.82	234.06
760.15	234.00
760.47	233.93
760.80	233.82
761.13	233.77
761.45	233.71
761.78	233.64
762.11	233.58
762.43	233.45
762.76	233.39
763.08	233.34
763.41	233.28
763.74	233.23
764.06	233.18
764.39	233.12
764.71	233.05
765.04	232.98
765.37	232.91
765.69	232.86
766.02	232.79
766.34	232.73
766.67	232.63
767.00	232.59
767.32	232.61
767.65	232.63
767.97	232.57
768.30	232.52
768.62	232.47
768.95	232.40
769.27	232.34
769.60	232.30
769.92	232.23
770.25	232.16
770.57	232.09
770.90	232.04
771.22	231.97
771.55	231.92
771.87	231.89
772.20	231.84
772.52	231.90
772.85	232.01
773.17	231.97
773.50	231.92
773.82	231.85
774.15	231.73
774.47	231.60
774.80	231.54
775.12	231.50
775.45	231.45
775.77	231.42
776.09	231.39
776.42	231.35
776.74	231.34
777.07	231.31
777.39	231.28
777.72	231.24
778.04	231.23
778.36	231.19
778.69	231.16
779.01	231.13
779.33	230.99
779.66	230.81
779.98	230.77
780.31	230.75
780.63	230.77
780.95	230.78
781.28	230.76
781.60	230.72
781.92	230.69
782.25	230.67
782.57	230.64
782.89	230.60
783.22	230.58
783.54	230.52
783.86	230.51
784.19	230.48
784.51	230.49
784.83	230.44
785.16	230.41
785.48	230.39
785.80	230.36
786.12	230.35
786.45	230.33
786.77	230.32
787.09	230.28
787.42	230.21
787.74	230.18
788.06	230.15
788.38	230.13
788.71	230.10
789.03	230.09
789.35	230.09
789.67	230.05
789.99	230.03
790.32	230.00
790.64	229.99
790.96	230.08
791.28	230.01
791.61	229.99
791.93	229.98
792.25	229.95
792.57	230.02
792.89	229.97
793.21	229.96
793.54	229.93
793.86	229.89
794.18	229.88
794.50	229.84
794.82	229.82
795.14	229.82
795.47	229.82
795.79	229.80
796.11	229.75
796.43	229.74
796.75	229.72
797.07	229.71
797.39	229.67
797.71	229.56
798.04	229.55
798.36	229.54
798.68	229.52
799.00	229.50
799.32	229.42
799.64	229.43
799.96	229.41
800.28	229.42
800.60	229.41
800.92	229.39
801.24	229.38
801.56	229.36
801.89	229.33
802.21	229.33
802.53	229.29
802.85	229.30
803.17	229.34
803.49	229.29
803.81	229.27
804.13	229.25
804.45	229.23
804.77	229.23
805.09	229.21
805.41	229.19
805.73	229.15
806.05	229.10
806.37	229.08
806.69	229.05
807.01	229.01
807.33	229.01
807.65	228.96
807.97	229.00
808.28	228.97
808.60	228.97
808.92	228.93
809.24	228.99
809.56	228.96
809.88	228.90
810.20	228.90
810.52	228.91
810.84	228.89
811.16	228.87
811.48	228.84
811.80	228.88
812.12	228.86
812.43	228.87
812.75	228.87
813.07	228.85
813.39	228.85
813.71	228.83
814.03	228.81
814.35	228.80
814.67	228.73
814.98	228.71
815.30	228.69
815.62	228.67
815.94	228.57
816.26	228.57
816.58	228.54
816.89	228.54
817.21	228.50
817.53	228.50
817.85	228.50
818.17	228.48
818.48	228.42
