SpectraSuite Data File
++++++++++++++++++++++++++++++++++++
Date: Fri Oct 02 17:23:35 EDT 2015
User: lab3
Dark Spectrum Present: No
Reference Spectrum Present: No
Number of Sampled Component Spectra: 1
Spectrometers: USB2E7196
Integration Time (usec): 46000 (USB2E7196)
Spectra Averaged: 600 (USB2E7196)
Boxcar Smoothing: 10 (USB2E7196)
Correct for Electrical Dark: No (USB2E7196)
Strobe/Lamp Enabled: No (USB2E7196)
Correct for Detector Non-linearity: No (USB2E7196)
Correct for Stray Light: No (USB2E7196)
Number of Pixels in Processed Spectrum: 2048
>>>>>Begin Processed Spectral Data<<<<<
339.09	0.00
339.48	214.87
339.86	216.28
340.24	217.74
340.63	219.36
341.01	222.49
341.39	222.19
341.78	223.34
342.16	224.74
342.54	225.04
342.93	213.41
343.31	224.18
343.69	224.74
344.07	225.21
344.46	225.66
344.84	226.04
345.22	226.26
345.60	226.51
345.99	226.70
346.37	226.82
346.75	226.93
347.13	227.01
347.52	227.09
347.90	227.18
348.28	227.21
348.66	227.27
349.05	227.27
349.43	227.32
349.81	227.39
350.19	227.45
350.57	227.53
350.96	227.61
351.34	227.72
351.72	227.80
352.10	227.92
352.48	227.98
352.87	228.02
353.25	228.09
353.63	228.16
354.01	228.24
354.39	228.33
354.77	228.41
355.15	228.50
355.54	228.55
355.92	228.58
356.30	228.66
356.68	228.81
357.06	228.90
357.44	228.95
357.82	229.01
358.20	229.12
358.58	229.17
358.97	229.23
359.35	229.31
359.73	229.39
360.11	229.43
360.49	229.49
360.87	229.54
361.25	229.61
361.63	229.69
362.01	229.72
362.39	229.73
362.77	229.79
363.15	229.81
363.53	229.83
363.91	229.88
364.29	229.90
364.67	229.78
365.05	229.80
365.43	229.83
365.81	229.86
366.19	229.86
366.57	229.91
366.95	229.91
367.33	229.87
367.71	229.86
368.09	229.89
368.47	229.89
368.85	229.87
369.23	229.87
369.61	229.81
369.99	229.83
370.37	229.83
370.75	229.89
371.13	229.85
371.51	229.80
371.89	229.77
372.27	229.74
372.65	229.71
373.03	229.65
373.41	229.61
373.78	229.54
374.16	229.44
374.54	229.36
374.92	229.30
375.30	229.27
375.68	229.20
376.06	229.17
376.44	229.11
376.82	229.08
377.19	229.03
377.57	228.98
377.95	228.90
378.33	228.84
378.71	228.68
379.09	228.64
379.47	228.61
379.84	228.55
380.22	228.50
380.60	228.44
380.98	228.40
381.36	228.35
381.73	228.28
382.11	228.26
382.49	228.22
382.87	228.15
383.25	228.11
383.62	228.20
384.00	228.11
384.38	228.08
384.76	228.05
385.13	228.04
385.51	228.00
385.89	227.95
386.27	227.92
386.64	227.90
387.02	227.86
387.40	227.81
387.78	227.79
388.15	227.76
388.53	227.72
388.91	227.68
389.29	227.65
389.66	227.67
390.04	227.64
390.42	227.63
390.79	227.63
391.17	227.61
391.55	227.45
391.92	227.44
392.30	227.44
392.68	227.41
393.05	227.39
393.43	227.39
393.81	227.40
394.18	227.37
394.56	227.38
394.94	227.41
395.31	227.41
395.69	227.45
396.06	227.49
396.44	227.51
396.82	227.53
397.19	227.61
397.57	227.61
397.95	227.67
398.32	227.67
398.70	227.71
399.07	227.78
399.45	227.83
399.82	227.88
400.20	227.90
400.58	227.97
400.95	227.98
401.33	228.07
401.70	228.23
402.08	228.34
402.45	228.43
402.83	228.53
403.20	228.64
403.58	228.73
403.95	228.88
404.33	229.03
404.71	229.17
405.08	229.39
405.46	229.56
405.83	229.73
406.21	229.93
406.58	230.14
406.96	230.35
407.33	230.59
407.70	230.87
408.08	231.26
408.45	231.57
408.83	231.93
409.20	232.25
409.58	232.55
409.95	232.92
410.33	233.35
410.70	233.75
411.08	234.24
411.45	234.74
411.82	235.23
412.20	235.81
412.57	236.52
412.95	237.07
413.32	237.77
413.69	238.51
414.07	239.29
414.44	240.14
414.82	241.00
415.19	242.01
415.56	243.03
415.94	244.09
416.31	245.30
416.68	246.48
417.06	247.87
417.43	249.17
417.81	250.67
418.18	252.20
418.55	253.87
418.93	255.60
419.30	257.41
419.67	259.33
420.04	261.31
420.42	263.35
420.79	265.73
421.16	268.12
421.54	270.55
421.91	273.12
422.28	275.77
422.66	278.62
423.03	281.35
423.40	284.21
423.77	287.27
424.15	290.39
424.52	293.67
424.89	297.20
425.26	300.72
425.64	303.99
426.01	307.66
426.38	311.43
426.75	315.30
427.13	319.29
427.50	323.47
427.87	327.80
428.24	332.17
428.61	336.37
428.99	340.97
429.36	345.96
429.73	350.74
430.10	355.53
430.47	360.41
430.85	365.45
431.22	370.85
431.59	376.43
431.96	381.88
432.33	387.94
432.70	393.71
433.08	400.51
433.45	406.93
433.82	413.29
434.19	420.37
434.56	427.35
434.93	434.08
435.30	440.74
435.68	448.27
436.05	455.65
436.42	463.00
436.79	469.69
437.16	476.94
437.53	484.66
437.90	492.43
438.27	500.00
438.64	508.18
439.01	515.60
439.38	522.39
439.75	528.89
440.13	536.24
440.50	543.19
440.87	548.70
441.24	554.76
441.61	561.34
441.98	566.11
442.35	571.79
442.72	577.57
443.09	583.08
443.46	586.51
443.83	588.99
444.20	591.03
444.57	594.09
444.94	595.76
445.31	597.50
445.68	598.93
446.05	599.92
446.42	599.34
446.79	598.60
447.16	597.87
447.53	597.20
447.90	594.58
448.27	592.12
448.64	588.49
449.01	585.87
449.37	580.89
449.74	576.39
450.11	570.67
450.48	564.44
450.85	558.19
451.22	552.83
451.59	547.61
451.96	542.91
452.33	536.16
452.70	530.14
453.07	522.85
453.43	515.59
453.80	508.57
454.17	501.88
454.54	495.67
454.91	488.71
455.28	482.20
455.65	476.09
456.02	469.64
456.38	464.41
456.75	457.77
457.12	452.44
457.49	447.05
457.86	441.96
458.23	437.52
458.59	432.60
458.96	427.58
459.33	423.19
459.70	418.66
460.07	415.27
460.43	411.27
460.80	407.54
461.17	404.30
461.54	400.77
461.91	397.48
462.27	394.16
462.64	391.50
463.01	388.41
463.38	385.30
463.74	382.49
464.11	380.03
464.48	377.81
464.85	375.36
465.21	373.55
465.58	371.51
465.95	369.14
466.32	367.28
466.68	365.46
467.05	363.60
467.42	361.83
467.78	359.88
468.15	358.09
468.52	356.81
468.88	355.06
469.25	353.46
469.62	352.19
469.98	350.81
470.35	349.56
470.72	348.44
471.08	347.31
471.45	346.36
471.82	345.29
472.18	344.15
472.55	343.45
472.92	342.53
473.28	341.82
473.65	341.05
474.02	340.32
474.38	339.71
474.75	339.36
475.11	338.85
475.48	338.62
475.85	338.36
476.21	338.21
476.58	338.12
476.94	338.26
477.31	338.34
477.67	338.40
478.04	338.65
478.41	338.93
478.77	339.32
479.14	339.57
479.50	340.08
479.87	340.74
480.23	341.41
480.60	342.04
480.96	342.70
481.33	343.69
481.69	344.66
482.06	345.62
482.42	346.49
482.79	347.57
483.15	348.84
483.52	350.28
483.88	351.68
484.25	353.16
484.61	354.72
484.98	356.38
485.34	358.28
485.71	360.21
486.07	362.32
486.44	364.43
486.80	366.78
487.17	369.21
487.53	371.89
487.90	374.66
488.26	377.70
488.62	380.89
488.99	384.07
489.35	387.42
489.72	391.06
490.08	394.93
490.44	398.93
490.81	403.07
491.17	407.31
491.54	411.86
491.90	416.56
492.26	421.58
492.63	426.84
492.99	432.34
493.36	438.04
493.72	444.05
494.08	450.18
494.45	456.71
494.81	463.46
495.17	470.40
495.54	477.70
495.90	485.33
496.26	493.13
496.63	501.16
496.99	509.53
497.35	518.28
497.72	527.29
498.08	536.51
498.44	546.04
498.80	556.16
499.17	566.53
499.53	577.21
499.89	588.27
500.26	599.54
500.62	611.09
500.98	623.28
501.34	635.66
501.71	648.52
502.07	661.55
502.43	675.15
502.79	688.98
503.16	703.28
503.52	717.73
503.88	732.59
504.24	747.94
504.60	763.49
504.97	779.51
505.33	795.92
505.69	813.21
506.05	830.87
506.41	848.41
506.78	866.16
507.14	884.45
507.50	903.14
507.86	922.17
508.22	941.46
508.59	960.58
508.95	980.45
509.31	1001.06
509.67	1022.36
510.03	1043.66
510.39	1065.02
510.75	1086.55
511.12	1108.37
511.48	1130.40
511.84	1152.42
512.20	1174.85
512.56	1198.12
512.92	1221.41
513.28	1244.36
513.64	1267.53
514.00	1291.13
514.37	1315.00
514.73	1338.89
515.09	1362.65
515.45	1386.78
515.81	1411.01
516.17	1435.41
516.53	1459.29
516.89	1483.08
517.25	1507.02
517.61	1530.87
517.97	1555.13
518.33	1578.94
518.69	1602.68
519.05	1626.84
519.41	1651.33
519.77	1675.92
520.13	1699.84
520.49	1723.70
520.85	1747.89
521.21	1771.55
521.57	1795.68
521.93	1819.25
522.29	1843.31
522.65	1866.90
523.01	1890.40
523.37	1913.54
523.73	1937.35
524.09	1960.91
524.45	1984.26
524.81	2007.17
525.17	2029.95
525.53	2052.11
525.89	2074.76
526.25	2097.39
526.61	2119.02
526.97	2140.76
527.33	2162.56
527.68	2183.97
528.04	2204.62
528.40	2224.37
528.76	2244.34
529.12	2263.78
529.48	2282.91
529.84	2300.32
530.20	2318.35
530.56	2335.83
530.91	2353.34
531.27	2370.52
531.63	2386.87
531.99	2402.85
532.35	2418.21
532.71	2433.60
533.07	2449.64
533.42	2463.86
533.78	2479.06
534.14	2494.46
534.50	2508.91
534.86	2523.10
535.21	2535.43
535.57	2548.18
535.93	2560.69
536.29	2572.17
536.65	2583.52
537.00	2594.29
537.36	2605.86
537.72	2615.89
538.08	2625.47
538.44	2634.41
538.79	2643.01
539.15	2650.84
539.51	2658.19
539.87	2664.90
540.22	2669.78
540.58	2674.74
540.94	2680.93
541.29	2685.52
541.65	2688.32
542.01	2690.54
542.37	2692.07
542.72	2694.85
543.08	2696.11
543.44	2697.88
543.79	2698.66
544.15	2698.56
544.51	2698.81
544.87	2698.02
545.22	2696.47
545.58	2694.29
545.94	2692.25
546.29	2688.84
546.65	2685.37
547.01	2681.90
547.36	2679.11
547.72	2676.30
548.07	2671.87
548.43	2665.94
548.79	2659.16
549.14	2653.71
549.50	2648.36
549.86	2642.12
550.21	2634.90
550.57	2628.48
550.92	2619.94
551.28	2611.88
551.64	2604.11
551.99	2595.89
552.35	2587.06
552.70	2578.59
553.06	2570.35
553.41	2561.48
553.77	2552.38
554.13	2543.29
554.48	2533.35
554.84	2522.24
555.19	2511.76
555.55	2501.23
555.90	2490.74
556.26	2480.73
556.61	2469.60
556.97	2456.91
557.32	2444.81
557.68	2432.59
558.03	2420.24
558.39	2408.93
558.74	2397.96
559.10	2385.38
559.45	2373.03
559.81	2361.28
560.16	2348.82
560.52	2336.63
560.87	2324.72
561.23	2312.05
561.58	2299.56
561.94	2286.66
562.29	2273.24
562.64	2260.53
563.00	2247.50
563.35	2234.93
563.71	2222.14
564.06	2209.27
564.42	2197.14
564.77	2184.32
565.12	2171.46
565.48	2158.52
565.83	2145.64
566.19	2132.81
566.54	2119.93
566.89	2105.94
567.25	2092.13
567.60	2079.61
567.96	2066.30
568.31	2051.72
568.66	2037.92
569.02	2025.05
569.37	2012.25
569.72	2000.03
570.08	1986.35
570.43	1972.46
570.78	1958.35
571.14	1943.61
571.49	1929.54
571.84	1916.01
572.20	1901.34
572.55	1886.93
572.90	1872.38
573.26	1857.84
573.61	1842.80
573.96	1828.26
574.31	1813.96
574.67	1799.67
575.02	1784.48
575.37	1769.31
575.72	1754.95
576.08	1740.81
576.43	1725.67
576.78	1710.94
577.13	1696.43
577.49	1682.38
577.84	1668.84
578.19	1654.41
578.54	1640.23
578.90	1625.49
579.25	1610.72
579.60	1597.48
579.95	1584.06
580.30	1570.52
580.66	1556.68
581.01	1542.84
581.36	1528.95
581.71	1516.07
582.06	1503.07
582.42	1490.35
582.77	1477.60
583.12	1464.80
583.47	1451.97
583.82	1439.18
584.17	1426.07
584.53	1412.64
584.88	1399.61
585.23	1386.17
585.58	1373.54
585.93	1361.09
586.28	1349.43
586.63	1337.73
586.98	1325.52
587.34	1313.39
587.69	1300.99
588.04	1288.94
588.39	1277.29
588.74	1265.72
589.09	1253.99
589.44	1241.86
589.79	1230.30
590.14	1218.86
590.49	1207.39
590.84	1196.07
591.19	1185.16
591.54	1174.05
591.89	1163.05
592.25	1152.24
592.60	1141.13
592.95	1130.43
593.30	1119.86
593.65	1109.01
594.00	1098.26
594.35	1088.10
594.70	1077.57
595.05	1067.87
595.40	1058.01
595.75	1048.09
596.10	1038.65
596.45	1028.91
596.80	1019.47
597.15	1009.85
597.50	1000.41
597.85	991.31
598.19	982.04
598.54	972.86
598.89	964.07
599.24	955.66
599.59	947.06
599.94	939.34
600.29	931.39
600.64	923.19
600.99	914.67
601.34	906.49
601.69	897.96
602.04	890.09
602.39	882.10
602.74	874.14
603.08	866.10
603.43	858.14
603.78	850.27
604.13	842.61
604.48	834.92
604.83	827.40
605.18	819.84
605.53	812.39
605.87	804.73
606.22	797.42
606.57	790.04
606.92	782.55
607.27	774.97
607.62	767.73
607.96	760.91
608.31	754.48
608.66	747.86
609.01	741.55
609.36	735.33
609.70	728.85
610.05	722.45
610.40	716.27
610.75	710.00
611.10	704.09
611.44	698.01
611.79	692.06
612.14	686.03
612.49	680.12
612.83	674.49
613.18	669.01
613.53	663.44
613.88	657.87
614.22	652.71
614.57	647.48
614.92	642.09
615.27	636.80
615.61	631.58
615.96	626.44
616.31	621.26
616.65	616.15
617.00	611.29
617.35	606.49
617.70	601.75
618.04	597.07
618.39	592.32
618.74	587.81
619.08	583.32
619.43	578.96
619.78	574.59
620.12	570.19
620.47	565.97
620.82	561.83
621.16	557.72
621.51	553.49
621.85	549.32
622.20	545.33
622.55	541.34
622.89	537.44
623.24	533.51
623.59	529.66
623.93	525.94
624.28	522.31
624.62	518.78
624.97	515.29
625.32	511.79
625.66	508.22
626.01	504.63
626.35	501.12
626.70	497.65
627.04	494.34
627.39	490.96
627.73	487.75
628.08	484.63
628.43	481.49
628.77	478.44
629.12	475.51
629.46	472.57
629.81	469.56
630.15	466.54
630.50	463.65
630.84	460.77
631.19	457.96
631.53	455.25
631.88	452.51
632.22	449.77
632.57	447.31
632.91	444.90
633.26	442.60
633.60	440.26
633.95	438.00
634.29	435.63
634.64	433.38
634.98	430.91
635.32	428.60
635.67	426.49
636.01	424.27
636.36	422.13
636.70	420.14
637.05	418.13
637.39	416.14
637.73	414.17
638.08	412.32
638.42	410.46
638.77	408.45
639.11	406.38
639.45	404.42
639.80	402.36
640.14	400.42
640.49	398.46
640.83	396.47
641.17	394.57
641.52	392.72
641.86	390.88
642.20	389.25
642.55	387.46
642.89	385.69
643.23	384.00
643.58	382.47
643.92	380.82
644.26	379.22
644.61	377.68
644.95	376.09
645.29	374.44
645.64	372.79
645.98	371.22
646.32	369.78
646.66	368.32
647.01	366.89
647.35	365.52
647.69	364.09
648.04	362.83
648.38	361.48
648.72	360.13
649.06	358.80
649.41	357.47
649.75	356.19
650.09	354.94
650.43	353.71
650.78	352.39
651.12	351.12
651.46	349.89
651.80	348.71
652.14	347.55
652.49	346.42
652.83	345.30
653.17	344.21
653.51	343.14
653.85	342.12
654.20	341.07
654.54	339.92
654.88	338.89
655.22	337.86
655.56	336.81
655.90	335.84
656.25	334.89
656.59	333.92
656.93	333.00
657.27	332.08
657.61	331.10
657.95	330.16
658.29	329.21
658.64	328.34
658.98	327.43
659.32	326.54
659.66	325.73
660.00	324.91
660.34	324.09
660.68	323.25
661.02	322.37
661.36	321.53
661.70	320.72
662.05	319.92
662.39	319.14
662.73	318.44
663.07	317.71
663.41	316.94
663.75	316.19
664.09	315.45
664.43	314.65
664.77	313.94
665.11	313.20
665.45	312.53
665.79	311.83
666.13	311.11
666.47	310.39
666.81	309.63
667.15	308.87
667.49	308.20
667.83	307.59
668.17	306.94
668.51	306.32
668.85	305.76
669.19	305.22
669.53	304.57
669.87	303.90
670.21	303.28
670.55	302.71
670.89	302.17
671.23	301.61
671.57	301.07
671.91	300.56
672.25	300.09
672.58	299.59
672.92	299.01
673.26	298.53
673.60	298.05
673.94	297.60
674.28	297.16
674.62	296.69
674.96	296.15
675.30	295.70
675.64	295.21
675.97	294.68
676.31	294.13
676.65	293.64
676.99	293.21
677.33	292.69
677.67	292.21
678.01	291.68
678.34	291.21
678.68	290.78
679.02	290.29
679.36	289.79
679.70	289.30
680.04	288.86
680.37	288.40
680.71	287.96
681.05	287.52
681.39	287.03
681.73	286.52
682.06	286.05
682.40	285.59
682.74	285.18
683.08	284.81
683.42	284.40
683.75	284.00
684.09	283.53
684.43	283.14
684.77	282.73
685.10	282.35
685.44	281.95
685.78	281.55
686.12	281.17
686.45	280.76
686.79	280.35
687.13	279.97
687.46	279.55
687.80	279.15
688.14	278.71
688.48	278.35
688.81	277.98
689.15	277.63
689.49	277.23
689.82	276.83
690.16	276.36
690.50	275.96
690.83	275.58
691.17	275.19
691.51	274.79
691.84	274.42
692.18	274.02
692.52	273.59
692.85	273.19
693.19	272.82
693.52	272.44
693.86	272.07
694.20	271.70
694.53	271.35
694.87	270.96
695.21	270.59
695.54	270.22
695.88	269.84
696.21	269.45
696.55	269.08
696.88	268.72
697.22	268.37
697.56	268.01
697.89	267.60
698.23	267.23
698.56	266.86
698.90	266.51
699.23	266.12
699.57	265.76
699.90	265.40
700.24	265.03
700.58	264.72
700.91	264.41
701.25	264.18
701.58	263.89
701.92	263.60
702.25	263.27
702.59	262.94
702.92	262.62
703.26	262.28
703.59	261.95
703.93	261.72
704.26	261.40
704.60	261.09
704.93	260.79
705.26	260.47
705.60	260.19
705.93	259.84
706.27	259.59
706.60	259.34
706.94	259.08
707.27	258.76
707.61	258.44
707.94	258.12
708.27	257.69
708.61	257.34
708.94	257.01
709.28	256.71
709.61	256.42
709.94	256.14
710.28	255.88
710.61	255.64
710.95	255.27
711.28	255.10
711.61	254.83
711.95	254.61
712.28	254.33
712.61	254.05
712.95	253.87
713.28	253.67
713.61	253.38
713.95	253.07
714.28	252.83
714.61	252.56
714.95	252.30
715.28	252.06
715.61	251.82
715.95	251.61
716.28	251.38
716.61	251.17
716.95	250.92
717.28	250.68
717.61	250.43
717.94	250.20
718.28	249.86
718.61	249.63
718.94	249.37
719.27	249.16
719.61	248.98
719.94	248.73
720.27	248.43
720.60	248.22
720.94	248.02
721.27	247.81
721.60	247.64
721.93	247.43
722.27	247.26
722.60	247.09
722.93	246.87
723.26	246.69
723.59	246.45
723.93	246.27
724.26	246.09
724.59	245.90
724.92	245.74
725.25	245.60
725.59	245.42
725.92	245.29
726.25	245.11
726.58	244.92
726.91	244.73
727.24	244.60
727.57	244.42
727.91	244.25
728.24	244.11
728.57	243.94
728.90	243.80
729.23	243.60
729.56	243.46
729.89	243.31
730.22	243.13
730.55	242.99
730.89	242.84
731.22	242.68
731.55	242.52
731.88	242.36
732.21	242.18
732.54	242.03
732.87	241.87
733.20	241.72
733.53	241.59
733.86	241.44
734.19	241.26
734.52	241.14
734.85	241.08
735.18	240.90
735.51	240.80
735.84	240.66
736.17	240.56
736.50	240.37
736.83	240.38
737.16	240.25
737.49	240.13
737.82	239.99
738.15	239.87
738.48	239.74
738.81	239.62
739.14	239.49
739.47	239.35
739.80	239.21
740.13	239.11
740.46	238.96
740.79	238.84
741.12	238.73
741.45	238.58
741.78	238.40
742.11	238.31
742.44	238.14
742.77	238.04
743.10	237.91
743.43	237.78
743.75	237.54
744.08	237.62
744.41	237.49
744.74	237.38
745.07	237.26
745.40	237.19
745.73	237.13
746.06	237.03
746.39	236.97
746.71	236.85
747.04	236.73
747.37	236.63
747.70	236.55
748.03	236.46
748.36	236.40
748.68	236.29
749.01	236.16
749.34	236.09
749.67	236.00
750.00	235.93
750.33	235.94
750.65	235.85
750.98	235.58
751.31	235.51
751.64	235.43
751.97	235.43
752.29	235.31
752.62	235.17
752.95	235.08
753.28	234.96
753.60	234.88
753.93	234.83
754.26	234.75
754.59	234.63
754.91	234.54
755.24	234.43
755.57	234.40
755.90	234.32
756.22	234.23
756.55	234.13
756.88	234.02
757.20	233.85
757.53	233.74
757.86	233.65
758.19	233.58
758.51	233.50
758.84	233.34
759.17	233.26
759.49	233.19
759.82	233.17
760.15	233.12
760.47	233.06
760.80	232.96
761.13	232.92
761.45	232.86
761.78	232.80
762.11	232.74
762.43	232.62
762.76	232.56
763.08	232.51
763.41	232.46
763.74	232.41
764.06	232.36
764.39	232.32
764.71	232.27
765.04	232.20
765.37	232.13
765.69	232.08
766.02	232.02
766.34	231.96
766.67	231.86
767.00	231.83
767.32	231.85
767.65	231.89
767.97	231.81
768.30	231.77
768.62	231.72
768.95	231.66
769.27	231.61
769.60	231.57
769.92	231.51
770.25	231.43
770.57	231.36
770.90	231.30
771.22	231.26
771.55	231.21
771.87	231.16
772.20	231.12
772.52	231.19
772.85	231.31
773.17	231.29
773.50	231.24
773.82	231.17
774.15	231.06
774.47	230.94
774.80	230.89
775.12	230.84
775.45	230.81
775.77	230.77
776.09	230.75
776.42	230.73
776.74	230.73
777.07	230.70
777.39	230.67
777.72	230.66
778.04	230.63
778.36	230.60
778.69	230.59
779.01	230.57
779.33	230.41
779.66	230.23
779.98	230.18
780.31	230.16
780.63	230.19
780.95	230.19
781.28	230.16
781.60	230.13
781.92	230.10
782.25	230.07
782.57	230.05
782.89	230.01
783.22	229.97
783.54	229.92
783.86	229.90
784.19	229.87
784.51	229.87
784.83	229.83
785.16	229.79
785.48	229.76
785.80	229.73
786.12	229.72
786.45	229.70
786.77	229.69
787.09	229.66
787.42	229.59
787.74	229.56
788.06	229.54
788.38	229.52
788.71	229.49
789.03	229.47
789.35	229.46
789.67	229.43
789.99	229.41
790.32	229.38
790.64	229.36
790.96	229.46
791.28	229.40
791.61	229.38
791.93	229.37
792.25	229.33
792.57	229.40
792.89	229.35
793.21	229.34
793.54	229.31
793.86	229.28
794.18	229.27
794.50	229.23
794.82	229.20
795.14	229.20
795.47	229.20
795.79	229.18
796.11	229.14
796.43	229.12
796.75	229.12
797.07	229.11
797.39	229.10
797.71	228.96
798.04	228.95
798.36	228.95
798.68	228.92
799.00	228.92
799.32	228.84
799.64	228.86
799.96	228.83
800.28	228.84
800.60	228.80
800.92	228.79
801.24	228.76
801.56	228.77
801.89	228.73
802.21	228.71
802.53	228.67
802.85	228.70
803.17	228.74
803.49	228.70
803.81	228.67
804.13	228.64
804.45	228.61
804.77	228.61
805.09	228.60
805.41	228.57
805.73	228.54
806.05	228.50
806.37	228.46
806.69	228.44
807.01	228.42
807.33	228.43
807.65	228.36
807.97	228.42
808.28	228.39
808.60	228.39
808.92	228.36
809.24	228.44
809.56	228.39
809.88	228.33
810.20	228.32
810.52	228.34
810.84	228.32
811.16	228.30
811.48	228.28
811.80	228.30
812.12	228.28
812.43	228.28
812.75	228.28
813.07	228.24
813.39	228.23
813.71	228.21
814.03	228.19
814.35	228.20
814.67	228.14
814.98	228.12
815.30	228.10
815.62	228.07
815.94	227.96
816.26	227.97
816.58	227.94
816.89	227.93
817.21	227.89
817.53	227.89
817.85	227.89
818.17	227.89
818.48	227.84
