SpectraSuite Data File
++++++++++++++++++++++++++++++++++++
Date: Fri Oct 02 18:31:51 EDT 2015
User: lab3
Dark Spectrum Present: No
Reference Spectrum Present: No
Number of Sampled Component Spectra: 1
Spectrometers: USB2E7196
Integration Time (usec): 46000 (USB2E7196)
Spectra Averaged: 1500 (USB2E7196)
Boxcar Smoothing: 10 (USB2E7196)
Correct for Electrical Dark: No (USB2E7196)
Strobe/Lamp Enabled: No (USB2E7196)
Correct for Detector Non-linearity: No (USB2E7196)
Correct for Stray Light: No (USB2E7196)
Number of Pixels in Processed Spectrum: 2048
>>>>>Begin Processed Spectral Data<<<<<
339.09	0.00
339.48	215.43
339.86	216.86
340.24	218.12
340.63	219.70
341.01	222.88
341.39	222.21
341.78	223.67
342.16	224.97
342.54	225.12
342.93	213.69
343.31	224.49
343.69	225.03
344.07	225.48
344.46	225.91
344.84	226.30
345.22	226.52
345.60	226.78
345.99	226.98
346.37	227.10
346.75	227.22
347.13	227.29
347.52	227.36
347.90	227.45
348.28	227.49
348.66	227.56
349.05	227.56
349.43	227.61
349.81	227.66
350.19	227.72
350.57	227.79
350.96	227.87
351.34	227.97
351.72	228.05
352.10	228.16
352.48	228.23
352.87	228.27
353.25	228.33
353.63	228.39
354.01	228.45
354.39	228.52
354.77	228.59
355.15	228.70
355.54	228.75
355.92	228.77
356.30	228.85
356.68	228.99
357.06	229.05
357.44	229.10
357.82	229.16
358.20	229.28
358.58	229.34
358.97	229.41
359.35	229.49
359.73	229.58
360.11	229.63
360.49	229.69
360.87	229.73
361.25	229.81
361.63	229.90
362.01	229.96
362.39	230.00
362.77	230.04
363.15	230.06
363.53	230.10
363.91	230.13
364.29	230.16
364.67	230.06
365.05	230.08
365.43	230.12
365.81	230.15
366.19	230.16
366.57	230.21
366.95	230.21
367.33	230.18
367.71	230.18
368.09	230.20
368.47	230.20
368.85	230.19
369.23	230.20
369.61	230.13
369.99	230.15
370.37	230.14
370.75	230.22
371.13	230.19
371.51	230.15
371.89	230.14
372.27	230.11
372.65	230.10
373.03	230.07
373.41	230.02
373.78	229.98
374.16	229.88
374.54	229.80
374.92	229.75
375.30	229.71
375.68	229.63
376.06	229.59
376.44	229.54
376.82	229.49
377.19	229.44
377.57	229.39
377.95	229.30
378.33	229.24
378.71	229.07
379.09	229.02
379.47	228.99
379.84	228.93
380.22	228.87
380.60	228.79
380.98	228.74
381.36	228.68
381.73	228.62
382.11	228.59
382.49	228.55
382.87	228.49
383.25	228.44
383.62	228.54
384.00	228.48
384.38	228.44
384.76	228.43
385.13	228.44
385.51	228.39
385.89	228.34
386.27	228.30
386.64	228.29
387.02	228.25
387.40	228.19
387.78	228.17
388.15	228.14
388.53	228.11
388.91	228.09
389.29	228.06
389.66	228.05
390.04	228.00
390.42	228.01
390.79	228.00
391.17	227.99
391.55	227.83
391.92	227.82
392.30	227.81
392.68	227.77
393.05	227.74
393.43	227.74
393.81	227.75
394.18	227.74
394.56	227.74
394.94	227.78
395.31	227.78
395.69	227.82
396.06	227.85
396.44	227.88
396.82	227.88
397.19	227.97
397.57	227.98
397.95	228.03
398.32	228.03
398.70	228.07
399.07	228.13
399.45	228.17
399.82	228.22
400.20	228.26
400.58	228.32
400.95	228.33
401.33	228.42
401.70	228.57
402.08	228.67
402.45	228.75
402.83	228.86
403.20	228.98
403.58	229.07
403.95	229.21
404.33	229.35
404.71	229.49
405.08	229.69
405.46	229.85
405.83	230.02
406.21	230.21
406.58	230.41
406.96	230.62
407.33	230.86
407.70	231.13
408.08	231.51
408.45	231.82
408.83	232.16
409.20	232.48
409.58	232.76
409.95	233.15
410.33	233.58
410.70	233.96
411.08	234.42
411.45	234.93
411.82	235.42
412.20	235.98
412.57	236.67
412.95	237.20
413.32	237.90
413.69	238.63
414.07	239.39
414.44	240.22
414.82	241.06
415.19	242.05
415.56	243.05
415.94	244.07
416.31	245.24
416.68	246.41
417.06	247.76
417.43	249.04
417.81	250.48
418.18	251.97
418.55	253.60
418.93	255.29
419.30	257.04
419.67	258.91
420.04	260.83
420.42	262.82
420.79	265.14
421.16	267.46
421.54	269.85
421.91	272.33
422.28	274.90
422.66	277.66
423.03	280.31
423.40	283.07
423.77	286.04
424.15	289.07
424.52	292.24
424.89	295.67
425.26	299.08
425.64	302.26
426.01	305.81
426.38	309.44
426.75	313.19
427.13	317.04
427.50	321.07
427.87	325.27
428.24	329.50
428.61	333.59
428.99	337.99
429.36	342.81
429.73	347.42
430.10	352.05
430.47	356.79
430.85	361.66
431.22	366.89
431.59	372.27
431.96	377.51
432.33	383.33
432.70	388.89
433.08	395.43
433.45	401.64
433.82	407.74
434.19	414.56
434.56	421.28
434.93	427.76
435.30	434.19
435.68	441.44
436.05	448.54
436.42	455.59
436.79	462.04
437.16	469.01
437.53	476.45
437.90	483.90
438.27	491.18
438.64	499.04
439.01	506.16
439.38	512.68
439.75	518.96
440.13	526.03
440.50	532.71
440.87	538.01
441.24	543.83
441.61	550.17
441.98	554.77
442.35	560.24
442.72	565.82
443.09	571.12
443.46	574.43
443.83	576.83
444.20	578.80
444.57	581.80
444.94	583.43
445.31	585.13
445.68	586.55
446.05	587.53
446.42	587.00
446.79	586.32
447.16	585.68
447.53	585.11
447.90	582.67
448.27	580.35
448.64	576.90
449.01	574.46
449.37	569.75
449.74	565.49
450.11	560.03
450.48	554.08
450.85	548.12
451.22	543.03
451.59	538.06
451.96	533.56
452.33	527.08
452.70	521.33
453.07	514.34
453.43	507.38
453.80	500.64
454.17	494.21
454.54	488.25
454.91	481.55
455.28	475.28
455.65	469.38
456.02	463.17
456.38	458.17
456.75	451.72
457.12	446.55
457.49	441.32
457.86	436.42
458.23	432.12
458.59	427.37
458.96	422.51
459.33	418.24
459.70	413.89
460.07	410.60
460.43	406.70
460.80	403.09
461.17	399.96
461.54	396.55
461.91	393.37
462.27	390.15
462.64	387.56
463.01	384.55
463.38	381.53
463.74	378.81
464.11	376.40
464.48	374.24
464.85	371.88
465.21	370.12
465.58	368.14
465.95	365.86
466.32	364.05
466.68	362.28
467.05	360.49
467.42	358.73
467.78	356.84
468.15	355.11
468.52	353.85
468.88	352.13
469.25	350.58
469.62	349.35
469.98	347.99
470.35	346.80
470.72	345.71
471.08	344.58
471.45	343.64
471.82	342.60
472.18	341.50
472.55	340.78
472.92	339.88
473.28	339.18
473.65	338.41
474.02	337.69
474.38	337.09
474.75	336.73
475.11	336.24
475.48	336.01
475.85	335.76
476.21	335.63
476.58	335.55
476.94	335.68
477.31	335.74
477.67	335.83
478.04	336.03
478.41	336.31
478.77	336.72
479.14	336.98
479.50	337.48
479.87	338.10
480.23	338.74
480.60	339.37
480.96	340.00
481.33	340.95
481.69	341.88
482.06	342.79
482.42	343.64
482.79	344.71
483.15	345.94
483.52	347.34
483.88	348.68
484.25	350.10
484.61	351.58
484.98	353.19
485.34	355.02
485.71	356.92
486.07	358.94
486.44	360.96
486.80	363.22
487.17	365.57
487.53	368.17
487.90	370.88
488.26	373.81
488.62	376.89
488.99	380.00
489.35	383.27
489.72	386.82
490.08	390.54
490.44	394.40
490.81	398.40
491.17	402.50
491.54	406.93
491.90	411.52
492.26	416.40
492.63	421.51
492.99	426.85
493.36	432.37
493.72	438.19
494.08	444.15
494.45	450.49
494.81	457.07
495.17	463.81
495.54	470.94
495.90	478.35
496.26	485.96
496.63	493.81
496.99	501.96
497.35	510.49
497.72	519.29
498.08	528.30
498.44	537.63
498.80	547.53
499.17	557.66
499.53	568.09
499.89	578.91
500.26	589.94
500.62	601.25
500.98	613.18
501.34	625.29
501.71	637.92
502.07	650.72
502.43	664.08
502.79	677.64
503.16	691.66
503.52	705.86
503.88	720.50
504.24	735.57
504.60	750.85
504.97	766.63
505.33	782.84
505.69	799.90
506.05	817.28
506.41	834.58
506.78	852.10
507.14	870.18
507.50	888.65
507.86	907.51
508.22	926.58
508.59	945.49
508.95	965.22
509.31	985.65
509.67	1006.77
510.03	1027.89
510.39	1049.14
510.75	1070.57
511.12	1092.30
511.48	1114.11
511.84	1136.07
512.20	1158.46
512.56	1181.67
512.92	1204.88
513.28	1227.79
513.64	1250.94
514.00	1274.55
514.37	1298.45
514.73	1322.36
515.09	1346.20
515.45	1370.40
515.81	1394.73
516.17	1419.30
516.53	1443.36
516.89	1467.31
517.25	1491.46
517.61	1515.55
517.97	1540.09
518.33	1564.15
518.69	1588.15
519.05	1612.73
519.41	1637.54
519.77	1662.49
520.13	1686.82
520.49	1711.10
520.85	1735.73
521.21	1759.93
521.57	1784.54
521.93	1808.72
522.29	1833.32
522.65	1857.47
523.01	1881.57
523.37	1905.30
523.73	1929.73
524.09	1953.94
524.45	1977.95
524.81	2001.64
525.17	2025.13
525.53	2048.06
525.89	2071.48
526.25	2094.90
526.61	2117.32
526.97	2139.88
527.33	2162.49
527.68	2184.71
528.04	2206.20
528.40	2226.77
528.76	2247.71
529.12	2268.14
529.48	2288.15
529.84	2306.54
530.20	2325.57
530.56	2344.01
530.91	2362.61
531.27	2380.81
531.63	2398.22
531.99	2415.31
532.35	2431.69
532.71	2448.19
533.07	2465.31
533.42	2480.69
533.78	2497.08
534.14	2513.67
534.50	2529.31
534.86	2544.67
535.21	2558.21
535.57	2572.24
535.93	2586.06
536.29	2598.68
536.65	2611.22
537.00	2623.13
537.36	2635.93
537.72	2647.20
538.08	2658.03
538.44	2668.27
538.79	2678.12
539.15	2687.11
539.51	2695.65
539.87	2703.54
540.22	2709.59
540.58	2715.76
540.94	2723.12
541.29	2728.84
541.65	2732.79
542.01	2736.07
542.37	2738.74
542.72	2742.72
543.08	2745.00
543.44	2747.89
543.79	2749.69
544.15	2750.66
544.51	2752.05
544.87	2752.27
545.22	2751.76
545.58	2750.63
545.94	2749.45
546.29	2746.98
546.65	2744.52
547.01	2742.06
547.36	2740.28
547.72	2738.49
548.07	2734.95
548.43	2729.92
548.79	2724.03
549.14	2719.42
549.50	2715.03
549.86	2709.67
550.21	2703.18
550.57	2697.67
550.92	2689.81
551.28	2682.61
551.64	2675.65
551.99	2668.16
552.35	2660.03
552.70	2652.24
553.06	2644.69
553.41	2636.46
553.77	2628.05
554.13	2619.53
554.48	2610.13
554.84	2599.56
555.19	2589.52
555.55	2579.57
555.90	2569.56
556.26	2560.07
556.61	2549.49
556.97	2537.20
557.32	2525.53
557.68	2513.72
558.03	2501.71
558.39	2490.89
558.74	2480.30
559.10	2467.97
559.45	2455.95
559.81	2444.54
560.16	2432.41
560.52	2420.51
560.87	2408.97
561.23	2396.57
561.58	2384.35
561.94	2371.74
562.29	2358.53
562.64	2346.04
563.00	2333.13
563.35	2320.73
563.71	2308.11
564.06	2295.33
564.42	2283.37
564.77	2270.67
565.12	2257.90
565.48	2245.06
565.83	2232.22
566.19	2219.46
566.54	2206.66
566.89	2192.69
567.25	2178.94
567.60	2166.48
567.96	2153.15
568.31	2138.44
568.66	2124.52
569.02	2111.65
569.37	2098.71
569.72	2086.35
570.08	2072.68
570.43	2058.69
570.78	2044.47
571.14	2029.53
571.49	2015.33
571.84	2001.66
572.20	1986.71
572.55	1972.12
572.90	1957.31
573.26	1942.51
573.61	1927.20
573.96	1912.36
574.31	1897.76
574.67	1883.13
575.02	1867.53
575.37	1851.98
575.72	1837.35
576.08	1822.96
576.43	1807.40
576.78	1792.33
577.13	1777.52
577.49	1763.05
577.84	1749.18
578.19	1734.32
578.54	1719.67
578.90	1704.52
579.25	1689.27
579.60	1675.67
579.95	1661.83
580.30	1647.87
580.66	1633.64
581.01	1619.37
581.36	1605.04
581.71	1591.74
582.06	1578.26
582.42	1565.08
582.77	1551.92
583.12	1538.70
583.47	1525.37
583.82	1512.17
584.17	1498.58
584.53	1484.61
584.88	1471.06
585.23	1457.05
585.58	1443.92
585.93	1431.03
586.28	1418.85
586.63	1406.70
586.98	1393.99
587.34	1381.39
587.69	1368.47
588.04	1355.92
588.39	1343.72
588.74	1331.71
589.09	1319.45
589.44	1306.79
589.79	1294.74
590.14	1282.79
590.49	1270.79
590.84	1258.90
591.19	1247.45
591.54	1235.82
591.89	1224.35
592.25	1213.02
592.60	1201.35
592.95	1190.13
593.30	1179.08
593.65	1167.70
594.00	1156.39
594.35	1145.72
594.70	1134.63
595.05	1124.44
595.40	1114.11
595.75	1103.61
596.10	1093.67
596.45	1083.42
596.80	1073.50
597.15	1063.38
597.50	1053.43
597.85	1043.85
598.19	1034.11
598.54	1024.44
598.89	1015.20
599.24	1006.28
599.59	997.20
599.94	989.06
600.29	980.63
600.64	971.92
600.99	962.87
601.34	954.22
601.69	945.22
602.04	936.87
602.39	928.40
602.74	919.93
603.08	911.46
603.43	902.92
603.78	894.61
604.13	886.48
604.48	878.28
604.83	870.26
605.18	862.18
605.53	854.25
605.87	846.10
606.22	838.34
606.57	830.50
606.92	822.53
607.27	814.46
607.62	806.82
607.96	799.52
608.31	792.70
608.66	785.66
609.01	778.92
609.36	772.29
609.70	765.39
610.05	758.52
610.40	751.90
610.75	745.29
611.10	738.98
611.44	732.53
611.79	726.20
612.14	719.79
612.49	713.45
612.83	707.45
613.18	701.57
613.53	695.55
613.88	689.58
614.22	684.07
614.57	678.48
614.92	672.67
615.27	667.07
615.61	661.48
615.96	655.96
616.31	650.42
616.65	644.94
617.00	639.71
617.35	634.58
617.70	629.50
618.04	624.42
618.39	619.31
618.74	614.46
619.08	609.64
619.43	604.94
619.78	600.28
620.12	595.52
620.47	591.00
620.82	586.57
621.16	582.14
621.51	577.55
621.85	573.06
622.20	568.77
622.55	564.47
622.89	560.25
623.24	556.02
623.59	551.86
623.93	547.87
624.28	543.96
624.62	540.13
624.97	536.35
625.32	532.58
625.66	528.72
626.01	524.82
626.35	521.00
626.70	517.25
627.04	513.64
627.39	510.03
627.73	506.55
628.08	503.18
628.43	499.82
628.77	496.57
629.12	493.40
629.46	490.24
629.81	486.99
630.15	483.76
630.50	480.61
630.84	477.51
631.19	474.47
631.53	471.54
631.88	468.58
632.22	465.64
632.57	463.00
632.91	460.40
633.26	457.88
633.60	455.38
633.95	452.93
634.29	450.42
634.64	447.95
634.98	445.27
635.32	442.75
635.67	440.43
636.01	438.01
636.36	435.65
636.70	433.44
637.05	431.25
637.39	429.06
637.73	426.93
638.08	424.92
638.42	422.85
638.77	420.66
639.11	418.43
639.45	416.28
639.80	414.05
640.14	411.94
640.49	409.82
640.83	407.67
641.17	405.62
641.52	403.60
641.86	401.61
642.20	399.85
642.55	397.90
642.89	396.00
643.23	394.18
643.58	392.53
643.92	390.74
644.26	389.00
644.61	387.35
644.95	385.63
645.29	383.85
645.64	382.09
645.98	380.43
646.32	378.87
646.66	377.30
647.01	375.76
647.35	374.25
647.69	372.72
648.04	371.34
648.38	369.86
648.72	368.41
649.06	366.96
649.41	365.52
649.75	364.16
650.09	362.79
650.43	361.44
650.78	360.02
651.12	358.65
651.46	357.33
651.80	356.02
652.14	354.75
652.49	353.53
652.83	352.28
653.17	351.08
653.51	349.93
653.85	348.82
654.20	347.66
654.54	346.44
654.88	345.32
655.22	344.21
655.56	343.08
655.90	342.02
656.25	341.00
656.59	339.95
656.93	338.96
657.27	337.97
657.61	336.92
657.95	335.93
658.29	334.93
658.64	333.99
658.98	333.05
659.32	332.12
659.66	331.24
660.00	330.38
660.34	329.51
660.68	328.59
661.02	327.64
661.36	326.74
661.70	325.86
662.05	324.99
662.39	324.15
662.73	323.39
663.07	322.63
663.41	321.82
663.75	321.01
664.09	320.21
664.43	319.37
664.77	318.61
665.11	317.81
665.45	317.09
665.79	316.35
666.13	315.58
666.47	314.78
666.81	313.98
667.15	313.15
667.49	312.43
667.83	311.79
668.17	311.11
668.51	310.46
668.85	309.85
669.19	309.26
669.53	308.58
669.87	307.90
670.21	307.22
670.55	306.59
670.89	306.04
671.23	305.44
671.57	304.85
671.91	304.31
672.25	303.80
672.58	303.25
672.92	302.63
673.26	302.12
673.60	301.60
673.94	301.12
674.28	300.66
674.62	300.16
674.96	299.59
675.30	299.09
675.64	298.57
675.97	298.01
676.31	297.44
676.65	296.92
676.99	296.44
677.33	295.90
677.67	295.41
678.01	294.83
678.34	294.34
678.68	293.88
679.02	293.35
679.36	292.83
679.70	292.33
680.04	291.86
680.37	291.38
680.71	290.93
681.05	290.47
681.39	289.97
681.73	289.45
682.06	288.95
682.40	288.47
682.74	288.04
683.08	287.67
683.42	287.23
683.75	286.82
684.09	286.32
684.43	285.90
684.77	285.45
685.10	285.07
685.44	284.64
685.78	284.22
686.12	283.83
686.45	283.41
686.79	282.97
687.13	282.56
687.46	282.11
687.80	281.69
688.14	281.22
688.48	280.82
688.81	280.41
689.15	280.06
689.49	279.65
689.82	279.22
690.16	278.73
690.50	278.33
690.83	277.92
691.17	277.52
691.51	277.12
691.84	276.74
692.18	276.30
692.52	275.88
692.85	275.49
693.19	275.10
693.52	274.70
693.86	274.30
694.20	273.92
694.53	273.56
694.87	273.15
695.21	272.76
695.54	272.38
695.88	271.99
696.21	271.57
696.55	271.19
696.88	270.82
697.22	270.44
697.56	270.06
697.89	269.64
698.23	269.26
698.56	268.87
698.90	268.50
699.23	268.11
699.57	267.73
699.90	267.34
700.24	266.95
700.58	266.61
700.91	266.31
701.25	266.06
701.58	265.77
701.92	265.46
702.25	265.13
702.59	264.78
702.92	264.44
703.26	264.10
703.59	263.74
703.93	263.50
704.26	263.18
704.60	262.84
704.93	262.52
705.26	262.18
705.60	261.90
705.93	261.55
706.27	261.27
706.60	261.01
706.94	260.74
707.27	260.40
707.61	260.08
707.94	259.73
708.27	259.28
708.61	258.91
708.94	258.58
709.28	258.29
709.61	257.98
709.94	257.71
710.28	257.43
710.61	257.18
710.95	256.80
711.28	256.61
711.61	256.33
711.95	256.09
712.28	255.81
712.61	255.51
712.95	255.32
713.28	255.11
713.61	254.81
713.95	254.50
714.28	254.25
714.61	253.98
714.95	253.72
715.28	253.49
715.61	253.25
715.95	253.02
716.28	252.78
716.61	252.58
716.95	252.32
717.28	252.09
717.61	251.85
717.94	251.61
718.28	251.28
718.61	251.04
718.94	250.78
719.27	250.57
719.61	250.36
719.94	250.10
720.27	249.81
720.60	249.58
720.94	249.38
721.27	249.17
721.60	248.98
721.93	248.77
722.27	248.59
722.60	248.40
722.93	248.18
723.26	247.98
723.59	247.73
723.93	247.55
724.26	247.34
724.59	247.14
724.92	246.96
725.25	246.82
725.59	246.65
725.92	246.48
726.25	246.30
726.58	246.13
726.91	245.94
727.24	245.78
727.57	245.61
727.91	245.42
728.24	245.27
728.57	245.08
728.90	244.93
729.23	244.71
729.56	244.59
729.89	244.43
730.22	244.24
730.55	244.09
730.89	243.91
731.22	243.75
731.55	243.60
731.88	243.44
732.21	243.25
732.54	243.08
732.87	242.93
733.20	242.79
733.53	242.64
733.86	242.50
734.19	242.33
734.52	242.21
734.85	242.15
735.18	241.97
735.51	241.87
735.84	241.73
736.17	241.63
736.50	241.43
736.83	241.43
737.16	241.31
737.49	241.18
737.82	241.05
738.15	240.93
738.48	240.80
738.81	240.66
739.14	240.51
739.47	240.38
739.80	240.24
740.13	240.12
740.46	239.96
740.79	239.82
741.12	239.69
741.45	239.53
741.78	239.34
742.11	239.25
742.44	239.10
742.77	238.98
743.10	238.84
743.43	238.71
743.75	238.46
744.08	238.54
744.41	238.40
744.74	238.29
745.07	238.14
745.40	238.06
745.73	238.00
746.06	237.90
746.39	237.81
746.71	237.69
747.04	237.57
747.37	237.47
747.70	237.39
748.03	237.31
748.36	237.23
748.68	237.13
749.01	236.99
749.34	236.90
749.67	236.80
750.00	236.72
750.33	236.73
750.65	236.64
750.98	236.35
751.31	236.26
751.64	236.17
751.97	236.14
752.29	236.03
752.62	235.88
752.95	235.79
753.28	235.68
753.60	235.59
753.93	235.53
754.26	235.45
754.59	235.31
754.91	235.20
755.24	235.10
755.57	235.07
755.90	234.99
756.22	234.89
756.55	234.78
756.88	234.68
757.20	234.51
757.53	234.39
757.86	234.32
758.19	234.24
758.51	234.16
758.84	234.03
759.17	233.95
759.49	233.88
759.82	233.87
760.15	233.81
760.47	233.74
760.80	233.64
761.13	233.58
761.45	233.52
761.78	233.45
762.11	233.39
762.43	233.25
762.76	233.18
763.08	233.14
763.41	233.08
763.74	233.02
764.06	232.96
764.39	232.91
764.71	232.85
765.04	232.78
765.37	232.71
765.69	232.64
766.02	232.59
766.34	232.52
766.67	232.41
767.00	232.37
767.32	232.39
767.65	232.41
767.97	232.35
768.30	232.31
768.62	232.26
768.95	232.19
769.27	232.14
769.60	232.11
769.92	232.04
770.25	231.97
770.57	231.90
770.90	231.86
771.22	231.79
771.55	231.75
771.87	231.71
772.20	231.67
772.52	231.73
772.85	231.84
773.17	231.80
773.50	231.74
773.82	231.68
774.15	231.57
774.47	231.45
774.80	231.40
775.12	231.35
775.45	231.31
775.77	231.29
776.09	231.27
776.42	231.23
776.74	231.24
777.07	231.19
777.39	231.16
777.72	231.12
778.04	231.11
778.36	231.05
778.69	231.02
779.01	231.00
779.33	230.85
779.66	230.67
779.98	230.63
780.31	230.61
780.63	230.63
780.95	230.62
781.28	230.60
781.60	230.56
781.92	230.53
782.25	230.50
782.57	230.47
782.89	230.43
783.22	230.38
783.54	230.33
783.86	230.31
784.19	230.27
784.51	230.28
784.83	230.24
785.16	230.21
785.48	230.19
785.80	230.16
786.12	230.15
786.45	230.12
786.77	230.10
787.09	230.06
787.42	229.99
787.74	229.96
788.06	229.94
788.38	229.92
788.71	229.88
789.03	229.88
789.35	229.87
789.67	229.84
789.99	229.84
790.32	229.80
790.64	229.79
790.96	229.89
791.28	229.83
791.61	229.81
791.93	229.80
792.25	229.76
792.57	229.83
792.89	229.79
793.21	229.79
793.54	229.77
793.86	229.74
794.18	229.72
794.50	229.68
794.82	229.67
795.14	229.66
795.47	229.67
795.79	229.64
796.11	229.60
796.43	229.57
796.75	229.55
797.07	229.55
797.39	229.52
797.71	229.41
798.04	229.40
798.36	229.39
798.68	229.37
799.00	229.37
799.32	229.28
799.64	229.29
799.96	229.28
800.28	229.29
800.60	229.27
800.92	229.27
801.24	229.25
801.56	229.23
801.89	229.20
802.21	229.19
802.53	229.16
802.85	229.16
803.17	229.20
803.49	229.16
803.81	229.13
804.13	229.11
804.45	229.07
804.77	229.07
805.09	229.06
805.41	229.03
805.73	229.00
806.05	228.94
806.37	228.91
806.69	228.88
807.01	228.85
807.33	228.85
807.65	228.80
807.97	228.84
808.28	228.81
808.60	228.80
808.92	228.78
809.24	228.84
809.56	228.81
809.88	228.76
810.20	228.75
810.52	228.76
810.84	228.74
811.16	228.70
811.48	228.67
811.80	228.70
812.12	228.68
812.43	228.69
812.75	228.70
813.07	228.68
813.39	228.68
813.71	228.66
814.03	228.63
814.35	228.63
814.67	228.56
814.98	228.55
815.30	228.54
815.62	228.50
815.94	228.42
816.26	228.43
816.58	228.40
816.89	228.40
817.21	228.36
817.53	228.37
817.85	228.37
818.17	228.38
818.48	228.31
