SpectraSuite Data File
++++++++++++++++++++++++++++++++++++
Date: Fri Oct 02 18:46:00 EDT 2015
User: lab3
Dark Spectrum Present: No
Reference Spectrum Present: No
Number of Sampled Component Spectra: 1
Spectrometers: USB2E7196
Integration Time (usec): 46000 (USB2E7196)
Spectra Averaged: 1500 (USB2E7196)
Boxcar Smoothing: 10 (USB2E7196)
Correct for Electrical Dark: No (USB2E7196)
Strobe/Lamp Enabled: No (USB2E7196)
Correct for Detector Non-linearity: No (USB2E7196)
Correct for Stray Light: No (USB2E7196)
Number of Pixels in Processed Spectrum: 2048
>>>>>Begin Processed Spectral Data<<<<<
339.09	0.00
339.48	215.36
339.86	216.98
340.24	218.19
340.63	219.73
341.01	222.92
341.39	222.61
341.78	223.79
342.16	224.86
342.54	225.45
342.93	213.79
343.31	224.58
343.69	225.13
344.07	225.59
344.46	226.02
344.84	226.40
345.22	226.62
345.60	226.87
345.99	227.06
346.37	227.19
346.75	227.31
347.13	227.39
347.52	227.46
347.90	227.56
348.28	227.61
348.66	227.67
349.05	227.67
349.43	227.73
349.81	227.78
350.19	227.85
350.57	227.93
350.96	228.00
351.34	228.10
351.72	228.20
352.10	228.30
352.48	228.38
352.87	228.44
353.25	228.52
353.63	228.58
354.01	228.65
354.39	228.74
354.77	228.81
355.15	228.93
355.54	228.97
355.92	228.99
356.30	229.07
356.68	229.22
357.06	229.30
357.44	229.34
357.82	229.40
358.20	229.52
358.58	229.57
358.97	229.64
359.35	229.73
359.73	229.82
360.11	229.87
360.49	229.93
360.87	229.98
361.25	230.05
361.63	230.14
362.01	230.19
362.39	230.22
362.77	230.28
363.15	230.29
363.53	230.34
363.91	230.39
364.29	230.41
364.67	230.32
365.05	230.35
365.43	230.39
365.81	230.42
366.19	230.44
366.57	230.51
366.95	230.51
367.33	230.48
367.71	230.47
368.09	230.50
368.47	230.49
368.85	230.48
369.23	230.49
369.61	230.44
369.99	230.46
370.37	230.46
370.75	230.53
371.13	230.49
371.51	230.45
371.89	230.43
372.27	230.40
372.65	230.38
373.03	230.33
373.41	230.28
373.78	230.23
374.16	230.13
374.54	230.04
374.92	230.00
375.30	229.96
375.68	229.89
376.06	229.84
376.44	229.78
376.82	229.73
377.19	229.68
377.57	229.62
377.95	229.52
378.33	229.45
378.71	229.29
379.09	229.25
379.47	229.21
379.84	229.15
380.22	229.08
380.60	229.01
380.98	228.96
381.36	228.91
381.73	228.84
382.11	228.81
382.49	228.77
382.87	228.70
383.25	228.65
383.62	228.75
384.00	228.69
384.38	228.65
384.76	228.63
385.13	228.63
385.51	228.60
385.89	228.55
386.27	228.52
386.64	228.50
387.02	228.46
387.40	228.42
387.78	228.39
388.15	228.37
388.53	228.33
388.91	228.30
389.29	228.27
389.66	228.26
390.04	228.23
390.42	228.22
390.79	228.21
391.17	228.20
391.55	228.04
391.92	228.02
392.30	228.03
392.68	227.99
393.05	227.97
393.43	227.97
393.81	227.98
394.18	227.95
394.56	227.95
394.94	227.99
395.31	227.99
395.69	228.03
396.06	228.06
396.44	228.07
396.82	228.09
397.19	228.17
397.57	228.19
397.95	228.23
398.32	228.22
398.70	228.27
399.07	228.33
399.45	228.37
399.82	228.41
400.20	228.45
400.58	228.50
400.95	228.51
401.33	228.59
401.70	228.74
402.08	228.83
402.45	228.91
402.83	229.01
403.20	229.12
403.58	229.21
403.95	229.35
404.33	229.50
404.71	229.63
405.08	229.83
405.46	229.98
405.83	230.16
406.21	230.36
406.58	230.57
406.96	230.76
407.33	231.00
407.70	231.26
408.08	231.64
408.45	231.96
408.83	232.30
409.20	232.61
409.58	232.89
409.95	233.28
410.33	233.70
410.70	234.10
411.08	234.57
411.45	235.07
411.82	235.56
412.20	236.13
412.57	236.81
412.95	237.34
413.32	238.04
413.69	238.76
414.07	239.51
414.44	240.34
414.82	241.19
415.19	242.18
415.56	243.18
415.94	244.21
416.31	245.38
416.68	246.55
417.06	247.92
417.43	249.19
417.81	250.66
418.18	252.14
418.55	253.77
418.93	255.46
419.30	257.22
419.67	259.10
420.04	261.02
420.42	263.03
420.79	265.34
421.16	267.67
421.54	270.06
421.91	272.54
422.28	275.12
422.66	277.90
423.03	280.56
423.40	283.35
423.77	286.32
424.15	289.37
424.52	292.55
424.89	296.00
425.26	299.43
425.64	302.61
426.01	306.20
426.38	309.87
426.75	313.63
427.13	317.53
427.50	321.58
427.87	325.80
428.24	330.07
428.61	334.19
428.99	338.64
429.36	343.50
429.73	348.17
430.10	352.83
430.47	357.60
430.85	362.53
431.22	367.82
431.59	373.27
431.96	378.57
432.33	384.44
432.70	390.05
433.08	396.66
433.45	402.91
433.82	409.08
434.19	415.98
434.56	422.79
434.93	429.34
435.30	435.84
435.68	443.18
436.05	450.36
436.42	457.51
436.79	464.01
437.16	471.05
437.53	478.58
437.90	486.10
438.27	493.45
438.64	501.38
439.01	508.57
439.38	515.11
439.75	521.45
440.13	528.58
440.50	535.33
440.87	540.68
441.24	546.54
441.61	552.92
441.98	557.51
442.35	562.99
442.72	568.58
443.09	573.84
443.46	577.14
443.83	579.52
444.20	581.44
444.57	584.40
444.94	585.98
445.31	587.62
445.68	588.99
446.05	589.90
446.42	589.28
446.79	588.49
447.16	587.78
447.53	587.08
447.90	584.55
448.27	582.10
448.64	578.54
449.01	576.00
449.37	571.18
449.74	566.80
450.11	561.24
450.48	555.16
450.85	549.13
451.22	543.92
451.59	538.86
451.96	534.29
452.33	527.72
452.70	521.90
453.07	514.83
453.43	507.79
453.80	500.99
454.17	494.50
454.54	488.51
454.91	481.78
455.28	475.49
455.65	469.53
456.02	463.30
456.38	458.27
456.75	451.79
457.12	446.59
457.49	441.35
457.86	436.41
458.23	432.11
458.59	427.35
458.96	422.47
459.33	418.18
459.70	413.83
460.07	410.53
460.43	406.64
460.80	403.03
461.17	399.89
461.54	396.47
461.91	393.29
462.27	390.06
462.64	387.45
463.01	384.44
463.38	381.42
463.74	378.66
464.11	376.24
464.48	374.09
464.85	371.74
465.21	369.97
465.58	367.98
465.95	365.68
466.32	363.86
466.68	362.09
467.05	360.30
467.42	358.54
467.78	356.63
468.15	354.89
468.52	353.61
468.88	351.88
469.25	350.32
469.62	349.07
469.98	347.71
470.35	346.52
470.72	345.43
471.08	344.32
471.45	343.39
471.82	342.35
472.18	341.23
472.55	340.52
472.92	339.61
473.28	338.91
473.65	338.16
474.02	337.45
474.38	336.84
474.75	336.48
475.11	335.99
475.48	335.78
475.85	335.53
476.21	335.41
476.58	335.32
476.94	335.46
477.31	335.53
477.67	335.61
478.04	335.81
478.41	336.09
478.77	336.49
479.14	336.76
479.50	337.25
479.87	337.89
480.23	338.53
480.60	339.17
480.96	339.80
481.33	340.75
481.69	341.69
482.06	342.62
482.42	343.49
482.79	344.56
483.15	345.80
483.52	347.21
483.88	348.57
484.25	350.02
484.61	351.52
484.98	353.14
485.34	354.99
485.71	356.90
486.07	358.95
486.44	360.99
486.80	363.28
487.17	365.66
487.53	368.24
487.90	370.95
488.26	373.90
488.62	377.03
488.99	380.13
489.35	383.44
489.72	387.00
490.08	390.76
490.44	394.62
490.81	398.64
491.17	402.77
491.54	407.19
491.90	411.80
492.26	416.70
492.63	421.85
492.99	427.20
493.36	432.75
493.72	438.60
494.08	444.58
494.45	450.93
494.81	457.53
495.17	464.32
495.54	471.48
495.90	478.93
496.26	486.55
496.63	494.44
496.99	502.61
497.35	511.18
497.72	520.01
498.08	529.08
498.44	538.45
498.80	548.38
499.17	558.58
499.53	569.05
499.89	579.92
500.26	590.99
500.62	602.37
500.98	614.35
501.34	626.52
501.71	639.20
502.07	652.07
502.43	665.49
502.79	679.09
503.16	693.15
503.52	707.46
503.88	722.16
504.24	737.31
504.60	752.65
504.97	768.52
505.33	784.79
505.69	801.94
506.05	819.39
506.41	836.76
506.78	854.37
507.14	872.50
507.50	891.10
507.86	910.04
508.22	929.21
508.59	948.20
508.95	968.06
509.31	988.65
509.67	1009.89
510.03	1031.10
510.39	1052.44
510.75	1074.05
511.12	1095.91
511.48	1117.88
511.84	1139.98
512.20	1162.53
512.56	1185.85
512.92	1209.19
513.28	1232.21
513.64	1255.57
514.00	1279.34
514.37	1303.38
514.73	1327.48
515.09	1351.47
515.45	1375.82
515.81	1400.33
516.17	1425.07
516.53	1449.20
516.89	1473.28
517.25	1497.63
517.61	1521.93
517.97	1546.70
518.33	1570.93
518.69	1595.09
519.05	1619.88
519.41	1644.89
519.77	1669.97
520.13	1694.48
520.49	1718.96
520.85	1743.84
521.21	1768.14
521.57	1792.94
521.93	1817.26
522.29	1842.05
522.65	1866.43
523.01	1890.74
523.37	1914.69
523.73	1939.31
524.09	1963.77
524.45	1988.00
524.81	2011.82
525.17	2035.52
525.53	2058.59
525.89	2082.11
526.25	2105.66
526.61	2128.23
526.97	2151.02
527.33	2173.86
527.68	2196.27
528.04	2217.95
528.40	2238.65
528.76	2259.86
529.12	2280.42
529.48	2300.60
529.84	2319.12
530.20	2338.25
530.56	2356.81
530.91	2375.57
531.27	2393.95
531.63	2411.56
531.99	2428.77
532.35	2445.34
532.71	2461.88
533.07	2479.15
533.42	2494.73
533.78	2511.28
534.14	2528.00
534.50	2543.59
534.86	2559.08
535.21	2572.70
535.57	2586.81
535.93	2600.69
536.29	2613.35
536.65	2626.08
537.00	2638.13
537.36	2651.06
537.72	2662.38
538.08	2673.32
538.44	2683.58
538.79	2693.45
539.15	2702.46
539.51	2711.07
539.87	2718.92
540.22	2725.07
540.58	2731.31
540.94	2738.73
541.29	2744.40
541.65	2748.34
542.01	2751.77
542.37	2754.44
542.72	2758.43
543.08	2760.77
543.44	2763.64
543.79	2765.44
544.15	2766.29
544.51	2767.65
544.87	2767.82
545.22	2767.27
545.58	2766.04
545.94	2764.89
546.29	2762.39
546.65	2759.90
547.01	2757.42
547.36	2755.70
547.72	2753.76
548.07	2750.22
548.43	2745.11
548.79	2739.25
549.14	2734.65
549.50	2730.12
549.86	2724.74
550.21	2718.25
550.57	2712.67
550.92	2704.80
551.28	2697.59
551.64	2690.60
551.99	2683.04
552.35	2674.96
552.70	2667.17
553.06	2659.70
553.41	2651.48
553.77	2643.04
554.13	2634.43
554.48	2624.92
554.84	2614.27
555.19	2604.37
555.55	2594.31
555.90	2584.32
556.26	2574.78
556.61	2564.06
556.97	2551.84
557.32	2540.14
557.68	2528.26
558.03	2516.22
558.39	2505.33
558.74	2494.66
559.10	2482.30
559.45	2470.30
559.81	2458.81
560.16	2446.63
560.52	2434.61
560.87	2422.94
561.23	2410.44
561.58	2398.26
561.94	2385.57
562.29	2372.30
562.64	2359.72
563.00	2346.77
563.35	2334.42
563.71	2321.71
564.06	2308.93
564.42	2296.82
564.77	2284.02
565.12	2271.25
565.48	2258.39
565.83	2245.59
566.19	2232.81
566.54	2220.06
566.89	2206.00
567.25	2192.23
567.60	2179.69
567.96	2166.35
568.31	2151.67
568.66	2137.81
569.02	2124.86
569.37	2111.96
569.72	2099.63
570.08	2085.92
570.43	2071.93
570.78	2057.57
571.14	2042.64
571.49	2028.42
571.84	2014.76
572.20	1999.76
572.55	1985.14
572.90	1970.23
573.26	1955.32
573.61	1939.94
573.96	1924.90
574.31	1910.27
574.67	1895.49
575.02	1879.89
575.37	1864.29
575.72	1849.55
576.08	1835.05
576.43	1819.43
576.78	1804.24
577.13	1789.33
577.49	1774.81
577.84	1760.87
578.19	1745.92
578.54	1731.25
578.90	1716.06
579.25	1700.74
579.60	1687.07
579.95	1673.12
580.30	1659.09
580.66	1644.82
581.01	1630.41
581.36	1616.10
581.71	1602.79
582.06	1589.26
582.42	1575.99
582.77	1562.72
583.12	1549.37
583.47	1535.93
583.82	1522.62
584.17	1508.97
584.53	1494.93
584.88	1481.21
585.23	1467.04
585.58	1453.85
585.93	1440.88
586.28	1428.62
586.63	1416.36
586.98	1403.56
587.34	1390.83
587.69	1377.83
588.04	1365.18
588.39	1352.96
588.74	1340.80
589.09	1328.42
589.44	1315.69
589.79	1303.58
590.14	1291.58
590.49	1279.55
590.84	1267.64
591.19	1256.17
591.54	1244.47
591.89	1232.92
592.25	1221.52
592.60	1209.82
592.95	1198.50
593.30	1187.29
593.65	1175.78
594.00	1164.36
594.35	1153.62
594.70	1142.47
595.05	1132.22
595.40	1121.85
595.75	1111.28
596.10	1101.30
596.45	1090.95
596.80	1080.94
597.15	1070.73
597.50	1060.65
597.85	1050.94
598.19	1041.11
598.54	1031.31
598.89	1021.95
599.24	1012.96
599.59	1003.84
599.94	995.64
600.29	987.15
600.64	978.40
600.99	969.30
601.34	960.59
601.69	951.52
602.04	943.13
602.39	934.60
602.74	926.03
603.08	917.49
603.43	908.88
603.78	900.47
604.13	892.28
604.48	884.03
604.83	876.00
605.18	867.83
605.53	859.84
605.87	851.62
606.22	843.82
606.57	835.88
606.92	827.82
607.27	819.68
607.62	811.95
607.96	804.63
608.31	797.74
608.66	790.66
609.01	783.86
609.36	777.20
609.70	770.23
610.05	763.30
610.40	756.61
610.75	749.95
611.10	743.59
611.44	737.09
611.79	730.67
612.14	724.17
612.49	717.83
612.83	711.76
613.18	705.82
613.53	699.73
613.88	693.76
614.22	688.23
614.57	682.58
614.92	676.73
615.27	671.04
615.61	665.38
615.96	659.80
616.31	654.20
616.65	648.65
617.00	643.39
617.35	638.21
617.70	633.11
618.04	628.00
618.39	622.88
618.74	618.00
619.08	613.16
619.43	608.43
619.78	603.74
620.12	598.97
620.47	594.41
620.82	589.95
621.16	585.44
621.51	580.81
621.85	576.29
622.20	571.98
622.55	567.65
622.89	563.40
623.24	559.14
623.59	554.97
623.93	550.94
624.28	546.96
624.62	543.11
624.97	539.25
625.32	535.44
625.66	531.53
626.01	527.60
626.35	523.77
626.70	519.98
627.04	516.34
627.39	512.69
627.73	509.20
628.08	505.79
628.43	502.40
628.77	499.11
629.12	495.89
629.46	492.65
629.81	489.37
630.15	486.11
630.50	482.95
630.84	479.82
631.19	476.76
631.53	473.80
631.88	470.81
632.22	467.85
632.57	465.19
632.91	462.55
633.26	460.01
633.60	457.46
633.95	455.00
634.29	452.45
634.64	449.96
634.98	447.25
635.32	444.73
635.67	442.38
636.01	439.94
636.36	437.59
636.70	435.41
637.05	433.18
637.39	430.98
637.73	428.81
638.08	426.76
638.42	424.66
638.77	422.46
639.11	420.19
639.45	418.02
639.80	415.76
640.14	413.64
640.49	411.48
640.83	409.30
641.17	407.20
641.52	405.13
641.86	403.11
642.20	401.32
642.55	399.34
642.89	397.41
643.23	395.57
643.58	393.89
643.92	392.07
644.26	390.31
644.61	388.62
644.95	386.87
645.29	385.07
645.64	383.29
645.98	381.58
646.32	380.01
646.66	378.42
647.01	376.86
647.35	375.34
647.69	373.80
648.04	372.43
648.38	370.94
648.72	369.51
649.06	368.06
649.41	366.62
649.75	365.23
650.09	363.86
650.43	362.50
650.78	361.06
651.12	359.67
651.46	358.34
651.80	357.04
652.14	355.77
652.49	354.52
652.83	353.29
653.17	352.09
653.51	350.93
653.85	349.81
654.20	348.65
654.54	347.40
654.88	346.26
655.22	345.12
655.56	343.97
655.90	342.88
656.25	341.84
656.59	340.78
656.93	339.79
657.27	338.80
657.61	337.75
657.95	336.74
658.29	335.75
658.64	334.80
658.98	333.84
659.32	332.91
659.66	332.03
660.00	331.16
660.34	330.28
660.68	329.36
661.02	328.40
661.36	327.48
661.70	326.62
662.05	325.76
662.39	324.90
662.73	324.14
663.07	323.38
663.41	322.55
663.75	321.73
664.09	320.90
664.43	320.05
664.77	319.29
665.11	318.49
665.45	317.74
665.79	317.01
666.13	316.22
666.47	315.42
666.81	314.62
667.15	313.77
667.49	313.06
667.83	312.39
668.17	311.71
668.51	311.08
668.85	310.46
669.19	309.86
669.53	309.17
669.87	308.47
670.21	307.79
670.55	307.16
670.89	306.59
671.23	305.99
671.57	305.41
671.91	304.86
672.25	304.32
672.58	303.79
672.92	303.17
673.26	302.65
673.60	302.15
673.94	301.63
674.28	301.17
674.62	300.66
674.96	300.10
675.30	299.59
675.64	299.03
675.97	298.48
676.31	297.91
676.65	297.39
676.99	296.92
677.33	296.37
677.67	295.88
678.01	295.31
678.34	294.82
678.68	294.35
679.02	293.80
679.36	293.28
679.70	292.75
680.04	292.27
680.37	291.77
680.71	291.30
681.05	290.85
681.39	290.35
681.73	289.83
682.06	289.32
682.40	288.85
682.74	288.43
683.08	288.06
683.42	287.62
683.75	287.21
684.09	286.72
684.43	286.29
684.77	285.85
685.10	285.46
685.44	285.04
685.78	284.62
686.12	284.22
686.45	283.82
686.79	283.38
687.13	282.98
687.46	282.54
687.80	282.13
688.14	281.67
688.48	281.28
688.81	280.86
689.15	280.50
689.49	280.09
689.82	279.66
690.16	279.17
690.50	278.77
690.83	278.36
691.17	277.96
691.51	277.56
691.84	277.17
692.18	276.74
692.52	276.31
692.85	275.88
693.19	275.51
693.52	275.11
693.86	274.70
694.20	274.31
694.53	273.95
694.87	273.54
695.21	273.14
695.54	272.75
695.88	272.36
696.21	271.94
696.55	271.56
696.88	271.18
697.22	270.81
697.56	270.42
697.89	269.99
698.23	269.61
698.56	269.21
698.90	268.85
699.23	268.46
699.57	268.09
699.90	267.71
700.24	267.32
700.58	266.98
700.91	266.68
701.25	266.43
701.58	266.13
701.92	265.82
702.25	265.51
702.59	265.14
702.92	264.80
703.26	264.45
703.59	264.10
703.93	263.86
704.26	263.53
704.60	263.20
704.93	262.88
705.26	262.55
705.60	262.27
705.93	261.92
706.27	261.64
706.60	261.37
706.94	261.10
707.27	260.75
707.61	260.44
707.94	260.09
708.27	259.65
708.61	259.28
708.94	258.96
709.28	258.64
709.61	258.34
709.94	258.07
710.28	257.79
710.61	257.54
710.95	257.15
711.28	256.95
711.61	256.66
711.95	256.42
712.28	256.13
712.61	255.82
712.95	255.62
713.28	255.40
713.61	255.09
713.95	254.78
714.28	254.53
714.61	254.25
714.95	253.98
715.28	253.75
715.61	253.50
715.95	253.27
716.28	253.04
716.61	252.83
716.95	252.56
717.28	252.32
717.61	252.06
717.94	251.83
718.28	251.49
718.61	251.26
718.94	251.00
719.27	250.77
719.61	250.57
719.94	250.30
720.27	250.01
720.60	249.80
720.94	249.59
721.27	249.38
721.60	249.19
721.93	248.98
722.27	248.81
722.60	248.62
722.93	248.39
723.26	248.18
723.59	247.94
723.93	247.75
724.26	247.56
724.59	247.36
724.92	247.18
725.25	247.04
725.59	246.87
725.92	246.72
726.25	246.54
726.58	246.36
726.91	246.18
727.24	246.02
727.57	245.84
727.91	245.64
728.24	245.49
728.57	245.31
728.90	245.16
729.23	244.93
729.56	244.81
729.89	244.65
730.22	244.47
730.55	244.31
730.89	244.15
731.22	243.98
731.55	243.81
731.88	243.65
732.21	243.46
732.54	243.29
732.87	243.13
733.20	243.00
733.53	242.84
733.86	242.70
734.19	242.53
734.52	242.39
734.85	242.33
735.18	242.16
735.51	242.05
735.84	241.90
736.17	241.79
736.50	241.59
736.83	241.59
737.16	241.47
737.49	241.33
737.82	241.20
738.15	241.09
738.48	240.97
738.81	240.83
739.14	240.70
739.47	240.55
739.80	240.41
740.13	240.29
740.46	240.14
740.79	239.99
741.12	239.87
741.45	239.72
741.78	239.52
742.11	239.44
742.44	239.28
742.77	239.18
743.10	239.04
743.43	238.91
743.75	238.67
744.08	238.74
744.41	238.62
744.74	238.49
745.07	238.35
745.40	238.27
745.73	238.21
746.06	238.11
746.39	238.03
746.71	237.92
747.04	237.80
747.37	237.69
747.70	237.62
748.03	237.52
748.36	237.46
748.68	237.36
749.01	237.23
749.34	237.14
749.67	237.05
750.00	236.98
750.33	236.98
750.65	236.89
750.98	236.60
751.31	236.52
751.64	236.44
751.97	236.41
752.29	236.29
752.62	236.14
752.95	236.04
753.28	235.92
753.60	235.83
753.93	235.76
754.26	235.69
754.59	235.55
754.91	235.44
755.24	235.33
755.57	235.31
755.90	235.22
756.22	235.13
756.55	235.01
756.88	234.90
757.20	234.74
757.53	234.62
757.86	234.54
758.19	234.47
758.51	234.38
758.84	234.25
759.17	234.16
759.49	234.10
759.82	234.09
760.15	234.02
760.47	233.95
760.80	233.85
761.13	233.80
761.45	233.74
761.78	233.69
762.11	233.62
762.43	233.48
762.76	233.40
763.08	233.35
763.41	233.31
763.74	233.24
764.06	233.18
764.39	233.12
764.71	233.06
765.04	232.98
765.37	232.91
765.69	232.86
766.02	232.80
766.34	232.73
766.67	232.63
767.00	232.61
767.32	232.62
767.65	232.64
767.97	232.58
768.30	232.53
768.62	232.47
768.95	232.41
769.27	232.35
769.60	232.31
769.92	232.24
770.25	232.17
770.57	232.10
770.90	232.04
771.22	231.99
771.55	231.94
771.87	231.89
772.20	231.85
772.52	231.91
772.85	232.01
773.17	231.97
773.50	231.91
773.82	231.83
774.15	231.73
774.47	231.61
774.80	231.55
775.12	231.51
775.45	231.47
775.77	231.44
776.09	231.42
776.42	231.39
776.74	231.40
777.07	231.36
777.39	231.33
777.72	231.30
778.04	231.28
778.36	231.24
778.69	231.21
779.01	231.19
779.33	231.05
779.66	230.88
779.98	230.84
780.31	230.82
780.63	230.84
780.95	230.83
781.28	230.80
781.60	230.77
781.92	230.74
782.25	230.72
782.57	230.68
782.89	230.65
783.22	230.61
783.54	230.55
783.86	230.54
784.19	230.51
784.51	230.51
784.83	230.48
785.16	230.44
785.48	230.42
785.80	230.39
786.12	230.37
786.45	230.36
786.77	230.34
787.09	230.30
787.42	230.24
787.74	230.22
788.06	230.19
788.38	230.16
788.71	230.13
789.03	230.11
789.35	230.11
789.67	230.07
789.99	230.05
790.32	230.03
790.64	230.01
790.96	230.11
791.28	230.05
791.61	230.02
791.93	230.01
792.25	229.99
792.57	230.06
792.89	230.03
793.21	230.00
793.54	229.98
793.86	229.95
794.18	229.93
794.50	229.88
794.82	229.87
795.14	229.87
795.47	229.87
795.79	229.85
796.11	229.80
796.43	229.78
796.75	229.76
797.07	229.75
797.39	229.73
797.71	229.59
798.04	229.58
798.36	229.57
798.68	229.56
799.00	229.55
799.32	229.47
799.64	229.48
799.96	229.46
800.28	229.47
800.60	229.45
800.92	229.44
801.24	229.42
801.56	229.42
801.89	229.39
802.21	229.38
802.53	229.34
802.85	229.36
803.17	229.41
803.49	229.36
803.81	229.35
804.13	229.32
804.45	229.30
804.77	229.31
805.09	229.29
805.41	229.26
805.73	229.22
806.05	229.17
806.37	229.14
806.69	229.11
807.01	229.09
807.33	229.09
807.65	229.03
807.97	229.08
808.28	229.05
808.60	229.04
808.92	229.02
809.24	229.08
809.56	229.04
809.88	228.99
810.20	228.98
810.52	228.99
810.84	228.96
811.16	228.94
811.48	228.91
811.80	228.95
812.12	228.93
812.43	228.94
812.75	228.94
813.07	228.92
813.39	228.92
813.71	228.89
814.03	228.86
814.35	228.87
814.67	228.80
814.98	228.78
815.30	228.77
815.62	228.73
815.94	228.64
816.26	228.64
816.58	228.61
816.89	228.60
817.21	228.56
817.53	228.57
817.85	228.56
818.17	228.55
818.48	228.49
