SpectraSuite Data File
++++++++++++++++++++++++++++++++++++
Date: Fri Oct 02 20:53:12 EDT 2015
User: lab3
Dark Spectrum Present: No
Reference Spectrum Present: No
Number of Sampled Component Spectra: 1
Spectrometers: USB2E7196
Integration Time (usec): 46000 (USB2E7196)
Spectra Averaged: 6000 (USB2E7196)
Boxcar Smoothing: 10 (USB2E7196)
Correct for Electrical Dark: No (USB2E7196)
Strobe/Lamp Enabled: No (USB2E7196)
Correct for Detector Non-linearity: No (USB2E7196)
Correct for Stray Light: No (USB2E7196)
Number of Pixels in Processed Spectrum: 2048
>>>>>Begin Processed Spectral Data<<<<<
339.09	0.00
339.48	215.57
339.86	217.03
340.24	218.38
340.63	219.84
341.01	223.10
341.39	222.45
341.78	223.84
342.16	225.14
342.54	225.50
342.93	213.90
343.31	224.71
343.69	225.24
344.07	225.70
344.46	226.13
344.84	226.52
345.22	226.74
345.60	227.00
345.99	227.19
346.37	227.33
346.75	227.44
347.13	227.51
347.52	227.58
347.90	227.68
348.28	227.71
348.66	227.77
349.05	227.76
349.43	227.82
349.81	227.87
350.19	227.93
350.57	228.00
350.96	228.08
351.34	228.17
351.72	228.26
352.10	228.37
352.48	228.44
352.87	228.49
353.25	228.56
353.63	228.62
354.01	228.68
354.39	228.76
354.77	228.83
355.15	228.94
355.54	228.99
355.92	229.02
356.30	229.10
356.68	229.25
357.06	229.32
357.44	229.37
357.82	229.43
358.20	229.55
358.58	229.60
358.97	229.67
359.35	229.76
359.73	229.85
360.11	229.90
360.49	229.96
360.87	230.01
361.25	230.07
361.63	230.16
362.01	230.21
362.39	230.24
362.77	230.29
363.15	230.32
363.53	230.35
363.91	230.39
364.29	230.40
364.67	230.31
365.05	230.34
365.43	230.38
365.81	230.41
366.19	230.42
366.57	230.48
366.95	230.48
367.33	230.45
367.71	230.44
368.09	230.46
368.47	230.46
368.85	230.45
369.23	230.46
369.61	230.40
369.99	230.42
370.37	230.42
370.75	230.50
371.13	230.47
371.51	230.43
371.89	230.41
372.27	230.39
372.65	230.37
373.03	230.33
373.41	230.28
373.78	230.23
374.16	230.13
374.54	230.04
374.92	229.99
375.30	229.95
375.68	229.88
376.06	229.84
376.44	229.78
376.82	229.74
377.19	229.68
377.57	229.63
377.95	229.54
378.33	229.48
378.71	229.32
379.09	229.27
379.47	229.23
379.84	229.17
380.22	229.10
380.60	229.03
380.98	228.98
381.36	228.93
381.73	228.86
382.11	228.84
382.49	228.81
382.87	228.74
383.25	228.71
383.62	228.81
384.00	228.74
384.38	228.70
384.76	228.68
385.13	228.68
385.51	228.64
385.89	228.58
386.27	228.55
386.64	228.54
387.02	228.49
387.40	228.45
387.78	228.43
388.15	228.40
388.53	228.37
388.91	228.34
389.29	228.30
389.66	228.30
390.04	228.26
390.42	228.25
390.79	228.24
391.17	228.22
391.55	228.06
391.92	228.05
392.30	228.06
392.68	228.01
393.05	227.99
393.43	227.99
393.81	228.00
394.18	227.97
394.56	227.98
394.94	228.00
395.31	228.00
395.69	228.04
396.06	228.07
396.44	228.09
396.82	228.11
397.19	228.20
397.57	228.20
397.95	228.25
398.32	228.24
398.70	228.28
399.07	228.35
399.45	228.38
399.82	228.42
400.20	228.45
400.58	228.51
400.95	228.52
401.33	228.61
401.70	228.76
402.08	228.86
402.45	228.94
402.83	229.06
403.20	229.17
403.58	229.25
403.95	229.39
404.33	229.54
404.71	229.68
405.08	229.88
405.46	230.04
405.83	230.22
406.21	230.42
406.58	230.63
406.96	230.84
407.33	231.09
407.70	231.36
408.08	231.74
408.45	232.06
408.83	232.41
409.20	232.73
409.58	233.01
409.95	233.40
410.33	233.83
410.70	234.23
411.08	234.70
411.45	235.20
411.82	235.71
412.20	236.29
412.57	236.99
412.95	237.52
413.32	238.24
413.69	238.96
414.07	239.73
414.44	240.57
414.82	241.42
415.19	242.42
415.56	243.44
415.94	244.49
416.31	245.67
416.68	246.86
417.06	248.23
417.43	249.52
417.81	251.00
418.18	252.52
418.55	254.17
418.93	255.87
419.30	257.66
419.67	259.56
420.04	261.51
420.42	263.54
420.79	265.89
421.16	268.26
421.54	270.68
421.91	273.20
422.28	275.81
422.66	278.63
423.03	281.33
423.40	284.15
423.77	287.17
424.15	290.26
424.52	293.49
424.89	296.98
425.26	300.45
425.64	303.68
426.01	307.30
426.38	311.01
426.75	314.84
427.13	318.77
427.50	322.88
427.87	327.16
428.24	331.47
428.61	335.62
428.99	340.12
429.36	345.03
429.73	349.75
430.10	354.47
430.47	359.29
430.85	364.26
431.22	369.59
431.59	375.08
431.96	380.44
432.33	386.39
432.70	392.07
433.08	398.76
433.45	405.10
433.82	411.34
434.19	418.31
434.56	425.19
434.93	431.83
435.30	438.40
435.68	445.82
436.05	453.09
436.42	460.32
436.79	466.92
437.16	474.05
437.53	481.68
437.90	489.31
438.27	496.78
438.64	504.83
439.01	512.12
439.38	518.78
439.75	525.20
440.13	532.44
440.50	539.29
440.87	544.72
441.24	550.66
441.61	557.14
441.98	561.83
442.35	567.41
442.72	573.08
443.09	578.46
443.46	581.83
443.83	584.25
444.20	586.23
444.57	589.26
444.94	590.89
445.31	592.57
445.68	593.97
446.05	594.91
446.42	594.31
446.79	593.54
447.16	592.83
447.53	592.15
447.90	589.60
448.27	587.14
448.64	583.55
449.01	580.98
449.37	576.10
449.74	571.67
450.11	566.03
450.48	559.89
450.85	553.76
451.22	548.49
451.59	543.36
451.96	538.72
452.33	532.06
452.70	526.15
453.07	518.98
453.43	511.85
453.80	504.95
454.17	498.34
454.54	492.26
454.91	485.41
455.28	479.02
455.65	472.99
456.02	466.65
456.38	461.54
456.75	454.97
457.12	449.69
457.49	444.38
457.86	439.37
458.23	435.00
458.59	430.17
458.96	425.21
459.33	420.87
459.70	416.45
460.07	413.11
460.43	409.16
460.80	405.48
461.17	402.29
461.54	398.81
461.91	395.59
462.27	392.31
462.64	389.67
463.01	386.60
463.38	383.53
463.74	380.74
464.11	378.29
464.48	376.11
464.85	373.71
465.21	371.92
465.58	369.90
465.95	367.57
466.32	365.73
466.68	363.92
467.05	362.10
467.42	360.32
467.78	358.39
468.15	356.62
468.52	355.34
468.88	353.61
469.25	352.02
469.62	350.77
469.98	349.41
470.35	348.19
470.72	347.08
471.08	345.96
471.45	345.02
471.82	343.97
472.18	342.85
472.55	342.13
472.92	341.22
473.28	340.51
473.65	339.73
474.02	339.00
474.38	338.39
474.75	338.04
475.11	337.55
475.48	337.32
475.85	337.07
476.21	336.94
476.58	336.86
476.94	337.00
477.31	337.07
477.67	337.16
478.04	337.36
478.41	337.65
478.77	338.06
479.14	338.33
479.50	338.81
479.87	339.46
480.23	340.10
480.60	340.74
480.96	341.38
481.33	342.34
481.69	343.29
482.06	344.24
482.42	345.11
482.79	346.18
483.15	347.43
483.52	348.84
483.88	350.21
484.25	351.66
484.61	353.18
484.98	354.82
485.34	356.67
485.71	358.60
486.07	360.67
486.44	362.72
486.80	365.02
487.17	367.42
487.53	370.03
487.90	372.77
488.26	375.74
488.62	378.89
488.99	382.04
489.35	385.37
489.72	388.97
490.08	392.75
490.44	396.66
490.81	400.71
491.17	404.88
491.54	409.36
491.90	414.00
492.26	418.94
492.63	424.13
492.99	429.53
493.36	435.13
493.72	441.03
494.08	447.08
494.45	453.49
494.81	460.16
495.17	467.02
495.54	474.26
495.90	481.78
496.26	489.48
496.63	497.43
496.99	505.69
497.35	514.34
497.72	523.26
498.08	532.39
498.44	541.86
498.80	551.87
499.17	562.14
499.53	572.71
499.89	583.66
500.26	594.82
500.62	606.29
500.98	618.37
501.34	630.63
501.71	643.40
502.07	656.39
502.43	669.89
502.79	683.59
503.16	697.75
503.52	712.13
503.88	726.92
504.24	742.15
504.60	757.61
504.97	773.55
505.33	789.93
505.69	807.19
506.05	824.76
506.41	842.24
506.78	859.95
507.14	878.19
507.50	896.86
507.86	915.89
508.22	935.13
508.59	954.21
508.95	974.16
509.31	994.85
509.67	1016.15
510.03	1037.46
510.39	1058.88
510.75	1080.52
511.12	1102.42
511.48	1124.46
511.84	1146.62
512.20	1169.22
512.56	1192.59
512.92	1215.98
513.28	1239.04
513.64	1262.40
514.00	1286.20
514.37	1310.23
514.73	1334.34
515.09	1358.39
515.45	1382.78
515.81	1407.27
516.17	1431.98
516.53	1456.10
516.89	1480.14
517.25	1504.43
517.61	1528.67
517.97	1553.38
518.33	1577.55
518.69	1601.68
519.05	1626.36
519.41	1651.32
519.77	1676.33
520.13	1700.74
520.49	1725.09
520.85	1749.84
521.21	1773.98
521.57	1798.66
521.93	1822.88
522.29	1847.52
522.65	1871.72
523.01	1895.87
523.37	1919.66
523.73	1944.12
524.09	1968.41
524.45	1992.47
524.81	2016.11
525.17	2039.62
525.53	2062.53
525.89	2085.90
526.25	2109.29
526.61	2131.70
526.97	2154.26
527.33	2176.85
527.68	2199.03
528.04	2220.51
528.40	2240.97
528.76	2261.99
529.12	2282.37
529.48	2302.29
529.84	2320.61
530.20	2339.52
530.56	2357.82
530.91	2376.34
531.27	2394.49
531.63	2411.81
531.99	2428.75
532.35	2445.05
532.71	2461.33
533.07	2478.29
533.42	2493.55
533.78	2509.78
534.14	2526.16
534.50	2541.44
534.86	2556.61
535.21	2569.96
535.57	2583.74
535.93	2597.35
536.29	2609.69
536.65	2622.02
537.00	2633.80
537.36	2646.36
537.72	2657.31
538.08	2667.98
538.44	2677.96
538.79	2687.53
539.15	2696.25
539.51	2704.56
539.87	2712.13
540.22	2718.00
540.58	2723.95
540.94	2731.12
541.29	2736.49
541.65	2740.10
542.01	2743.28
542.37	2745.66
542.72	2749.37
543.08	2751.42
543.44	2753.99
543.79	2755.52
544.15	2756.13
544.51	2757.16
544.87	2757.07
545.22	2756.31
545.58	2754.84
545.94	2753.45
546.29	2750.69
546.65	2747.97
547.01	2745.23
547.36	2743.25
547.72	2741.06
548.07	2737.27
548.43	2731.88
548.79	2725.83
549.14	2721.06
549.50	2716.30
549.86	2710.73
550.21	2704.02
550.57	2698.24
550.92	2690.23
551.28	2682.89
551.64	2675.77
551.99	2668.08
552.35	2659.82
552.70	2651.87
553.06	2644.17
553.41	2635.80
553.77	2627.18
554.13	2618.43
554.48	2608.80
554.84	2598.05
555.19	2588.01
555.55	2577.84
555.90	2567.71
556.26	2558.01
556.61	2547.24
556.97	2534.92
557.32	2523.15
557.68	2511.21
558.03	2499.11
558.39	2488.10
558.74	2477.33
559.10	2464.88
559.45	2452.80
559.81	2441.31
560.16	2429.08
560.52	2417.04
560.87	2405.30
561.23	2392.78
561.58	2380.53
561.94	2367.83
562.29	2354.56
562.64	2341.95
563.00	2329.02
563.35	2316.68
563.71	2304.04
564.06	2291.23
564.42	2279.13
564.77	2266.34
565.12	2253.57
565.48	2240.72
565.83	2227.94
566.19	2215.15
566.54	2202.36
566.89	2188.36
567.25	2174.57
567.60	2162.04
567.96	2148.67
568.31	2134.02
568.66	2120.20
569.02	2107.34
569.37	2094.46
569.72	2082.11
570.08	2068.44
570.43	2054.53
570.78	2040.22
571.14	2025.33
571.49	2011.20
571.84	1997.59
572.20	1982.69
572.55	1968.13
572.90	1953.31
573.26	1938.47
573.61	1923.14
573.96	1908.25
574.31	1893.71
574.67	1879.02
575.02	1863.50
575.37	1848.01
575.72	1833.39
576.08	1818.99
576.43	1803.47
576.78	1788.40
577.13	1773.61
577.49	1759.17
577.84	1745.25
578.19	1730.41
578.54	1715.83
578.90	1700.74
579.25	1685.52
579.60	1671.93
579.95	1658.07
580.30	1644.17
580.66	1630.02
581.01	1615.73
581.36	1601.51
581.71	1588.30
582.06	1574.92
582.42	1561.74
582.77	1548.59
583.12	1535.31
583.47	1522.00
583.82	1508.78
584.17	1495.25
584.53	1481.32
584.88	1467.74
585.23	1453.72
585.58	1440.67
585.93	1427.80
586.28	1415.62
586.63	1403.48
586.98	1390.77
587.34	1378.17
587.69	1365.29
588.04	1352.74
588.39	1340.64
588.74	1328.58
589.09	1316.28
589.44	1303.63
589.79	1291.66
590.14	1279.78
590.49	1267.88
590.84	1256.06
591.19	1244.69
591.54	1233.10
591.89	1221.67
592.25	1210.37
592.60	1198.81
592.95	1187.58
593.30	1176.48
593.65	1165.12
594.00	1153.83
594.35	1143.22
594.70	1132.18
595.05	1122.06
595.40	1111.82
595.75	1101.38
596.10	1091.52
596.45	1081.30
596.80	1071.42
597.15	1061.30
597.50	1051.33
597.85	1041.74
598.19	1032.02
598.54	1022.35
598.89	1013.10
599.24	1004.19
599.59	995.19
599.94	987.07
600.29	978.71
600.64	970.06
600.99	961.02
601.34	952.40
601.69	943.43
602.04	935.14
602.39	926.66
602.74	918.19
603.08	909.74
603.43	901.24
603.78	892.94
604.13	884.83
604.48	876.67
604.83	868.71
605.18	860.64
605.53	852.71
605.87	844.58
606.22	836.86
606.57	829.01
606.92	821.02
607.27	812.96
607.62	805.32
607.96	798.05
608.31	791.26
608.66	784.25
609.01	777.52
609.36	770.89
609.70	763.98
610.05	757.10
610.40	750.46
610.75	743.84
611.10	737.55
611.44	731.10
611.79	724.77
612.14	718.35
612.49	712.06
612.83	706.06
613.18	700.18
613.53	694.16
613.88	688.24
614.22	682.78
614.57	677.16
614.92	671.37
615.27	665.75
615.61	660.14
615.96	654.61
616.31	649.06
616.65	643.60
617.00	638.40
617.35	633.28
617.70	628.21
618.04	623.14
618.39	618.04
618.74	613.21
619.08	608.39
619.43	603.70
619.78	599.04
620.12	594.30
620.47	589.76
620.82	585.33
621.16	580.86
621.51	576.26
621.85	571.78
622.20	567.48
622.55	563.19
622.89	558.96
623.24	554.73
623.59	550.58
623.93	546.59
624.28	542.64
624.62	538.81
624.97	535.00
625.32	531.21
625.66	527.35
626.01	523.43
626.35	519.62
626.70	515.85
627.04	512.22
627.39	508.59
627.73	505.11
628.08	501.71
628.43	498.33
628.77	495.04
629.12	491.84
629.46	488.63
629.81	485.36
630.15	482.10
630.50	478.95
630.84	475.84
631.19	472.78
631.53	469.86
631.88	466.89
632.22	463.94
632.57	461.29
632.91	458.67
633.26	456.13
633.60	453.59
633.95	451.14
634.29	448.59
634.64	446.11
634.98	443.42
635.32	440.91
635.67	438.59
636.01	436.17
636.36	433.83
636.70	431.65
637.05	429.43
637.39	427.23
637.73	425.08
638.08	423.03
638.42	420.94
638.77	418.72
639.11	416.46
639.45	414.29
639.80	412.05
640.14	409.92
640.49	407.77
640.83	405.61
641.17	403.54
641.52	401.50
641.86	399.49
642.20	397.71
642.55	395.75
642.89	393.83
643.23	391.99
643.58	390.32
643.92	388.49
644.26	386.76
644.61	385.07
644.95	383.33
645.29	381.54
645.64	379.77
645.98	378.09
646.32	376.52
646.66	374.93
647.01	373.37
647.35	371.86
647.69	370.34
648.04	368.96
648.38	367.48
648.72	366.03
649.06	364.59
649.41	363.16
649.75	361.77
650.09	360.39
650.43	359.04
650.78	357.62
651.12	356.24
651.46	354.91
651.80	353.61
652.14	352.35
652.49	351.13
652.83	349.90
653.17	348.70
653.51	347.54
653.85	346.44
654.20	345.28
654.54	344.06
654.88	342.91
655.22	341.79
655.56	340.67
655.90	339.60
656.25	338.56
656.59	337.51
656.93	336.52
657.27	335.56
657.61	334.51
657.95	333.51
658.29	332.51
658.64	331.58
658.98	330.63
659.32	329.70
659.66	328.82
660.00	327.96
660.34	327.09
660.68	326.18
661.02	325.23
661.36	324.33
661.70	323.46
662.05	322.62
662.39	321.78
662.73	321.02
663.07	320.26
663.41	319.46
663.75	318.66
664.09	317.86
664.43	317.02
664.77	316.28
665.11	315.49
665.45	314.77
665.79	314.05
666.13	313.27
666.47	312.50
666.81	311.72
667.15	310.90
667.49	310.21
667.83	309.57
668.17	308.91
668.51	308.29
668.85	307.69
669.19	307.12
669.53	306.45
669.87	305.77
670.21	305.12
670.55	304.50
670.89	303.95
671.23	303.36
671.57	302.79
671.91	302.27
672.25	301.76
672.58	301.23
672.92	300.63
673.26	300.15
673.60	299.65
673.94	299.16
674.28	298.71
674.62	298.21
674.96	297.65
675.30	297.16
675.64	296.63
675.97	296.10
676.31	295.55
676.65	295.04
676.99	294.59
677.33	294.06
677.67	293.58
678.01	293.03
678.34	292.56
678.68	292.11
679.02	291.59
679.36	291.09
679.70	290.59
680.04	290.13
680.37	289.66
680.71	289.21
681.05	288.77
681.39	288.29
681.73	287.78
682.06	287.30
682.40	286.85
682.74	286.45
683.08	286.08
683.42	285.65
683.75	285.26
684.09	284.79
684.43	284.39
684.77	283.97
685.10	283.60
685.44	283.20
685.78	282.80
686.12	282.42
686.45	282.03
686.79	281.61
687.13	281.23
687.46	280.80
687.80	280.41
688.14	279.97
688.48	279.60
688.81	279.21
689.15	278.87
689.49	278.46
689.82	278.05
690.16	277.59
690.50	277.20
690.83	276.80
691.17	276.41
691.51	276.02
691.84	275.65
692.18	275.24
692.52	274.82
692.85	274.43
693.19	274.08
693.52	273.69
693.86	273.31
694.20	272.93
694.53	272.58
694.87	272.18
695.21	271.80
695.54	271.43
695.88	271.05
696.21	270.65
696.55	270.29
696.88	269.93
697.22	269.57
697.56	269.20
697.89	268.80
698.23	268.44
698.56	268.06
698.90	267.70
699.23	267.32
699.57	266.96
699.90	266.60
700.24	266.21
700.58	265.89
700.91	265.60
701.25	265.37
701.58	265.08
701.92	264.79
702.25	264.48
702.59	264.14
702.92	263.81
703.26	263.48
703.59	263.14
703.93	262.91
704.26	262.61
704.60	262.28
704.93	261.97
705.26	261.64
705.60	261.37
705.93	261.03
706.27	260.77
706.60	260.51
706.94	260.25
707.27	259.92
707.61	259.60
707.94	259.26
708.27	258.83
708.61	258.48
708.94	258.15
709.28	257.85
709.61	257.56
709.94	257.30
710.28	257.04
710.61	256.80
710.95	256.42
711.28	256.22
711.61	255.95
711.95	255.72
712.28	255.45
712.61	255.16
712.95	254.99
713.28	254.79
713.61	254.49
713.95	254.19
714.28	253.95
714.61	253.69
714.95	253.45
715.28	253.21
715.61	252.98
715.95	252.75
716.28	252.53
716.61	252.33
716.95	252.08
717.28	251.84
717.61	251.59
717.94	251.37
718.28	251.05
718.61	250.82
718.94	250.58
719.27	250.36
719.61	250.16
719.94	249.90
720.27	249.61
720.60	249.40
720.94	249.20
721.27	249.00
721.60	248.83
721.93	248.61
722.27	248.44
722.60	248.25
722.93	248.03
723.26	247.83
723.59	247.59
723.93	247.41
724.26	247.22
724.59	247.02
724.92	246.84
725.25	246.71
725.59	246.53
725.92	246.37
726.25	246.19
726.58	246.01
726.91	245.84
727.24	245.68
727.57	245.51
727.91	245.32
728.24	245.17
728.57	244.99
728.90	244.84
729.23	244.63
729.56	244.52
729.89	244.36
730.22	244.18
730.55	244.03
730.89	243.87
731.22	243.71
731.55	243.56
731.88	243.39
732.21	243.21
732.54	243.05
732.87	242.90
733.20	242.76
733.53	242.61
733.86	242.46
734.19	242.29
734.52	242.16
734.85	242.10
735.18	241.92
735.51	241.82
735.84	241.68
736.17	241.58
736.50	241.38
736.83	241.39
737.16	241.26
737.49	241.14
737.82	241.00
738.15	240.88
738.48	240.76
738.81	240.63
739.14	240.49
739.47	240.35
739.80	240.21
740.13	240.09
740.46	239.95
740.79	239.81
741.12	239.69
741.45	239.54
741.78	239.35
742.11	239.26
742.44	239.11
742.77	239.00
743.10	238.87
743.43	238.75
743.75	238.50
744.08	238.58
744.41	238.46
744.74	238.34
745.07	238.20
745.40	238.12
745.73	238.06
746.06	237.96
746.39	237.88
746.71	237.77
747.04	237.66
747.37	237.56
747.70	237.48
748.03	237.39
748.36	237.32
748.68	237.22
749.01	237.09
749.34	236.99
749.67	236.90
750.00	236.82
750.33	236.83
750.65	236.74
750.98	236.46
751.31	236.38
751.64	236.30
751.97	236.28
752.29	236.18
752.62	236.03
752.95	235.94
753.28	235.83
753.60	235.74
753.93	235.67
754.26	235.60
754.59	235.47
754.91	235.37
755.24	235.27
755.57	235.24
755.90	235.15
756.22	235.06
756.55	234.95
756.88	234.84
757.20	234.68
757.53	234.56
757.86	234.48
758.19	234.40
758.51	234.32
758.84	234.18
759.17	234.09
759.49	234.03
759.82	234.02
760.15	233.96
760.47	233.88
760.80	233.78
761.13	233.73
761.45	233.66
761.78	233.60
762.11	233.54
762.43	233.41
762.76	233.35
763.08	233.30
763.41	233.25
763.74	233.19
764.06	233.13
764.39	233.08
764.71	233.02
765.04	232.94
765.37	232.88
765.69	232.82
766.02	232.77
766.34	232.70
766.67	232.60
767.00	232.57
767.32	232.59
767.65	232.62
767.97	232.55
768.30	232.51
768.62	232.46
768.95	232.39
769.27	232.34
769.60	232.30
769.92	232.23
770.25	232.16
770.57	232.09
770.90	232.04
771.22	231.98
771.55	231.94
771.87	231.91
772.20	231.86
772.52	231.93
772.85	232.03
773.17	231.99
773.50	231.94
773.82	231.88
774.15	231.77
774.47	231.65
774.80	231.60
775.12	231.55
775.45	231.52
775.77	231.49
776.09	231.46
776.42	231.42
776.74	231.43
777.07	231.39
777.39	231.37
777.72	231.33
778.04	231.31
778.36	231.27
778.69	231.23
779.01	231.21
779.33	231.07
779.66	230.89
779.98	230.86
780.31	230.84
780.63	230.85
780.95	230.84
781.28	230.81
781.60	230.77
781.92	230.74
782.25	230.72
782.57	230.69
782.89	230.65
783.22	230.61
783.54	230.55
783.86	230.54
784.19	230.50
784.51	230.51
784.83	230.47
785.16	230.44
785.48	230.42
785.80	230.39
786.12	230.38
786.45	230.35
786.77	230.33
787.09	230.30
787.42	230.22
787.74	230.20
788.06	230.18
788.38	230.16
788.71	230.13
789.03	230.11
789.35	230.10
789.67	230.07
789.99	230.06
790.32	230.03
790.64	230.02
790.96	230.11
791.28	230.05
791.61	230.02
791.93	230.01
792.25	229.98
792.57	230.05
792.89	230.01
793.21	230.00
793.54	229.97
793.86	229.94
794.18	229.94
794.50	229.89
794.82	229.87
795.14	229.87
795.47	229.88
795.79	229.85
796.11	229.81
796.43	229.79
796.75	229.77
797.07	229.76
797.39	229.73
797.71	229.62
798.04	229.61
798.36	229.60
798.68	229.58
799.00	229.57
799.32	229.50
799.64	229.51
799.96	229.49
800.28	229.50
800.60	229.48
800.92	229.47
801.24	229.45
801.56	229.45
801.89	229.42
802.21	229.41
802.53	229.37
802.85	229.39
803.17	229.43
803.49	229.39
803.81	229.37
804.13	229.35
804.45	229.32
804.77	229.31
805.09	229.30
805.41	229.28
805.73	229.24
806.05	229.19
806.37	229.16
806.69	229.13
807.01	229.10
807.33	229.10
807.65	229.04
807.97	229.08
808.28	229.05
808.60	229.04
808.92	229.01
809.24	229.08
809.56	229.04
809.88	228.99
810.20	228.98
810.52	228.99
810.84	228.97
811.16	228.94
811.48	228.92
811.80	228.95
812.12	228.93
812.43	228.94
812.75	228.95
813.07	228.93
813.39	228.93
813.71	228.90
814.03	228.88
814.35	228.88
814.67	228.82
814.98	228.81
815.30	228.79
815.62	228.77
815.94	228.67
816.26	228.68
816.58	228.64
816.89	228.64
817.21	228.61
817.53	228.61
817.85	228.61
818.17	228.60
818.48	228.54
