SpectraSuite Data File
++++++++++++++++++++++++++++++++++++
Date: Fri Oct 02 15:45:34 EDT 2015
User: lab3
Dark Spectrum Present: No
Reference Spectrum Present: No
Number of Sampled Component Spectra: 1
Spectrometers: USB2E7196
Integration Time (usec): 46000 (USB2E7196)
Spectra Averaged: 1200 (USB2E7196)
Boxcar Smoothing: 10 (USB2E7196)
Correct for Electrical Dark: No (USB2E7196)
Strobe/Lamp Enabled: No (USB2E7196)
Correct for Detector Non-linearity: No (USB2E7196)
Correct for Stray Light: No (USB2E7196)
Number of Pixels in Processed Spectrum: 2048
>>>>>Begin Processed Spectral Data<<<<<
339.09	0.00
339.48	213.78
339.86	215.09
340.24	216.47
340.63	218.03
341.01	221.26
341.39	220.72
341.78	222.18
342.16	223.31
342.54	223.58
342.93	212.17
343.31	222.89
343.69	223.42
344.07	223.89
344.46	224.33
344.84	224.72
345.22	224.94
345.60	225.21
345.99	225.40
346.37	225.54
346.75	225.65
347.13	225.72
347.52	225.79
347.90	225.89
348.28	225.92
348.66	225.99
349.05	225.99
349.43	226.04
349.81	226.11
350.19	226.17
350.57	226.24
350.96	226.32
351.34	226.43
351.72	226.52
352.10	226.63
352.48	226.70
352.87	226.75
353.25	226.82
353.63	226.88
354.01	226.94
354.39	227.02
354.77	227.11
355.15	227.23
355.54	227.28
355.92	227.31
356.30	227.39
356.68	227.54
357.06	227.62
357.44	227.67
357.82	227.72
358.20	227.84
358.58	227.89
358.97	227.96
359.35	228.04
359.73	228.12
360.11	228.16
360.49	228.22
360.87	228.27
361.25	228.34
361.63	228.43
362.01	228.47
362.39	228.49
362.77	228.52
363.15	228.55
363.53	228.59
363.91	228.63
364.29	228.65
364.67	228.55
365.05	228.56
365.43	228.59
365.81	228.61
366.19	228.63
366.57	228.69
366.95	228.68
367.33	228.66
367.71	228.64
368.09	228.66
368.47	228.66
368.85	228.63
369.23	228.64
369.61	228.57
369.99	228.60
370.37	228.60
370.75	228.68
371.13	228.64
371.51	228.58
371.89	228.55
372.27	228.52
372.65	228.50
373.03	228.45
373.41	228.41
373.78	228.36
374.16	228.25
374.54	228.16
374.92	228.10
375.30	228.06
375.68	228.00
376.06	227.95
376.44	227.89
376.82	227.86
377.19	227.80
377.57	227.74
377.95	227.64
378.33	227.58
378.71	227.41
379.09	227.36
379.47	227.34
379.84	227.27
380.22	227.21
380.60	227.13
380.98	227.08
381.36	227.04
381.73	226.97
382.11	226.95
382.49	226.90
382.87	226.85
383.25	226.82
383.62	226.93
384.00	226.86
384.38	226.82
384.76	226.80
385.13	226.80
385.51	226.77
385.89	226.72
386.27	226.69
386.64	226.67
387.02	226.62
387.40	226.57
387.78	226.54
388.15	226.51
388.53	226.48
388.91	226.46
389.29	226.43
389.66	226.42
390.04	226.38
390.42	226.38
390.79	226.36
391.17	226.34
391.55	226.18
391.92	226.16
392.30	226.17
392.68	226.13
393.05	226.11
393.43	226.11
393.81	226.12
394.18	226.11
394.56	226.10
394.94	226.14
395.31	226.14
395.69	226.19
396.06	226.23
396.44	226.25
396.82	226.26
397.19	226.34
397.57	226.37
397.95	226.42
398.32	226.42
398.70	226.47
399.07	226.53
399.45	226.56
399.82	226.62
400.20	226.65
400.58	226.72
400.95	226.73
401.33	226.81
401.70	226.97
402.08	227.07
402.45	227.16
402.83	227.28
403.20	227.39
403.58	227.49
403.95	227.63
404.33	227.77
404.71	227.92
405.08	228.12
405.46	228.27
405.83	228.45
406.21	228.65
406.58	228.86
406.96	229.08
407.33	229.33
407.70	229.59
408.08	229.97
408.45	230.30
408.83	230.66
409.20	230.99
409.58	231.28
409.95	231.68
410.33	232.13
410.70	232.52
411.08	233.01
411.45	233.51
411.82	234.03
412.20	234.63
412.57	235.35
412.95	235.90
413.32	236.64
413.69	237.39
414.07	238.18
414.44	239.04
414.82	239.90
415.19	240.93
415.56	241.99
415.94	243.07
416.31	244.28
416.68	245.50
417.06	246.90
417.43	248.22
417.81	249.74
418.18	251.28
418.55	252.98
418.93	254.74
419.30	256.58
419.67	258.54
420.04	260.54
420.42	262.62
420.79	265.05
421.16	267.50
421.54	269.98
421.91	272.57
422.28	275.28
422.66	278.19
423.03	280.97
423.40	283.89
423.77	287.00
424.15	290.20
424.52	293.53
424.89	297.13
425.26	300.72
425.64	304.05
426.01	307.80
426.38	311.63
426.75	315.59
427.13	319.65
427.50	323.89
427.87	328.30
428.24	332.76
428.61	337.04
428.99	341.66
429.36	346.75
429.73	351.63
430.10	356.49
430.47	361.48
430.85	366.62
431.22	372.13
431.59	377.81
431.96	383.35
432.33	389.51
432.70	395.38
433.08	402.30
433.45	408.86
433.82	415.33
434.19	422.56
434.56	429.67
434.93	436.55
435.30	443.36
435.68	451.05
436.05	458.60
436.42	466.12
436.79	472.97
437.16	480.35
437.53	488.28
437.90	496.20
438.27	503.97
438.64	512.33
439.01	519.92
439.38	526.87
439.75	533.55
440.13	541.08
440.50	548.25
440.87	553.93
441.24	560.14
441.61	566.90
441.98	571.79
442.35	577.60
442.72	583.54
443.09	589.18
443.46	592.74
443.83	595.28
444.20	597.39
444.57	600.59
444.94	602.34
445.31	604.14
445.68	605.66
446.05	606.68
446.42	606.12
446.79	605.36
447.16	604.62
447.53	603.96
447.90	601.32
448.27	598.78
448.64	595.08
449.01	592.41
449.37	587.36
449.74	582.82
450.11	577.00
450.48	570.63
450.85	564.27
451.22	558.80
451.59	553.51
451.96	548.69
452.33	541.79
452.70	535.65
453.07	528.20
453.43	520.79
453.80	513.60
454.17	506.77
454.54	500.46
454.91	493.37
455.28	486.74
455.65	480.49
456.02	473.91
456.38	468.62
456.75	461.83
457.12	456.33
457.49	450.80
457.86	445.62
458.23	441.10
458.59	436.08
458.96	430.95
459.33	426.41
459.70	421.82
460.07	418.35
460.43	414.26
460.80	410.45
461.17	407.14
461.54	403.56
461.91	400.20
462.27	396.79
462.64	394.07
463.01	390.92
463.38	387.73
463.74	384.86
464.11	382.32
464.48	380.06
464.85	377.60
465.21	375.75
465.58	373.67
465.95	371.27
466.32	369.37
466.68	367.50
467.05	365.66
467.42	363.83
467.78	361.83
468.15	360.02
468.52	358.70
468.88	356.90
469.25	355.26
469.62	353.98
469.98	352.56
470.35	351.30
470.72	350.14
471.08	348.98
471.45	348.01
471.82	346.92
472.18	345.77
472.55	345.03
472.92	344.08
473.28	343.33
473.65	342.54
474.02	341.78
474.38	341.17
474.75	340.80
475.11	340.29
475.48	340.07
475.85	339.80
476.21	339.67
476.58	339.59
476.94	339.74
477.31	339.80
477.67	339.91
478.04	340.12
478.41	340.44
478.77	340.86
479.14	341.14
479.50	341.67
479.87	342.34
480.23	343.02
480.60	343.69
480.96	344.37
481.33	345.35
481.69	346.33
482.06	347.30
482.42	348.19
482.79	349.30
483.15	350.60
483.52	352.08
483.88	353.51
484.25	355.02
484.61	356.59
484.98	358.29
485.34	360.20
485.71	362.21
486.07	364.33
486.44	366.48
486.80	368.85
487.17	371.32
487.53	374.02
487.90	376.84
488.26	379.95
488.62	383.20
488.99	386.45
489.35	389.90
489.72	393.61
490.08	397.52
490.44	401.54
490.81	405.75
491.17	410.05
491.54	414.66
491.90	419.43
492.26	424.53
492.63	429.88
492.99	435.43
493.36	441.21
493.72	447.27
494.08	453.50
494.45	460.12
494.81	466.98
495.17	474.01
495.54	481.41
495.90	489.12
496.26	497.03
496.63	505.19
496.99	513.65
497.35	522.51
497.72	531.67
498.08	541.04
498.44	550.70
498.80	560.93
499.17	571.44
499.53	582.27
499.89	593.45
500.26	604.86
500.62	616.51
500.98	628.81
501.34	641.28
501.71	654.28
502.07	667.39
502.43	681.02
502.79	694.96
503.16	709.36
503.52	723.93
503.88	738.92
504.24	754.37
504.60	770.01
504.97	786.12
505.33	802.54
505.69	819.89
506.05	837.57
506.41	855.20
506.78	872.99
507.14	891.27
507.50	910.01
507.86	929.07
508.22	948.44
508.59	967.62
508.95	987.60
509.31	1008.20
509.67	1029.57
510.03	1050.92
510.39	1072.26
510.75	1093.81
511.12	1115.61
511.48	1137.55
511.84	1159.52
512.20	1181.81
512.56	1204.91
512.92	1228.10
513.28	1250.87
513.64	1273.76
514.00	1297.09
514.37	1320.76
514.73	1344.41
515.09	1367.90
515.45	1391.69
515.81	1415.72
516.17	1439.67
516.53	1463.25
516.89	1486.67
517.25	1510.28
517.61	1533.77
517.97	1557.63
518.33	1580.78
518.69	1603.90
519.05	1627.52
519.41	1651.28
519.77	1675.37
520.13	1698.67
520.49	1721.94
520.85	1745.39
521.21	1768.64
521.57	1792.24
521.93	1815.24
522.29	1838.72
522.65	1861.58
523.01	1884.38
523.37	1906.73
523.73	1929.88
524.09	1952.62
524.45	1975.20
524.81	1997.24
525.17	2019.01
525.53	2040.34
525.89	2062.28
526.25	2084.19
526.61	2105.02
526.97	2125.91
527.33	2146.57
527.68	2167.01
528.04	2186.73
528.40	2205.52
528.76	2224.28
529.12	2242.43
529.48	2260.56
529.84	2276.77
530.20	2293.64
530.56	2309.96
530.91	2326.28
531.27	2342.20
531.63	2357.36
531.99	2372.01
532.35	2386.13
532.71	2400.46
533.07	2415.08
533.42	2427.79
533.78	2441.44
534.14	2455.43
534.50	2468.58
534.86	2481.54
535.21	2492.64
535.57	2504.15
535.93	2515.48
536.29	2525.71
536.65	2535.90
537.00	2545.12
537.36	2555.46
537.72	2564.47
538.08	2572.73
538.44	2580.49
538.79	2587.93
539.15	2594.51
539.51	2600.81
539.87	2606.36
540.22	2610.11
540.58	2613.97
540.94	2619.13
541.29	2622.82
541.65	2624.67
542.01	2625.89
542.37	2626.39
542.72	2628.09
543.08	2628.28
543.44	2629.05
543.79	2628.82
544.15	2627.80
544.51	2627.04
544.87	2625.08
545.22	2622.45
545.58	2619.20
545.94	2615.84
546.29	2611.35
546.65	2606.95
547.01	2602.36
547.36	2598.45
547.72	2594.52
548.07	2589.26
548.43	2582.71
548.79	2575.07
549.14	2568.62
549.50	2562.54
549.86	2555.40
550.21	2547.41
550.57	2540.09
550.92	2530.66
551.28	2521.86
551.64	2513.22
551.99	2504.34
552.35	2494.99
552.70	2485.87
553.06	2477.36
553.41	2468.37
553.77	2458.97
554.13	2449.32
554.48	2439.10
554.84	2427.68
555.19	2416.77
555.55	2405.79
555.90	2394.79
556.26	2384.27
556.61	2372.84
556.97	2360.04
557.32	2347.83
557.68	2335.33
558.03	2322.68
558.39	2311.22
558.74	2299.91
559.10	2287.22
559.45	2274.63
559.81	2262.56
560.16	2250.07
560.52	2237.60
560.87	2225.31
561.23	2212.40
561.58	2199.71
561.94	2186.69
562.29	2173.27
562.64	2160.47
563.00	2147.34
563.35	2134.69
563.71	2121.87
564.06	2109.01
564.42	2096.61
564.77	2083.74
565.12	2070.99
565.48	2058.25
565.83	2045.37
566.19	2032.82
566.54	2020.04
566.89	2006.39
567.25	1992.88
567.60	1980.40
567.96	1967.38
568.31	1953.00
568.66	1939.22
569.02	1926.66
569.37	1913.93
569.72	1901.74
570.08	1888.36
570.43	1874.64
570.78	1860.66
571.14	1846.30
571.49	1832.47
571.84	1819.15
572.20	1804.88
572.55	1790.71
572.90	1776.44
573.26	1762.23
573.61	1747.42
573.96	1733.18
574.31	1719.03
574.67	1705.08
575.02	1690.16
575.37	1675.13
575.72	1661.15
576.08	1647.63
576.43	1632.89
576.78	1618.69
577.13	1604.70
577.49	1591.23
577.84	1578.30
578.19	1564.58
578.54	1550.87
578.90	1536.79
579.25	1522.62
579.60	1509.81
579.95	1496.99
580.30	1483.98
580.66	1470.69
581.01	1457.40
581.36	1444.11
581.71	1431.78
582.06	1419.26
582.42	1407.03
582.77	1394.94
583.12	1382.84
583.47	1370.38
583.82	1358.29
584.17	1345.81
584.53	1332.98
584.88	1320.42
585.23	1307.60
585.58	1295.55
585.93	1283.70
586.28	1272.44
586.63	1261.17
586.98	1249.54
587.34	1237.95
587.69	1226.19
588.04	1214.84
588.39	1203.84
588.74	1192.99
589.09	1181.94
589.44	1170.52
589.79	1159.61
590.14	1148.82
590.49	1137.95
590.84	1127.27
591.19	1116.78
591.54	1106.16
591.89	1095.81
592.25	1085.63
592.60	1075.14
592.95	1064.93
593.30	1054.96
593.65	1044.79
594.00	1034.71
594.35	1025.16
594.70	1015.19
595.05	1006.01
595.40	996.81
595.75	987.44
596.10	978.46
596.45	969.32
596.80	960.50
597.15	951.53
597.50	942.65
597.85	934.19
598.19	925.59
598.54	917.02
598.89	908.89
599.24	900.92
599.59	892.83
599.94	885.55
600.29	878.12
600.64	870.46
600.99	862.48
601.34	854.84
601.69	846.86
602.04	839.51
602.39	832.03
602.74	824.59
603.08	817.12
603.43	809.64
603.78	802.30
604.13	795.11
604.48	787.91
604.83	780.86
605.18	773.66
605.53	766.71
605.87	759.69
606.22	752.88
606.57	746.08
606.92	739.14
607.27	732.19
607.62	725.53
607.96	719.23
608.31	713.27
608.66	707.16
609.01	701.30
609.36	695.57
609.70	689.63
610.05	683.61
610.40	677.90
610.75	672.18
611.10	666.76
611.44	661.19
611.79	655.75
612.14	650.23
612.49	644.83
612.83	639.62
613.18	634.50
613.53	629.35
613.88	624.22
614.22	619.48
614.57	614.66
614.92	609.67
615.27	604.76
615.61	599.93
615.96	595.16
616.31	590.41
616.65	585.75
617.00	581.25
617.35	576.85
617.70	572.47
618.04	568.21
618.39	563.85
618.74	559.69
619.08	555.57
619.43	551.56
619.78	547.55
620.12	543.56
620.47	539.70
620.82	535.92
621.16	532.18
621.51	528.35
621.85	524.57
622.20	520.98
622.55	517.38
622.89	513.85
623.24	510.36
623.59	506.86
623.93	503.45
624.28	500.13
624.62	496.94
624.97	493.79
625.32	490.55
625.66	487.30
626.01	484.05
626.35	480.85
626.70	477.68
627.04	474.72
627.39	471.65
627.73	468.73
628.08	465.88
628.43	463.01
628.77	460.24
629.12	457.57
629.46	454.92
629.81	452.20
630.15	449.48
630.50	446.82
630.84	444.26
631.19	441.72
631.53	439.31
631.88	436.81
632.22	434.34
632.57	432.15
632.91	429.99
633.26	427.88
633.60	425.78
633.95	423.77
634.29	421.63
634.64	419.59
634.98	417.36
635.32	415.29
635.67	413.38
636.01	411.38
636.36	409.41
636.70	407.55
637.05	405.72
637.39	403.94
637.73	402.19
638.08	400.52
638.42	398.83
638.77	397.03
639.11	395.18
639.45	393.40
639.80	391.58
640.14	389.81
640.49	388.04
640.83	386.26
641.17	384.54
641.52	382.88
641.86	381.22
642.20	379.79
642.55	378.18
642.89	376.59
643.23	375.09
643.58	373.73
643.92	372.25
644.26	370.80
644.61	369.39
644.95	367.95
645.29	366.44
645.64	364.94
645.98	363.53
646.32	362.23
646.66	360.88
647.01	359.56
647.35	358.31
647.69	357.04
648.04	355.90
648.38	354.65
648.72	353.43
649.06	352.21
649.41	350.99
649.75	349.82
650.09	348.67
650.43	347.51
650.78	346.30
651.12	345.14
651.46	344.03
651.80	342.94
652.14	341.87
652.49	340.85
652.83	339.81
653.17	338.78
653.51	337.81
653.85	336.89
654.20	335.93
654.54	334.87
654.88	333.88
655.22	332.92
655.56	331.96
655.90	331.05
656.25	330.19
656.59	329.29
656.93	328.47
657.27	327.62
657.61	326.72
657.95	325.89
658.29	325.03
658.64	324.21
658.98	323.38
659.32	322.57
659.66	321.81
660.00	321.07
660.34	320.34
660.68	319.55
661.02	318.73
661.36	317.96
661.70	317.21
662.05	316.48
662.39	315.75
662.73	315.11
663.07	314.46
663.41	313.74
663.75	313.03
664.09	312.31
664.43	311.57
664.77	310.91
665.11	310.20
665.45	309.57
665.79	308.93
666.13	308.26
666.47	307.58
666.81	306.86
667.15	306.12
667.49	305.48
667.83	304.90
668.17	304.28
668.51	303.69
668.85	303.15
669.19	302.64
669.53	302.03
669.87	301.38
670.21	300.76
670.55	300.19
670.89	299.69
671.23	299.15
671.57	298.62
671.91	298.14
672.25	297.66
672.58	297.18
672.92	296.62
673.26	296.14
673.60	295.68
673.94	295.24
674.28	294.83
674.62	294.38
674.96	293.85
675.30	293.42
675.64	292.93
675.97	292.43
676.31	291.89
676.65	291.41
676.99	291.00
677.33	290.51
677.67	290.04
678.01	289.52
678.34	289.05
678.68	288.63
679.02	288.13
679.36	287.66
679.70	287.18
680.04	286.74
680.37	286.29
680.71	285.85
681.05	285.42
681.39	284.94
681.73	284.45
682.06	283.98
682.40	283.53
682.74	283.14
683.08	282.78
683.42	282.34
683.75	281.95
684.09	281.49
684.43	281.08
684.77	280.66
685.10	280.28
685.44	279.89
685.78	279.49
686.12	279.11
686.45	278.70
686.79	278.28
687.13	277.88
687.46	277.45
687.80	277.06
688.14	276.61
688.48	276.23
688.81	275.82
689.15	275.46
689.49	275.04
689.82	274.62
690.16	274.15
690.50	273.78
690.83	273.38
691.17	272.96
691.51	272.58
691.84	272.22
692.18	271.82
692.52	271.40
692.85	270.99
693.19	270.65
693.52	270.27
693.86	269.88
694.20	269.52
694.53	269.16
694.87	268.77
695.21	268.38
695.54	268.01
695.88	267.63
696.21	267.23
696.55	266.88
696.88	266.52
697.22	266.17
697.56	265.81
697.89	265.41
698.23	265.07
698.56	264.69
698.90	264.34
699.23	263.96
699.57	263.60
699.90	263.23
700.24	262.84
700.58	262.52
700.91	262.23
701.25	261.99
701.58	261.71
701.92	261.43
702.25	261.12
702.59	260.80
702.92	260.49
703.26	260.17
703.59	259.83
703.93	259.61
704.26	259.31
704.60	258.98
704.93	258.67
705.26	258.34
705.60	258.08
705.93	257.74
706.27	257.47
706.60	257.22
706.94	256.97
707.27	256.65
707.61	256.34
707.94	256.01
708.27	255.59
708.61	255.23
708.94	254.91
709.28	254.63
709.61	254.33
709.94	254.05
710.28	253.78
710.61	253.54
710.95	253.16
711.28	252.98
711.61	252.72
711.95	252.48
712.28	252.22
712.61	251.93
712.95	251.76
713.28	251.57
713.61	251.28
713.95	250.98
714.28	250.76
714.61	250.51
714.95	250.26
715.28	250.01
715.61	249.79
715.95	249.57
716.28	249.33
716.61	249.16
716.95	248.92
717.28	248.70
717.61	248.47
717.94	248.25
718.28	247.94
718.61	247.71
718.94	247.47
719.27	247.26
719.61	247.06
719.94	246.82
720.27	246.53
720.60	246.32
720.94	246.13
721.27	245.93
721.60	245.75
721.93	245.55
722.27	245.41
722.60	245.23
722.93	245.01
723.26	244.82
723.59	244.59
723.93	244.40
724.26	244.21
724.59	244.04
724.92	243.86
725.25	243.72
725.59	243.56
725.92	243.42
726.25	243.26
726.58	243.08
726.91	242.90
727.24	242.75
727.57	242.59
727.91	242.41
728.24	242.28
728.57	242.10
728.90	241.97
729.23	241.76
729.56	241.66
729.89	241.51
730.22	241.34
730.55	241.19
730.89	241.05
731.22	240.91
731.55	240.76
731.88	240.61
732.21	240.44
732.54	240.27
732.87	240.12
733.20	239.99
733.53	239.86
733.86	239.73
734.19	239.57
734.52	239.45
734.85	239.40
735.18	239.24
735.51	239.15
735.84	239.01
736.17	238.92
736.50	238.73
736.83	238.75
737.16	238.63
737.49	238.52
737.82	238.40
738.15	238.28
738.48	238.15
738.81	238.02
739.14	237.89
739.47	237.77
739.80	237.65
740.13	237.53
740.46	237.39
740.79	237.25
741.12	237.14
741.45	237.00
741.78	236.81
742.11	236.74
742.44	236.58
742.77	236.48
743.10	236.34
743.43	236.23
743.75	235.99
744.08	236.08
744.41	235.96
744.74	235.83
745.07	235.70
745.40	235.63
745.73	235.58
746.06	235.49
746.39	235.41
746.71	235.29
747.04	235.19
747.37	235.09
747.70	235.02
748.03	234.94
748.36	234.87
748.68	234.77
749.01	234.64
749.34	234.55
749.67	234.46
750.00	234.40
750.33	234.39
750.65	234.32
750.98	234.04
751.31	233.97
751.64	233.90
751.97	233.88
752.29	233.78
752.62	233.63
752.95	233.55
753.28	233.44
753.60	233.36
753.93	233.30
754.26	233.23
754.59	233.11
754.91	233.01
755.24	232.91
755.57	232.89
755.90	232.81
756.22	232.71
756.55	232.62
756.88	232.52
757.20	232.36
757.53	232.24
757.86	232.17
758.19	232.10
758.51	232.02
758.84	231.88
759.17	231.80
759.49	231.74
759.82	231.74
760.15	231.69
760.47	231.63
760.80	231.53
761.13	231.47
761.45	231.41
761.78	231.36
762.11	231.31
762.43	231.19
762.76	231.13
763.08	231.09
763.41	231.03
763.74	230.98
764.06	230.92
764.39	230.88
764.71	230.82
765.04	230.75
765.37	230.69
765.69	230.65
766.02	230.59
766.34	230.52
766.67	230.42
767.00	230.39
767.32	230.40
767.65	230.43
767.97	230.38
768.30	230.34
768.62	230.29
768.95	230.22
769.27	230.16
769.60	230.13
769.92	230.07
770.25	230.00
770.57	229.94
770.90	229.88
771.22	229.82
771.55	229.78
771.87	229.74
772.20	229.69
772.52	229.75
772.85	229.86
773.17	229.82
773.50	229.77
773.82	229.71
774.15	229.62
774.47	229.49
774.80	229.44
775.12	229.40
775.45	229.36
775.77	229.34
776.09	229.31
776.42	229.28
776.74	229.27
777.07	229.24
777.39	229.22
777.72	229.19
778.04	229.17
778.36	229.13
778.69	229.11
779.01	229.09
779.33	228.94
779.66	228.76
779.98	228.71
780.31	228.69
780.63	228.71
780.95	228.70
781.28	228.68
781.60	228.64
781.92	228.62
782.25	228.57
782.57	228.55
782.89	228.52
783.22	228.49
783.54	228.44
783.86	228.43
784.19	228.39
784.51	228.41
784.83	228.37
785.16	228.34
785.48	228.31
785.80	228.29
786.12	228.28
786.45	228.27
786.77	228.25
787.09	228.21
787.42	228.15
787.74	228.13
788.06	228.10
788.38	228.07
788.71	228.05
789.03	228.06
789.35	228.04
789.67	228.01
789.99	228.00
790.32	227.96
790.64	227.95
790.96	228.05
791.28	227.99
791.61	227.96
791.93	227.95
792.25	227.93
792.57	228.01
792.89	227.97
793.21	227.96
793.54	227.94
793.86	227.92
794.18	227.91
794.50	227.88
794.82	227.86
795.14	227.87
795.47	227.86
795.79	227.84
796.11	227.80
796.43	227.79
796.75	227.78
797.07	227.77
797.39	227.76
797.71	227.65
798.04	227.64
798.36	227.64
798.68	227.61
799.00	227.60
799.32	227.53
799.64	227.55
799.96	227.54
800.28	227.54
800.60	227.53
800.92	227.52
801.24	227.48
801.56	227.49
801.89	227.47
802.21	227.47
802.53	227.43
802.85	227.45
803.17	227.49
803.49	227.45
803.81	227.43
804.13	227.39
804.45	227.36
804.77	227.35
805.09	227.34
805.41	227.33
805.73	227.31
806.05	227.26
806.37	227.23
806.69	227.20
807.01	227.18
807.33	227.18
807.65	227.14
807.97	227.19
808.28	227.16
808.60	227.15
808.92	227.11
809.24	227.18
809.56	227.14
809.88	227.09
810.20	227.09
810.52	227.10
810.84	227.08
811.16	227.06
811.48	227.04
811.80	227.07
812.12	227.06
812.43	227.06
812.75	227.07
813.07	227.04
813.39	227.04
813.71	227.02
814.03	227.00
814.35	226.99
814.67	226.93
814.98	226.91
815.30	226.89
815.62	226.86
815.94	226.76
816.26	226.78
816.58	226.75
816.89	226.75
817.21	226.70
817.53	226.70
817.85	226.70
818.17	226.69
818.48	226.64
818.80	226.64
