SpectraSuite Data File
++++++++++++++++++++++++++++++++++++
Date: Fri Oct 02 19:57:51 EDT 2015
User: lab3
Dark Spectrum Present: No
Reference Spectrum Present: No
Number of Sampled Component Spectra: 1
Spectrometers: USB2E7196
Integration Time (usec): 46000 (USB2E7196)
Spectra Averaged: 4500 (USB2E7196)
Boxcar Smoothing: 10 (USB2E7196)
Correct for Electrical Dark: No (USB2E7196)
Strobe/Lamp Enabled: No (USB2E7196)
Correct for Detector Non-linearity: No (USB2E7196)
Correct for Stray Light: No (USB2E7196)
Number of Pixels in Processed Spectrum: 2048
>>>>>Begin Processed Spectral Data<<<<<
339.09	0.00
339.48	215.94
339.86	217.29
340.24	218.80
340.63	220.16
341.01	223.39
341.39	222.87
341.78	224.12
342.16	225.39
342.54	225.90
342.93	214.24
343.31	225.06
343.69	225.60
344.07	226.06
344.46	226.49
344.84	226.89
345.22	227.11
345.60	227.36
345.99	227.56
346.37	227.70
346.75	227.80
347.13	227.88
347.52	227.95
347.90	228.04
348.28	228.08
348.66	228.14
349.05	228.14
349.43	228.19
349.81	228.25
350.19	228.31
350.57	228.38
350.96	228.47
351.34	228.56
351.72	228.66
352.10	228.77
352.48	228.84
352.87	228.88
353.25	228.95
353.63	229.01
354.01	229.07
354.39	229.15
354.77	229.23
355.15	229.33
355.54	229.38
355.92	229.41
356.30	229.49
356.68	229.63
357.06	229.71
357.44	229.76
357.82	229.81
358.20	229.92
358.58	229.98
358.97	230.04
359.35	230.12
359.73	230.20
360.11	230.24
360.49	230.31
360.87	230.36
361.25	230.42
361.63	230.51
362.01	230.57
362.39	230.59
362.77	230.64
363.15	230.66
363.53	230.70
363.91	230.73
364.29	230.75
364.67	230.66
365.05	230.68
365.43	230.71
365.81	230.74
366.19	230.76
366.57	230.81
366.95	230.81
367.33	230.79
367.71	230.78
368.09	230.80
368.47	230.79
368.85	230.78
369.23	230.79
369.61	230.73
369.99	230.74
370.37	230.75
370.75	230.82
371.13	230.78
371.51	230.74
371.89	230.73
372.27	230.70
372.65	230.68
373.03	230.65
373.41	230.61
373.78	230.55
374.16	230.45
374.54	230.37
374.92	230.32
375.30	230.27
375.68	230.21
376.06	230.16
376.44	230.11
376.82	230.06
377.19	230.01
377.57	229.96
377.95	229.87
378.33	229.81
378.71	229.65
379.09	229.61
379.47	229.57
379.84	229.51
380.22	229.45
380.60	229.38
380.98	229.33
381.36	229.28
381.73	229.22
382.11	229.19
382.49	229.16
382.87	229.10
383.25	229.05
383.62	229.15
384.00	229.08
384.38	229.04
384.76	229.02
385.13	229.02
385.51	228.98
385.89	228.94
386.27	228.91
386.64	228.89
387.02	228.84
387.40	228.79
387.78	228.76
388.15	228.74
388.53	228.71
388.91	228.68
389.29	228.65
389.66	228.64
390.04	228.60
390.42	228.60
390.79	228.59
391.17	228.57
391.55	228.42
391.92	228.40
392.30	228.40
392.68	228.37
393.05	228.35
393.43	228.34
393.81	228.34
394.18	228.32
394.56	228.32
394.94	228.36
395.31	228.36
395.69	228.40
396.06	228.43
396.44	228.45
396.82	228.46
397.19	228.54
397.57	228.56
397.95	228.60
398.32	228.59
398.70	228.63
399.07	228.69
399.45	228.73
399.82	228.78
400.20	228.81
400.58	228.87
400.95	228.88
401.33	228.96
401.70	229.12
402.08	229.21
402.45	229.30
402.83	229.41
403.20	229.52
403.58	229.61
403.95	229.75
404.33	229.89
404.71	230.04
405.08	230.24
405.46	230.40
405.83	230.58
406.21	230.78
406.58	230.99
406.96	231.20
407.33	231.43
407.70	231.71
408.08	232.08
408.45	232.41
408.83	232.76
409.20	233.07
409.58	233.36
409.95	233.75
410.33	234.17
410.70	234.57
411.08	235.04
411.45	235.53
411.82	236.04
412.20	236.62
412.57	237.30
412.95	237.84
413.32	238.55
413.69	239.27
414.07	240.04
414.44	240.87
414.82	241.72
415.19	242.72
415.56	243.73
415.94	244.78
416.31	245.95
416.68	247.13
417.06	248.50
417.43	249.79
417.81	251.26
418.18	252.76
418.55	254.40
418.93	256.10
419.30	257.88
419.67	259.77
420.04	261.71
420.42	263.72
420.79	266.05
421.16	268.41
421.54	270.80
421.91	273.31
422.28	275.91
422.66	278.70
423.03	281.38
423.40	284.18
423.77	287.17
424.15	290.25
424.52	293.46
424.89	296.92
425.26	300.36
425.64	303.56
426.01	307.16
426.38	310.85
426.75	314.64
427.13	318.53
427.50	322.61
427.87	326.85
428.24	331.14
428.61	335.26
428.99	339.71
429.36	344.57
429.73	349.24
430.10	353.90
430.47	358.68
430.85	363.60
431.22	368.90
431.59	374.34
431.96	379.63
432.33	385.52
432.70	391.13
433.08	397.75
433.45	404.02
433.82	410.19
434.19	417.09
434.56	423.90
434.93	430.47
435.30	436.96
435.68	444.30
436.05	451.48
436.42	458.63
436.79	465.15
437.16	472.22
437.53	479.76
437.90	487.31
438.27	494.70
438.64	502.66
439.01	509.86
439.38	516.44
439.75	522.78
440.13	529.93
440.50	536.73
440.87	542.10
441.24	547.98
441.61	554.40
441.98	559.05
442.35	564.57
442.72	570.21
443.09	575.55
443.46	578.89
443.83	581.31
444.20	583.30
444.57	586.34
444.94	587.98
445.31	589.69
445.68	591.11
446.05	592.09
446.42	591.55
446.79	590.83
447.16	590.19
447.53	589.57
447.90	587.10
448.27	584.71
448.64	581.20
449.01	578.70
449.37	573.92
449.74	569.58
450.11	564.03
450.48	557.99
450.85	551.96
451.22	546.80
451.59	541.76
451.96	537.20
452.33	530.62
452.70	524.79
453.07	517.70
453.43	510.65
453.80	503.81
454.17	497.29
454.54	491.29
454.91	484.51
455.28	478.19
455.65	472.22
456.02	465.94
456.38	460.88
456.75	454.37
457.12	449.14
457.49	443.86
457.86	438.90
458.23	434.56
458.59	429.76
458.96	424.84
459.33	420.52
459.70	416.13
460.07	412.80
460.43	408.88
460.80	405.23
461.17	402.06
461.54	398.62
461.91	395.41
462.27	392.15
462.64	389.51
463.01	386.46
463.38	383.40
463.74	380.63
464.11	378.19
464.48	376.02
464.85	373.63
465.21	371.85
465.58	369.84
465.95	367.53
466.32	365.71
466.68	363.90
467.05	362.09
467.42	360.32
467.78	358.41
468.15	356.65
468.52	355.39
468.88	353.66
469.25	352.08
469.62	350.83
469.98	349.46
470.35	348.25
470.72	347.16
471.08	346.04
471.45	345.10
471.82	344.06
472.18	342.94
472.55	342.23
472.92	341.32
473.28	340.61
473.65	339.85
474.02	339.12
474.38	338.52
474.75	338.16
475.11	337.67
475.48	337.44
475.85	337.19
476.21	337.06
476.58	336.98
476.94	337.12
477.31	337.19
477.67	337.27
478.04	337.47
478.41	337.76
478.77	338.18
479.14	338.44
479.50	338.93
479.87	339.58
480.23	340.22
480.60	340.86
480.96	341.49
481.33	342.44
481.69	343.39
482.06	344.32
482.42	345.18
482.79	346.25
483.15	347.48
483.52	348.90
483.88	350.25
484.25	351.70
484.61	353.21
484.98	354.85
485.34	356.70
485.71	358.63
486.07	360.68
486.44	362.72
486.80	365.00
487.17	367.38
487.53	369.98
487.90	372.69
488.26	375.65
488.62	378.78
488.99	381.92
489.35	385.21
489.72	388.78
490.08	392.54
490.44	396.43
490.81	400.47
491.17	404.61
491.54	409.07
491.90	413.68
492.26	418.58
492.63	423.73
492.99	429.10
493.36	434.66
493.72	440.53
494.08	446.54
494.45	452.92
494.81	459.56
495.17	466.38
495.54	473.56
495.90	481.05
496.26	488.71
496.63	496.61
496.99	504.83
497.35	513.42
497.72	522.28
498.08	531.37
498.44	540.77
498.80	550.73
499.17	560.93
499.53	571.43
499.89	582.33
500.26	593.43
500.62	604.84
500.98	616.85
501.34	629.04
501.71	641.74
502.07	654.64
502.43	668.06
502.79	681.69
503.16	695.79
503.52	710.09
503.88	724.83
504.24	739.99
504.60	755.38
504.97	771.25
505.33	787.54
505.69	804.72
506.05	822.19
506.41	839.59
506.78	857.23
507.14	875.40
507.50	893.98
507.86	912.91
508.22	932.05
508.59	951.06
508.95	970.91
509.31	991.51
509.67	1012.73
510.03	1033.93
510.39	1055.25
510.75	1076.81
511.12	1098.60
511.48	1120.53
511.84	1142.59
512.20	1165.09
512.56	1188.39
512.92	1211.70
513.28	1234.67
513.64	1257.96
514.00	1281.69
514.37	1305.65
514.73	1329.69
515.09	1353.66
515.45	1377.97
515.81	1402.38
516.17	1427.01
516.53	1451.07
516.89	1475.03
517.25	1499.27
517.61	1523.45
517.97	1548.07
518.33	1572.15
518.69	1596.22
519.05	1620.86
519.41	1645.77
519.77	1670.73
520.13	1695.09
520.49	1719.38
520.85	1744.07
521.21	1768.16
521.57	1792.78
521.93	1816.92
522.29	1841.48
522.65	1865.61
523.01	1889.72
523.37	1913.48
523.73	1937.92
524.09	1962.17
524.45	1986.19
524.81	2009.80
525.17	2033.30
525.53	2056.21
525.89	2079.59
526.25	2103.00
526.61	2125.39
526.97	2147.92
527.33	2170.50
527.68	2192.67
528.04	2214.13
528.40	2234.59
528.76	2255.62
529.12	2276.01
529.48	2295.99
529.84	2314.33
530.20	2333.30
530.56	2351.62
530.91	2370.17
531.27	2388.32
531.63	2405.67
531.99	2422.65
532.35	2438.99
532.71	2455.29
533.07	2472.30
533.42	2487.57
533.78	2503.85
534.14	2520.26
534.50	2535.59
534.86	2550.81
535.21	2564.20
535.57	2578.06
535.93	2591.73
536.29	2604.14
536.65	2616.52
537.00	2628.32
537.36	2640.93
537.72	2651.94
538.08	2662.69
538.44	2672.74
538.79	2682.39
539.15	2691.15
539.51	2699.50
539.87	2707.11
540.22	2713.06
540.58	2719.05
540.94	2726.29
541.29	2731.71
541.65	2735.40
542.01	2738.63
542.37	2741.11
542.72	2744.91
543.08	2747.04
543.44	2749.67
543.79	2751.25
544.15	2751.99
544.51	2753.11
544.87	2753.14
545.22	2752.45
545.58	2751.07
545.94	2749.73
546.29	2747.04
546.65	2744.42
547.01	2741.79
547.36	2739.93
547.72	2737.81
548.07	2734.09
548.43	2728.81
548.79	2722.81
549.14	2718.15
549.50	2713.49
549.86	2707.96
550.21	2701.33
550.57	2695.60
550.92	2687.67
551.28	2680.41
551.64	2673.30
551.99	2665.68
552.35	2657.46
552.70	2649.55
553.06	2641.89
553.41	2633.54
553.77	2624.99
554.13	2616.30
554.48	2606.71
554.84	2595.99
555.19	2586.03
555.55	2575.92
555.90	2565.83
556.26	2556.23
556.61	2545.50
556.97	2533.23
557.32	2521.49
557.68	2509.57
558.03	2497.53
558.39	2486.61
558.74	2475.92
559.10	2463.54
559.45	2451.49
559.81	2440.06
560.16	2427.90
560.52	2415.93
560.87	2404.33
561.23	2391.89
561.58	2379.72
561.94	2367.05
562.29	2353.84
562.64	2341.28
563.00	2328.39
563.35	2316.10
563.71	2303.49
564.06	2290.70
564.42	2278.64
564.77	2265.93
565.12	2253.20
565.48	2240.40
565.83	2227.63
566.19	2214.85
566.54	2202.08
566.89	2188.11
567.25	2174.36
567.60	2161.87
567.96	2148.53
568.31	2133.86
568.66	2120.04
569.02	2107.18
569.37	2094.30
569.72	2081.95
570.08	2068.29
570.43	2054.41
570.78	2040.11
571.14	2025.23
571.49	2011.15
571.84	1997.55
572.20	1982.64
572.55	1968.10
572.90	1953.28
573.26	1938.46
573.61	1923.15
573.96	1908.27
574.31	1893.74
574.67	1879.08
575.02	1863.53
575.37	1848.05
575.72	1833.44
576.08	1819.04
576.43	1803.53
576.78	1788.49
577.13	1773.75
577.49	1759.33
577.84	1745.43
578.19	1730.61
578.54	1716.03
578.90	1700.93
579.25	1685.72
579.60	1672.14
579.95	1658.28
580.30	1644.39
580.66	1630.22
581.01	1615.96
581.36	1601.77
581.71	1588.55
582.06	1575.17
582.42	1562.02
582.77	1548.87
583.12	1535.62
583.47	1522.33
583.82	1509.13
584.17	1495.58
584.53	1481.63
584.88	1468.05
585.23	1454.03
585.58	1440.97
585.93	1428.11
586.28	1415.94
586.63	1403.82
586.98	1391.12
587.34	1378.52
587.69	1365.64
588.04	1353.10
588.39	1340.99
588.74	1328.93
589.09	1316.64
589.44	1304.00
589.79	1292.03
590.14	1280.14
590.49	1268.21
590.84	1256.36
591.19	1244.98
591.54	1233.40
591.89	1221.97
592.25	1210.69
592.60	1199.12
592.95	1187.89
593.30	1176.82
593.65	1165.44
594.00	1154.15
594.35	1143.52
594.70	1132.51
595.05	1122.38
595.40	1112.13
595.75	1101.69
596.10	1091.84
596.45	1081.61
596.80	1071.72
597.15	1061.62
597.50	1051.67
597.85	1042.08
598.19	1032.38
598.54	1022.72
598.89	1013.49
599.24	1004.59
599.59	995.57
599.94	987.47
600.29	979.09
600.64	970.42
600.99	961.41
601.34	952.80
601.69	943.86
602.04	935.55
602.39	927.08
602.74	918.60
603.08	910.14
603.43	901.63
603.78	893.33
604.13	885.23
604.48	877.04
604.83	869.07
605.18	861.01
605.53	853.09
605.87	844.96
606.22	837.22
606.57	829.38
606.92	821.39
607.27	813.33
607.62	805.70
607.96	798.46
608.31	791.66
608.66	784.66
609.01	777.93
609.36	771.32
609.70	764.39
610.05	757.55
610.40	750.93
610.75	744.30
611.10	738.02
611.44	731.59
611.79	725.26
612.14	718.85
612.49	712.57
612.83	706.56
613.18	700.70
613.53	694.69
613.88	688.77
614.22	683.30
614.57	677.69
614.92	671.89
615.27	666.26
615.61	660.66
615.96	655.12
616.31	649.58
616.65	644.11
617.00	638.93
617.35	633.81
617.70	628.74
618.04	623.69
618.39	618.60
618.74	613.77
619.08	608.97
619.43	604.28
619.78	599.61
620.12	594.89
620.47	590.38
620.82	585.95
621.16	581.49
621.51	576.90
621.85	572.44
622.20	568.15
622.55	563.85
622.89	559.63
623.24	555.41
623.59	551.26
623.93	547.27
624.28	543.33
624.62	539.49
624.97	535.70
625.32	531.93
625.66	528.06
626.01	524.15
626.35	520.35
626.70	516.59
627.04	512.99
627.39	509.36
627.73	505.88
628.08	502.49
628.43	499.11
628.77	495.84
629.12	492.65
629.46	489.45
629.81	486.19
630.15	482.96
630.50	479.81
630.84	476.70
631.19	473.66
631.53	470.74
631.88	467.78
632.22	464.84
632.57	462.18
632.91	459.57
633.26	457.04
633.60	454.50
633.95	452.05
634.29	449.50
634.64	447.02
634.98	444.34
635.32	441.84
635.67	439.52
636.01	437.11
636.36	434.76
636.70	432.59
637.05	430.38
637.39	428.19
637.73	426.04
638.08	424.00
638.42	421.91
638.77	419.70
639.11	417.45
639.45	415.29
639.80	413.06
640.14	410.95
640.49	408.81
640.83	406.66
641.17	404.60
641.52	402.58
641.86	400.58
642.20	398.80
642.55	396.85
642.89	394.93
643.23	393.09
643.58	391.44
643.92	389.62
644.26	387.89
644.61	386.22
644.95	384.48
645.29	382.69
645.64	380.93
645.98	379.26
646.32	377.71
646.66	376.12
647.01	374.57
647.35	373.06
647.69	371.54
648.04	370.16
648.38	368.68
648.72	367.25
649.06	365.80
649.41	364.37
649.75	362.99
650.09	361.62
650.43	360.27
650.78	358.86
651.12	357.49
651.46	356.16
651.80	354.87
652.14	353.62
652.49	352.41
652.83	351.18
653.17	349.98
653.51	348.82
653.85	347.72
654.20	346.55
654.54	345.33
654.88	344.19
655.22	343.08
655.56	341.95
655.90	340.88
656.25	339.85
656.59	338.81
656.93	337.82
657.27	336.84
657.61	335.81
657.95	334.81
658.29	333.81
658.64	332.88
658.98	331.92
659.32	330.99
659.66	330.11
660.00	329.24
660.34	328.38
660.68	327.48
661.02	326.52
661.36	325.63
661.70	324.77
662.05	323.92
662.39	323.07
662.73	322.31
663.07	321.55
663.41	320.75
663.75	319.94
664.09	319.15
664.43	318.31
664.77	317.56
665.11	316.78
665.45	316.05
665.79	315.33
666.13	314.55
666.47	313.77
666.81	312.99
667.15	312.16
667.49	311.46
667.83	310.81
668.17	310.14
668.51	309.53
668.85	308.92
669.19	308.34
669.53	307.67
669.87	306.98
670.21	306.32
670.55	305.70
670.89	305.15
671.23	304.55
671.57	303.98
671.91	303.44
672.25	302.92
672.58	302.39
672.92	301.79
673.26	301.30
673.60	300.80
673.94	300.31
674.28	299.85
674.62	299.35
674.96	298.79
675.30	298.31
675.64	297.77
675.97	297.23
676.31	296.67
676.65	296.16
676.99	295.72
677.33	295.18
677.67	294.70
678.01	294.14
678.34	293.66
678.68	293.20
679.02	292.68
679.36	292.17
679.70	291.68
680.04	291.21
680.37	290.72
680.71	290.27
681.05	289.83
681.39	289.34
681.73	288.83
682.06	288.34
682.40	287.88
682.74	287.48
683.08	287.10
683.42	286.67
683.75	286.28
684.09	285.79
684.43	285.38
684.77	284.95
685.10	284.58
685.44	284.18
685.78	283.77
686.12	283.38
686.45	282.98
686.79	282.56
687.13	282.17
687.46	281.76
687.80	281.35
688.14	280.91
688.48	280.52
688.81	280.13
689.15	279.78
689.49	279.36
689.82	278.95
690.16	278.48
690.50	278.08
690.83	277.68
691.17	277.29
691.51	276.90
691.84	276.53
692.18	276.11
692.52	275.68
692.85	275.28
693.19	274.92
693.52	274.53
693.86	274.14
694.20	273.76
694.53	273.39
694.87	272.99
695.21	272.61
695.54	272.23
695.88	271.85
696.21	271.43
696.55	271.07
696.88	270.70
697.22	270.34
697.56	269.96
697.89	269.55
698.23	269.19
698.56	268.80
698.90	268.44
699.23	268.06
699.57	267.70
699.90	267.33
700.24	266.94
700.58	266.60
700.91	266.30
701.25	266.07
701.58	265.78
701.92	265.48
702.25	265.16
702.59	264.82
702.92	264.49
703.26	264.15
703.59	263.81
703.93	263.58
704.26	263.27
704.60	262.94
704.93	262.61
705.26	262.28
705.60	262.00
705.93	261.65
706.27	261.38
706.60	261.12
706.94	260.86
707.27	260.52
707.61	260.20
707.94	259.86
708.27	259.43
708.61	259.07
708.94	258.75
709.28	258.45
709.61	258.15
709.94	257.89
710.28	257.63
710.61	257.38
710.95	257.00
711.28	256.80
711.61	256.53
711.95	256.29
712.28	256.02
712.61	255.73
712.95	255.55
713.28	255.35
713.61	255.04
713.95	254.74
714.28	254.50
714.61	254.24
714.95	253.99
715.28	253.75
715.61	253.51
715.95	253.28
716.28	253.05
716.61	252.85
716.95	252.59
717.28	252.34
717.61	252.10
717.94	251.86
718.28	251.54
718.61	251.31
718.94	251.07
719.27	250.85
719.61	250.65
719.94	250.39
720.27	250.10
720.60	249.90
720.94	249.69
721.27	249.48
721.60	249.30
721.93	249.09
722.27	248.92
722.60	248.74
722.93	248.52
723.26	248.32
723.59	248.08
723.93	247.89
724.26	247.71
724.59	247.51
724.92	247.34
725.25	247.20
725.59	247.02
725.92	246.87
726.25	246.68
726.58	246.50
726.91	246.32
727.24	246.16
727.57	245.98
727.91	245.79
728.24	245.65
728.57	245.46
728.90	245.31
729.23	245.10
729.56	244.98
729.89	244.81
730.22	244.64
730.55	244.48
730.89	244.32
731.22	244.16
731.55	244.01
731.88	243.84
732.21	243.66
732.54	243.50
732.87	243.34
733.20	243.21
733.53	243.05
733.86	242.91
734.19	242.74
734.52	242.62
734.85	242.56
735.18	242.38
735.51	242.28
735.84	242.14
736.17	242.04
736.50	241.84
736.83	241.85
737.16	241.72
737.49	241.60
737.82	241.47
738.15	241.35
738.48	241.22
738.81	241.09
739.14	240.94
739.47	240.81
739.80	240.68
740.13	240.55
740.46	240.42
740.79	240.27
741.12	240.14
741.45	239.98
741.78	239.79
742.11	239.70
742.44	239.54
742.77	239.43
743.10	239.30
743.43	239.18
743.75	238.93
744.08	239.00
744.41	238.88
744.74	238.75
745.07	238.61
745.40	238.52
745.73	238.47
746.06	238.37
746.39	238.28
746.71	238.17
747.04	238.05
747.37	237.95
747.70	237.87
748.03	237.78
748.36	237.70
748.68	237.60
749.01	237.47
749.34	237.38
749.67	237.28
750.00	237.20
750.33	237.20
750.65	237.10
750.98	236.83
751.31	236.74
751.64	236.66
751.97	236.64
752.29	236.53
752.62	236.39
752.95	236.29
753.28	236.18
753.60	236.09
753.93	236.03
754.26	235.96
754.59	235.83
754.91	235.73
755.24	235.63
755.57	235.61
755.90	235.52
756.22	235.42
756.55	235.31
756.88	235.20
757.20	235.04
757.53	234.93
757.86	234.84
758.19	234.77
758.51	234.69
758.84	234.55
759.17	234.46
759.49	234.39
759.82	234.38
760.15	234.32
760.47	234.25
760.80	234.14
761.13	234.09
761.45	234.02
761.78	233.96
762.11	233.90
762.43	233.76
762.76	233.70
763.08	233.65
763.41	233.60
763.74	233.55
764.06	233.48
764.39	233.43
764.71	233.37
765.04	233.30
765.37	233.23
765.69	233.18
766.02	233.12
766.34	233.06
766.67	232.95
767.00	232.92
767.32	232.93
767.65	232.96
767.97	232.89
768.30	232.85
768.62	232.80
768.95	232.73
769.27	232.68
769.60	232.65
769.92	232.57
770.25	232.50
770.57	232.43
770.90	232.39
771.22	232.33
771.55	232.28
771.87	232.24
772.20	232.19
772.52	232.25
772.85	232.35
773.17	232.32
773.50	232.27
773.82	232.20
774.15	232.09
774.47	231.97
774.80	231.92
775.12	231.87
775.45	231.83
775.77	231.80
776.09	231.77
776.42	231.74
776.74	231.74
777.07	231.70
777.39	231.68
777.72	231.63
778.04	231.61
778.36	231.58
778.69	231.54
779.01	231.52
779.33	231.38
779.66	231.21
779.98	231.17
780.31	231.15
780.63	231.17
780.95	231.16
781.28	231.13
781.60	231.10
781.92	231.07
782.25	231.04
782.57	231.02
782.89	230.98
783.22	230.94
783.54	230.89
783.86	230.87
784.19	230.84
784.51	230.85
784.83	230.81
785.16	230.77
785.48	230.75
785.80	230.72
786.12	230.71
786.45	230.69
786.77	230.67
787.09	230.64
787.42	230.57
787.74	230.54
788.06	230.53
788.38	230.51
788.71	230.47
789.03	230.45
789.35	230.45
789.67	230.42
789.99	230.40
790.32	230.37
790.64	230.36
790.96	230.46
791.28	230.39
791.61	230.37
791.93	230.37
792.25	230.34
792.57	230.41
792.89	230.36
793.21	230.36
793.54	230.32
793.86	230.29
794.18	230.28
794.50	230.24
794.82	230.23
795.14	230.22
795.47	230.22
795.79	230.21
796.11	230.17
796.43	230.15
796.75	230.13
797.07	230.13
797.39	230.10
797.71	229.98
798.04	229.97
798.36	229.96
798.68	229.94
799.00	229.93
799.32	229.84
799.64	229.84
799.96	229.82
800.28	229.83
800.60	229.81
800.92	229.80
801.24	229.78
801.56	229.77
801.89	229.74
802.21	229.72
802.53	229.69
802.85	229.70
803.17	229.75
803.49	229.71
803.81	229.68
804.13	229.66
804.45	229.64
804.77	229.63
805.09	229.61
805.41	229.59
805.73	229.56
806.05	229.51
806.37	229.49
806.69	229.46
807.01	229.43
807.33	229.43
807.65	229.38
807.97	229.42
808.28	229.40
808.60	229.38
808.92	229.35
809.24	229.42
809.56	229.38
809.88	229.32
810.20	229.31
810.52	229.33
810.84	229.30
811.16	229.28
811.48	229.27
811.80	229.30
812.12	229.28
812.43	229.30
812.75	229.30
813.07	229.28
813.39	229.28
813.71	229.26
814.03	229.23
814.35	229.23
814.67	229.17
814.98	229.15
815.30	229.14
815.62	229.11
815.94	229.02
816.26	229.03
816.58	228.99
816.89	229.00
817.21	228.95
817.53	228.95
817.85	228.94
818.17	228.93
818.48	228.88
