SpectraSuite Data File
++++++++++++++++++++++++++++++++++++
Date: Fri Oct 02 19:50:47 EDT 2015
User: lab3
Dark Spectrum Present: No
Reference Spectrum Present: No
Number of Sampled Component Spectra: 1
Spectrometers: USB2E7196
Integration Time (usec): 46000 (USB2E7196)
Spectra Averaged: 4500 (USB2E7196)
Boxcar Smoothing: 10 (USB2E7196)
Correct for Electrical Dark: No (USB2E7196)
Strobe/Lamp Enabled: No (USB2E7196)
Correct for Detector Non-linearity: No (USB2E7196)
Correct for Stray Light: No (USB2E7196)
Number of Pixels in Processed Spectrum: 2048
>>>>>Begin Processed Spectral Data<<<<<
339.09	0.00
339.48	215.94
339.86	217.45
340.24	218.75
340.63	220.23
341.01	223.57
341.39	223.00
341.78	224.34
342.16	225.45
342.54	225.90
342.93	214.31
343.31	225.14
343.69	225.67
344.07	226.13
344.46	226.57
344.84	226.96
345.22	227.18
345.60	227.44
345.99	227.63
346.37	227.77
346.75	227.88
347.13	227.96
347.52	228.03
347.90	228.12
348.28	228.16
348.66	228.21
349.05	228.22
349.43	228.27
349.81	228.33
350.19	228.39
350.57	228.45
350.96	228.53
351.34	228.63
351.72	228.73
352.10	228.84
352.48	228.91
352.87	228.97
353.25	229.03
353.63	229.10
354.01	229.16
354.39	229.24
354.77	229.32
355.15	229.42
355.54	229.47
355.92	229.50
356.30	229.58
356.68	229.73
357.06	229.81
357.44	229.86
357.82	229.92
358.20	230.04
358.58	230.10
358.97	230.17
359.35	230.25
359.73	230.33
360.11	230.38
360.49	230.43
360.87	230.48
361.25	230.54
361.63	230.63
362.01	230.68
362.39	230.70
362.77	230.75
363.15	230.78
363.53	230.81
363.91	230.84
364.29	230.86
364.67	230.77
365.05	230.79
365.43	230.82
365.81	230.85
366.19	230.87
366.57	230.92
366.95	230.92
367.33	230.89
367.71	230.88
368.09	230.90
368.47	230.90
368.85	230.88
369.23	230.89
369.61	230.83
369.99	230.85
370.37	230.85
370.75	230.92
371.13	230.89
371.51	230.85
371.89	230.83
372.27	230.80
372.65	230.78
373.03	230.73
373.41	230.68
373.78	230.63
374.16	230.53
374.54	230.44
374.92	230.39
375.30	230.35
375.68	230.28
376.06	230.23
376.44	230.18
376.82	230.13
377.19	230.08
377.57	230.04
377.95	229.94
378.33	229.88
378.71	229.72
379.09	229.68
379.47	229.65
379.84	229.58
380.22	229.51
380.60	229.44
380.98	229.39
381.36	229.34
381.73	229.28
382.11	229.26
382.49	229.22
382.87	229.16
383.25	229.12
383.62	229.21
384.00	229.15
384.38	229.11
384.76	229.10
385.13	229.09
385.51	229.05
385.89	229.00
386.27	228.97
386.64	228.95
387.02	228.90
387.40	228.85
387.78	228.82
388.15	228.80
388.53	228.78
388.91	228.75
389.29	228.71
389.66	228.71
390.04	228.67
390.42	228.66
390.79	228.66
391.17	228.64
391.55	228.49
391.92	228.47
392.30	228.48
392.68	228.44
393.05	228.42
393.43	228.41
393.81	228.42
394.18	228.39
394.56	228.40
394.94	228.43
395.31	228.43
395.69	228.48
396.06	228.51
396.44	228.53
396.82	228.54
397.19	228.62
397.57	228.63
397.95	228.67
398.32	228.67
398.70	228.71
399.07	228.77
399.45	228.81
399.82	228.85
400.20	228.89
400.58	228.95
400.95	228.96
401.33	229.05
401.70	229.19
402.08	229.29
402.45	229.37
402.83	229.48
403.20	229.59
403.58	229.68
403.95	229.81
404.33	229.96
404.71	230.10
405.08	230.30
405.46	230.46
405.83	230.64
406.21	230.83
406.58	231.04
406.96	231.25
407.33	231.48
407.70	231.75
408.08	232.12
408.45	232.44
408.83	232.79
409.20	233.11
409.58	233.39
409.95	233.78
410.33	234.21
410.70	234.61
411.08	235.09
411.45	235.58
411.82	236.08
412.20	236.66
412.57	237.35
412.95	237.88
413.32	238.59
413.69	239.31
414.07	240.08
414.44	240.91
414.82	241.77
415.19	242.77
415.56	243.79
415.94	244.83
416.31	246.01
416.68	247.19
417.06	248.57
417.43	249.85
417.81	251.32
418.18	252.83
418.55	254.47
418.93	256.17
419.30	257.96
419.67	259.86
420.04	261.79
420.42	263.81
420.79	266.16
421.16	268.51
421.54	270.92
421.91	273.43
422.28	276.03
422.66	278.84
423.03	281.52
423.40	284.33
423.77	287.34
424.15	290.42
424.52	293.63
424.89	297.10
425.26	300.55
425.64	303.78
426.01	307.38
426.38	311.08
426.75	314.89
427.13	318.81
427.50	322.91
427.87	327.16
428.24	331.47
428.61	335.61
428.99	340.09
429.36	344.99
429.73	349.69
430.10	354.39
430.47	359.19
430.85	364.15
431.22	369.48
431.59	374.96
431.96	380.30
432.33	386.24
432.70	391.91
433.08	398.59
433.45	404.91
433.82	411.14
434.19	418.10
434.56	424.96
434.93	431.57
435.30	438.12
435.68	445.54
436.05	452.78
436.42	459.99
436.79	466.58
437.16	473.70
437.53	481.30
437.90	488.90
438.27	496.36
438.64	504.38
439.01	511.65
439.38	518.28
439.75	524.67
440.13	531.86
440.50	538.67
440.87	544.07
441.24	549.98
441.61	556.43
441.98	561.08
442.35	566.63
442.72	572.28
443.09	577.63
443.46	580.96
443.83	583.36
444.20	585.31
444.57	588.31
444.94	589.91
445.31	591.58
445.68	592.96
446.05	593.87
446.42	593.25
446.79	592.46
447.16	591.74
447.53	591.05
447.90	588.49
448.27	586.02
448.64	582.42
449.01	579.84
449.37	574.95
449.74	570.53
450.11	564.89
450.48	558.75
450.85	552.62
451.22	547.35
451.59	542.23
451.96	537.59
452.33	530.94
452.70	525.04
453.07	517.88
453.43	510.77
453.80	503.87
454.17	497.29
454.54	491.23
454.91	484.41
455.28	478.04
455.65	472.03
456.02	465.71
456.38	460.62
456.75	454.08
457.12	448.82
457.49	443.52
457.86	438.53
458.23	434.18
458.59	429.37
458.96	424.44
459.33	420.11
459.70	415.71
460.07	412.38
460.43	408.44
460.80	404.78
461.17	401.60
461.54	398.15
461.91	394.95
462.27	391.69
462.64	389.06
463.01	386.01
463.38	382.94
463.74	380.18
464.11	377.75
464.48	375.57
464.85	373.19
465.21	371.40
465.58	369.40
465.95	367.10
466.32	365.27
466.68	363.47
467.05	361.67
467.42	359.90
467.78	357.99
468.15	356.24
468.52	354.98
468.88	353.25
469.25	351.68
469.62	350.43
469.98	349.07
470.35	347.86
470.72	346.76
471.08	345.65
471.45	344.71
471.82	343.67
472.18	342.55
472.55	341.85
472.92	340.94
473.28	340.24
473.65	339.47
474.02	338.75
474.38	338.15
474.75	337.80
475.11	337.31
475.48	337.08
475.85	336.84
476.21	336.71
476.58	336.63
476.94	336.77
477.31	336.83
477.67	336.92
478.04	337.12
478.41	337.41
478.77	337.83
479.14	338.09
479.50	338.58
479.87	339.23
480.23	339.87
480.60	340.50
480.96	341.15
481.33	342.10
481.69	343.05
482.06	344.00
482.42	344.87
482.79	345.94
483.15	347.18
483.52	348.58
483.88	349.94
484.25	351.39
484.61	352.91
484.98	354.55
485.34	356.40
485.71	358.33
486.07	360.39
486.44	362.44
486.80	364.73
487.17	367.13
487.53	369.73
487.90	372.47
488.26	375.44
488.62	378.57
488.99	381.72
489.35	385.02
489.72	388.60
490.08	392.38
490.44	396.28
490.81	400.32
491.17	404.49
491.54	408.95
491.90	413.58
492.26	418.52
492.63	423.69
492.99	429.08
493.36	434.68
493.72	440.55
494.08	446.59
494.45	452.99
494.81	459.65
495.17	466.49
495.54	473.71
495.90	481.21
496.26	488.89
496.63	496.83
496.99	505.08
497.35	513.71
497.72	522.61
498.08	531.73
498.44	541.18
498.80	551.18
499.17	561.43
499.53	571.96
499.89	582.88
500.26	594.02
500.62	605.47
500.98	617.51
501.34	629.74
501.71	642.47
502.07	655.43
502.43	668.90
502.79	682.59
503.16	696.72
503.52	711.09
503.88	725.88
504.24	741.08
504.60	756.52
504.97	772.44
505.33	788.79
505.69	806.03
506.05	823.56
506.41	841.00
506.78	858.70
507.14	876.94
507.50	895.61
507.86	914.63
508.22	933.85
508.59	952.94
508.95	972.88
509.31	993.57
509.67	1014.86
510.03	1036.15
510.39	1057.56
510.75	1079.20
511.12	1101.09
511.48	1123.10
511.84	1145.26
512.20	1167.86
512.56	1191.25
512.92	1214.63
513.28	1237.69
513.64	1261.06
514.00	1284.87
514.37	1308.91
514.73	1333.04
515.09	1357.06
515.45	1381.46
515.81	1405.96
516.17	1430.67
516.53	1454.78
516.89	1478.85
517.25	1503.16
517.61	1527.43
517.97	1552.15
518.33	1576.34
518.69	1600.49
519.05	1625.25
519.41	1650.25
519.77	1675.27
520.13	1699.71
520.49	1724.12
520.85	1748.91
521.21	1773.08
521.57	1797.79
521.93	1822.00
522.29	1846.64
522.65	1870.91
523.01	1895.09
523.37	1918.96
523.73	1943.48
524.09	1967.84
524.45	1991.93
524.81	2015.62
525.17	2039.20
525.53	2062.17
525.89	2085.58
526.25	2109.04
526.61	2131.48
526.97	2154.08
527.33	2176.78
527.68	2199.02
528.04	2220.55
528.40	2241.05
528.76	2262.16
529.12	2282.61
529.48	2302.66
529.84	2321.06
530.20	2340.06
530.56	2358.45
530.91	2377.06
531.27	2395.28
531.63	2412.68
531.99	2429.74
532.35	2446.16
532.71	2462.51
533.07	2479.55
533.42	2494.90
533.78	2511.20
534.14	2527.67
534.50	2543.03
534.86	2558.28
535.21	2571.68
535.57	2585.57
535.93	2599.31
536.29	2611.75
536.65	2624.20
537.00	2636.06
537.36	2648.74
537.72	2659.77
538.08	2670.54
538.44	2680.64
538.79	2690.32
539.15	2699.12
539.51	2707.48
539.87	2715.09
540.22	2721.06
540.58	2727.13
540.94	2734.41
541.29	2739.85
541.65	2743.55
542.01	2746.83
542.37	2749.28
542.72	2753.07
543.08	2755.22
543.44	2757.83
543.79	2759.42
544.15	2760.08
544.51	2761.20
544.87	2761.20
545.22	2760.51
545.58	2759.09
545.94	2757.74
546.29	2755.03
546.65	2752.41
547.01	2749.79
547.36	2747.90
547.72	2745.75
548.07	2742.00
548.43	2736.64
548.79	2730.68
549.14	2725.98
549.50	2721.26
549.86	2715.77
550.21	2709.13
550.57	2703.35
550.92	2695.44
551.28	2688.17
551.64	2681.09
551.99	2673.44
552.35	2665.21
552.70	2657.31
553.06	2649.69
553.41	2641.33
553.77	2632.77
554.13	2624.02
554.48	2614.35
554.84	2603.64
555.19	2593.71
555.55	2583.57
555.90	2573.50
556.26	2563.82
556.61	2553.05
556.97	2540.76
557.32	2529.04
557.68	2517.11
558.03	2505.08
558.39	2494.08
558.74	2483.32
559.10	2470.91
559.45	2458.87
559.81	2447.37
560.16	2435.15
560.52	2423.09
560.87	2411.39
561.23	2398.89
561.58	2386.73
561.94	2374.05
562.29	2360.79
562.64	2348.16
563.00	2335.22
563.35	2322.90
563.71	2310.27
564.06	2297.49
564.42	2285.40
564.77	2272.58
565.12	2259.83
565.48	2246.97
565.83	2234.22
566.19	2221.42
566.54	2208.61
566.89	2194.58
567.25	2180.83
567.60	2168.30
567.96	2154.94
568.31	2140.28
568.66	2126.47
569.02	2113.56
569.37	2100.69
569.72	2088.30
570.08	2074.61
570.43	2060.69
570.78	2046.34
571.14	2031.44
571.49	2017.31
571.84	2003.67
572.20	1988.72
572.55	1974.15
572.90	1959.28
573.26	1944.39
573.61	1929.05
573.96	1914.12
574.31	1899.56
574.67	1884.80
575.02	1869.27
575.37	1853.75
575.72	1839.08
576.08	1824.60
576.43	1809.02
576.78	1793.91
577.13	1779.15
577.49	1764.70
577.84	1750.73
578.19	1735.88
578.54	1721.25
578.90	1706.15
579.25	1690.91
579.60	1677.30
579.95	1663.39
580.30	1649.46
580.66	1635.25
581.01	1620.93
581.36	1606.72
581.71	1593.47
582.06	1580.07
582.42	1566.84
582.77	1553.63
583.12	1540.30
583.47	1526.95
583.82	1513.70
584.17	1500.11
584.53	1486.09
584.88	1472.45
585.23	1458.38
585.58	1445.28
585.93	1432.38
586.28	1420.15
586.63	1407.97
586.98	1395.20
587.34	1382.54
587.69	1369.62
588.04	1357.06
588.39	1344.92
588.74	1332.79
589.09	1320.45
589.44	1307.76
589.79	1295.75
590.14	1283.84
590.49	1271.90
590.84	1260.06
591.19	1248.65
591.54	1237.05
591.89	1225.60
592.25	1214.29
592.60	1202.70
592.95	1191.41
593.30	1180.28
593.65	1168.86
594.00	1157.52
594.35	1146.88
594.70	1135.83
595.05	1125.69
595.40	1115.42
595.75	1104.95
596.10	1095.07
596.45	1084.79
596.80	1074.86
597.15	1064.73
597.50	1054.74
597.85	1045.11
598.19	1035.35
598.54	1025.67
598.89	1016.37
599.24	1007.42
599.59	998.38
599.94	990.25
600.29	981.87
600.64	973.19
600.99	964.13
601.34	955.49
601.69	946.48
602.04	938.15
602.39	929.66
602.74	921.14
603.08	912.67
603.43	904.13
603.78	895.81
604.13	887.68
604.48	879.49
604.83	871.48
605.18	863.39
605.53	855.43
605.87	847.25
606.22	839.52
606.57	831.64
606.92	823.62
607.27	815.53
607.62	807.88
607.96	800.61
608.31	793.79
608.66	786.77
609.01	780.03
609.36	773.40
609.70	766.43
610.05	759.53
610.40	752.87
610.75	746.22
611.10	739.91
611.44	733.46
611.79	727.11
612.14	720.68
612.49	714.39
612.83	708.38
613.18	702.50
613.53	696.45
613.88	690.52
614.22	685.05
614.57	679.42
614.92	673.59
615.27	667.94
615.61	662.32
615.96	656.76
616.31	651.22
616.65	645.73
617.00	640.53
617.35	635.39
617.70	630.33
618.04	625.24
618.39	620.15
618.74	615.30
619.08	610.48
619.43	605.77
619.78	601.10
620.12	596.36
620.47	591.82
620.82	587.38
621.16	582.89
621.51	578.28
621.85	573.78
622.20	569.49
622.55	565.20
622.89	560.96
623.24	556.72
623.59	552.56
623.93	548.56
624.28	544.60
624.62	540.76
624.97	536.94
625.32	533.15
625.66	529.27
626.01	525.34
626.35	521.53
626.70	517.75
627.04	514.10
627.39	510.47
627.73	506.98
628.08	503.57
628.43	500.19
628.77	496.91
629.12	493.71
629.46	490.48
629.81	487.20
630.15	483.95
630.50	480.81
630.84	477.69
631.19	474.63
631.53	471.71
631.88	468.75
632.22	465.79
632.57	463.12
632.91	460.49
633.26	457.96
633.60	455.41
633.95	452.96
634.29	450.41
634.64	447.92
634.98	445.22
635.32	442.72
635.67	440.39
636.01	437.97
636.36	435.62
636.70	433.45
637.05	431.23
637.39	429.03
637.73	426.86
638.08	424.80
638.42	422.71
638.77	420.48
639.11	418.22
639.45	416.05
639.80	413.83
640.14	411.70
640.49	409.56
640.83	407.40
641.17	405.34
641.52	403.31
641.86	401.30
642.20	399.52
642.55	397.56
642.89	395.64
643.23	393.80
643.58	392.14
643.92	390.30
644.26	388.56
644.61	386.88
644.95	385.14
645.29	383.35
645.64	381.58
645.98	379.91
646.32	378.35
646.66	376.76
647.01	375.19
647.35	373.68
647.69	372.17
648.04	370.78
648.38	369.29
648.72	367.86
649.06	366.41
649.41	364.98
649.75	363.59
650.09	362.22
650.43	360.86
650.78	359.44
651.12	358.06
651.46	356.73
651.80	355.44
652.14	354.18
652.49	352.96
652.83	351.73
653.17	350.53
653.51	349.36
653.85	348.26
654.20	347.10
654.54	345.87
654.88	344.73
655.22	343.61
655.56	342.48
655.90	341.41
656.25	340.37
656.59	339.31
656.93	338.33
657.27	337.36
657.61	336.31
657.95	335.32
658.29	334.34
658.64	333.41
658.98	332.46
659.32	331.52
659.66	330.63
660.00	329.77
660.34	328.91
660.68	327.99
661.02	327.04
661.36	326.13
661.70	325.27
662.05	324.41
662.39	323.57
662.73	322.80
663.07	322.03
663.41	321.23
663.75	320.41
664.09	319.61
664.43	318.77
664.77	318.02
665.11	317.22
665.45	316.49
665.79	315.75
666.13	314.96
666.47	314.18
666.81	313.39
667.15	312.56
667.49	311.86
667.83	311.22
668.17	310.54
668.51	309.93
668.85	309.31
669.19	308.73
669.53	308.06
669.87	307.38
670.21	306.72
670.55	306.10
670.89	305.55
671.23	304.96
671.57	304.38
671.91	303.84
672.25	303.32
672.58	302.78
672.92	302.18
673.26	301.69
673.60	301.19
673.94	300.69
674.28	300.25
674.62	299.74
674.96	299.19
675.30	298.69
675.64	298.15
675.97	297.61
676.31	297.05
676.65	296.54
676.99	296.10
677.33	295.56
677.67	295.07
678.01	294.52
678.34	294.03
678.68	293.57
679.02	293.05
679.36	292.55
679.70	292.05
680.04	291.58
680.37	291.10
680.71	290.64
681.05	290.19
681.39	289.68
681.73	289.17
682.06	288.67
682.40	288.22
682.74	287.81
683.08	287.44
683.42	287.00
683.75	286.60
684.09	286.11
684.43	285.69
684.77	285.26
685.10	284.89
685.44	284.47
685.78	284.06
686.12	283.67
686.45	283.26
686.79	282.85
687.13	282.45
687.46	282.02
687.80	281.62
688.14	281.18
688.48	280.79
688.81	280.39
689.15	280.05
689.49	279.64
689.82	279.22
690.16	278.74
690.50	278.35
690.83	277.95
691.17	277.55
691.51	277.16
691.84	276.79
692.18	276.36
692.52	275.94
692.85	275.53
693.19	275.17
693.52	274.78
693.86	274.38
694.20	274.01
694.53	273.64
694.87	273.24
695.21	272.86
695.54	272.48
695.88	272.09
696.21	271.67
696.55	271.31
696.88	270.94
697.22	270.57
697.56	270.20
697.89	269.78
698.23	269.42
698.56	269.03
698.90	268.67
699.23	268.28
699.57	267.91
699.90	267.55
700.24	267.16
700.58	266.83
700.91	266.52
701.25	266.29
701.58	265.99
701.92	265.69
702.25	265.37
702.59	265.02
702.92	264.69
703.26	264.36
703.59	264.00
703.93	263.77
704.26	263.45
704.60	263.13
704.93	262.80
705.26	262.48
705.60	262.20
705.93	261.85
706.27	261.59
706.60	261.33
706.94	261.06
707.27	260.72
707.61	260.40
707.94	260.06
708.27	259.63
708.61	259.27
708.94	258.95
709.28	258.65
709.61	258.35
709.94	258.09
710.28	257.82
710.61	257.58
710.95	257.20
711.28	257.01
711.61	256.73
711.95	256.49
712.28	256.21
712.61	255.92
712.95	255.73
713.28	255.51
713.61	255.21
713.95	254.91
714.28	254.67
714.61	254.40
714.95	254.15
715.28	253.90
715.61	253.65
715.95	253.43
716.28	253.20
716.61	253.00
716.95	252.74
717.28	252.50
717.61	252.25
717.94	252.02
718.28	251.70
718.61	251.47
718.94	251.22
719.27	251.00
719.61	250.80
719.94	250.54
720.27	250.26
720.60	250.04
720.94	249.83
721.27	249.62
721.60	249.44
721.93	249.22
722.27	249.06
722.60	248.87
722.93	248.64
723.26	248.43
723.59	248.19
723.93	248.01
724.26	247.81
724.59	247.61
724.92	247.44
725.25	247.29
725.59	247.11
725.92	246.96
726.25	246.78
726.58	246.60
726.91	246.41
727.24	246.26
727.57	246.09
727.91	245.91
728.24	245.76
728.57	245.58
728.90	245.43
729.23	245.22
729.56	245.10
729.89	244.93
730.22	244.76
730.55	244.60
730.89	244.43
731.22	244.27
731.55	244.11
731.88	243.95
732.21	243.78
732.54	243.62
732.87	243.46
733.20	243.32
733.53	243.17
733.86	243.03
734.19	242.86
734.52	242.73
734.85	242.66
735.18	242.49
735.51	242.37
735.84	242.23
736.17	242.13
736.50	241.93
736.83	241.94
737.16	241.81
737.49	241.70
737.82	241.57
738.15	241.46
738.48	241.34
738.81	241.20
739.14	241.06
739.47	240.91
739.80	240.78
740.13	240.65
740.46	240.51
740.79	240.37
741.12	240.24
741.45	240.09
741.78	239.90
742.11	239.81
742.44	239.66
742.77	239.56
743.10	239.42
743.43	239.29
743.75	239.05
744.08	239.12
744.41	238.99
744.74	238.87
745.07	238.72
745.40	238.64
745.73	238.58
746.06	238.47
746.39	238.39
746.71	238.28
747.04	238.16
747.37	238.07
747.70	237.99
748.03	237.89
748.36	237.81
748.68	237.71
749.01	237.58
749.34	237.49
749.67	237.39
750.00	237.31
750.33	237.30
750.65	237.22
750.98	236.94
751.31	236.85
751.64	236.77
751.97	236.75
752.29	236.64
752.62	236.49
752.95	236.40
753.28	236.29
753.60	236.20
753.93	236.13
754.26	236.05
754.59	235.92
754.91	235.82
755.24	235.72
755.57	235.69
755.90	235.61
756.22	235.51
756.55	235.40
756.88	235.29
757.20	235.13
757.53	235.01
757.86	234.93
758.19	234.86
758.51	234.78
758.84	234.63
759.17	234.54
759.49	234.48
759.82	234.46
760.15	234.40
760.47	234.33
760.80	234.24
761.13	234.18
761.45	234.13
761.78	234.06
762.11	234.00
762.43	233.87
762.76	233.81
763.08	233.76
763.41	233.70
763.74	233.65
764.06	233.59
764.39	233.55
764.71	233.48
765.04	233.41
765.37	233.35
765.69	233.29
766.02	233.23
766.34	233.16
766.67	233.06
767.00	233.03
767.32	233.04
767.65	233.06
767.97	233.00
768.30	232.95
768.62	232.91
768.95	232.84
769.27	232.78
769.60	232.75
769.92	232.68
770.25	232.61
770.57	232.54
770.90	232.49
771.22	232.43
771.55	232.38
771.87	232.35
772.20	232.30
772.52	232.36
772.85	232.46
773.17	232.43
773.50	232.38
773.82	232.32
774.15	232.21
774.47	232.08
774.80	232.03
775.12	231.98
775.45	231.94
775.77	231.91
776.09	231.88
776.42	231.85
776.74	231.85
777.07	231.81
777.39	231.78
777.72	231.74
778.04	231.72
778.36	231.69
778.69	231.65
779.01	231.63
779.33	231.49
779.66	231.32
779.98	231.27
780.31	231.25
780.63	231.27
780.95	231.27
781.28	231.24
781.60	231.20
781.92	231.17
782.25	231.15
782.57	231.12
782.89	231.09
783.22	231.05
783.54	230.99
783.86	230.98
784.19	230.95
784.51	230.96
784.83	230.92
785.16	230.88
785.48	230.85
785.80	230.83
786.12	230.81
786.45	230.78
786.77	230.77
787.09	230.74
787.42	230.67
787.74	230.64
788.06	230.63
788.38	230.61
788.71	230.58
789.03	230.56
789.35	230.56
789.67	230.52
789.99	230.51
790.32	230.47
790.64	230.46
790.96	230.55
791.28	230.48
791.61	230.46
791.93	230.44
792.25	230.42
792.57	230.48
792.89	230.44
793.21	230.43
793.54	230.39
793.86	230.35
794.18	230.34
794.50	230.30
794.82	230.28
795.14	230.28
795.47	230.27
795.79	230.25
796.11	230.20
796.43	230.18
796.75	230.16
797.07	230.15
797.39	230.13
797.71	230.01
798.04	230.00
798.36	230.00
798.68	229.98
799.00	229.97
799.32	229.90
799.64	229.90
799.96	229.88
800.28	229.89
800.60	229.87
800.92	229.86
801.24	229.84
801.56	229.84
801.89	229.81
802.21	229.80
802.53	229.76
802.85	229.77
803.17	229.81
803.49	229.77
803.81	229.75
804.13	229.73
804.45	229.70
804.77	229.69
805.09	229.67
805.41	229.66
805.73	229.62
806.05	229.57
806.37	229.55
806.69	229.52
807.01	229.49
807.33	229.49
807.65	229.43
807.97	229.47
808.28	229.45
808.60	229.43
808.92	229.41
809.24	229.48
809.56	229.44
809.88	229.39
810.20	229.39
810.52	229.40
810.84	229.37
811.16	229.35
811.48	229.32
811.80	229.36
812.12	229.34
812.43	229.36
812.75	229.36
813.07	229.34
813.39	229.33
813.71	229.31
814.03	229.29
814.35	229.29
814.67	229.23
814.98	229.20
815.30	229.19
815.62	229.16
815.94	229.07
816.26	229.07
816.58	229.04
816.89	229.04
817.21	229.00
817.53	228.99
817.85	228.99
818.17	228.98
818.48	228.92
