SpectraSuite Data File
++++++++++++++++++++++++++++++++++++
Date: Fri Oct 02 17:07:33 EDT 2015
User: lab3
Dark Spectrum Present: No
Reference Spectrum Present: No
Number of Sampled Component Spectra: 1
Spectrometers: USB2E7196
Integration Time (usec): 46000 (USB2E7196)
Spectra Averaged: 1200 (USB2E7196)
Boxcar Smoothing: 10 (USB2E7196)
Correct for Electrical Dark: No (USB2E7196)
Strobe/Lamp Enabled: No (USB2E7196)
Correct for Detector Non-linearity: No (USB2E7196)
Correct for Stray Light: No (USB2E7196)
Number of Pixels in Processed Spectrum: 2048
>>>>>Begin Processed Spectral Data<<<<<
339.09	0.00
339.48	214.65
339.86	216.18
340.24	217.54
340.63	219.06
341.01	222.16
341.39	221.70
341.78	223.00
342.16	224.15
342.54	224.69
342.93	213.10
343.31	223.87
343.69	224.41
344.07	224.88
344.46	225.31
344.84	225.69
345.22	225.91
345.60	226.16
345.99	226.35
346.37	226.49
346.75	226.60
347.13	226.68
347.52	226.76
347.90	226.85
348.28	226.89
348.66	226.95
349.05	226.95
349.43	227.01
349.81	227.06
350.19	227.11
350.57	227.17
350.96	227.26
351.34	227.35
351.72	227.44
352.10	227.55
352.48	227.63
352.87	227.68
353.25	227.74
353.63	227.82
354.01	227.87
354.39	227.95
354.77	228.03
355.15	228.14
355.54	228.18
355.92	228.21
356.30	228.28
356.68	228.42
357.06	228.50
357.44	228.55
357.82	228.61
358.20	228.73
358.58	228.79
358.97	228.85
359.35	228.93
359.73	229.03
360.11	229.08
360.49	229.14
360.87	229.18
361.25	229.25
361.63	229.34
362.01	229.40
362.39	229.43
362.77	229.48
363.15	229.49
363.53	229.53
363.91	229.57
364.29	229.59
364.67	229.50
365.05	229.51
365.43	229.54
365.81	229.58
366.19	229.59
366.57	229.65
366.95	229.66
367.33	229.63
367.71	229.62
368.09	229.63
368.47	229.62
368.85	229.62
369.23	229.63
369.61	229.58
369.99	229.59
370.37	229.58
370.75	229.66
371.13	229.64
371.51	229.58
371.89	229.57
372.27	229.55
372.65	229.53
373.03	229.49
373.41	229.44
373.78	229.39
374.16	229.28
374.54	229.20
374.92	229.14
375.30	229.10
375.68	229.02
376.06	228.98
376.44	228.93
376.82	228.88
377.19	228.84
377.57	228.78
377.95	228.69
378.33	228.63
378.71	228.47
379.09	228.43
379.47	228.40
379.84	228.32
380.22	228.26
380.60	228.19
380.98	228.13
381.36	228.08
381.73	228.02
382.11	228.00
382.49	227.96
382.87	227.91
383.25	227.87
383.62	227.97
384.00	227.89
384.38	227.85
384.76	227.84
385.13	227.83
385.51	227.80
385.89	227.75
386.27	227.72
386.64	227.70
387.02	227.65
387.40	227.60
387.78	227.59
388.15	227.56
388.53	227.53
388.91	227.51
389.29	227.48
389.66	227.47
390.04	227.43
390.42	227.44
390.79	227.43
391.17	227.41
391.55	227.26
391.92	227.25
392.30	227.25
392.68	227.20
393.05	227.18
393.43	227.18
393.81	227.18
394.18	227.16
394.56	227.16
394.94	227.18
395.31	227.18
395.69	227.21
396.06	227.24
396.44	227.26
396.82	227.27
397.19	227.36
397.57	227.37
397.95	227.40
398.32	227.38
398.70	227.42
399.07	227.49
399.45	227.51
399.82	227.56
400.20	227.60
400.58	227.66
400.95	227.67
401.33	227.76
401.70	227.91
402.08	228.01
402.45	228.10
402.83	228.22
403.20	228.32
403.58	228.42
403.95	228.56
404.33	228.71
404.71	228.85
405.08	229.05
405.46	229.22
405.83	229.40
406.21	229.61
406.58	229.82
406.96	230.03
407.33	230.30
407.70	230.58
408.08	230.96
408.45	231.29
408.83	231.66
409.20	231.99
409.58	232.29
409.95	232.71
410.33	233.15
410.70	233.56
411.08	234.05
411.45	234.57
411.82	235.10
412.20	235.71
412.57	236.43
412.95	236.99
413.32	237.72
413.69	238.48
414.07	239.28
414.44	240.16
414.82	241.06
415.19	242.10
415.56	243.15
415.94	244.25
416.31	245.48
416.68	246.70
417.06	248.12
417.43	249.47
417.81	250.99
418.18	252.56
418.55	254.28
418.93	256.07
419.30	257.93
419.67	259.91
420.04	261.94
420.42	264.04
420.79	266.50
421.16	268.97
421.54	271.48
421.91	274.10
422.28	276.83
422.66	279.76
423.03	282.55
423.40	285.49
423.77	288.63
424.15	291.86
424.52	295.23
424.89	298.87
425.26	302.49
425.64	305.87
426.01	309.66
426.38	313.54
426.75	317.53
427.13	321.63
427.50	325.92
427.87	330.39
428.24	334.91
428.61	339.25
428.99	343.93
429.36	349.08
429.73	354.01
430.10	358.95
430.47	363.98
430.85	369.20
431.22	374.80
431.59	380.54
431.96	386.14
432.33	392.37
432.70	398.31
433.08	405.30
433.45	411.94
433.82	418.48
434.19	425.78
434.56	432.97
434.93	439.94
435.30	446.83
435.68	454.61
436.05	462.22
436.42	469.79
436.79	476.73
437.16	484.20
437.53	492.20
437.90	500.22
438.27	508.07
438.64	516.52
439.01	524.16
439.38	531.20
439.75	537.94
440.13	545.54
440.50	552.74
440.87	558.46
441.24	564.70
441.61	571.53
441.98	576.48
442.35	582.35
442.72	588.31
443.09	593.97
443.46	597.49
443.83	600.06
444.20	602.19
444.57	605.37
444.94	607.12
445.31	608.90
445.68	610.36
446.05	611.35
446.42	610.74
446.79	609.94
447.16	609.16
447.53	608.46
447.90	605.80
448.27	603.22
448.64	599.45
449.01	596.75
449.37	591.63
449.74	586.97
450.11	581.05
450.48	574.61
450.85	568.18
451.22	562.67
451.59	557.28
451.96	552.39
452.33	545.41
452.70	539.21
453.07	531.70
453.43	524.23
453.80	516.99
454.17	510.08
454.54	503.70
454.91	496.55
455.28	489.84
455.65	483.52
456.02	476.87
456.38	471.52
456.75	464.66
457.12	459.11
457.49	453.55
457.86	448.31
458.23	443.75
458.59	438.68
458.96	433.51
459.33	428.98
459.70	424.37
460.07	420.84
460.43	416.70
460.80	412.85
461.17	409.50
461.54	405.88
461.91	402.49
462.27	399.06
462.64	396.31
463.01	393.11
463.38	389.88
463.74	386.99
464.11	384.43
464.48	382.14
464.85	379.65
465.21	377.79
465.58	375.68
465.95	373.25
466.32	371.32
466.68	369.41
467.05	367.50
467.42	365.63
467.78	363.64
468.15	361.80
468.52	360.46
468.88	358.64
469.25	356.99
469.62	355.69
469.98	354.27
470.35	352.99
470.72	351.85
471.08	350.68
471.45	349.70
471.82	348.60
472.18	347.44
472.55	346.69
472.92	345.74
473.28	345.01
473.65	344.21
474.02	343.46
474.38	342.85
474.75	342.49
475.11	341.99
475.48	341.76
475.85	341.51
476.21	341.39
476.58	341.32
476.94	341.47
477.31	341.55
477.67	341.66
478.04	341.88
478.41	342.18
478.77	342.63
479.14	342.90
479.50	343.43
479.87	344.11
480.23	344.80
480.60	345.47
480.96	346.15
481.33	347.15
481.69	348.16
482.06	349.15
482.42	350.05
482.79	351.17
483.15	352.48
483.52	353.95
483.88	355.37
484.25	356.89
484.61	358.46
484.98	360.17
485.34	362.10
485.71	364.11
486.07	366.26
486.44	368.41
486.80	370.81
487.17	373.31
487.53	376.04
487.90	378.90
488.26	381.99
488.62	385.26
488.99	388.54
489.35	391.98
489.72	395.72
490.08	399.66
490.44	403.73
490.81	407.97
491.17	412.30
491.54	416.94
491.90	421.76
492.26	426.90
492.63	432.29
492.99	437.91
493.36	443.69
493.72	449.83
494.08	456.10
494.45	462.75
494.81	469.65
495.17	476.71
495.54	484.17
495.90	491.97
496.26	499.92
496.63	508.11
496.99	516.64
497.35	525.55
497.72	534.74
498.08	544.14
498.44	553.86
498.80	564.19
499.17	574.77
499.53	585.65
499.89	596.91
500.26	608.37
500.62	620.09
500.98	632.47
501.34	644.98
501.71	658.05
502.07	671.30
502.43	685.09
502.79	699.11
503.16	713.56
503.52	728.18
503.88	743.25
504.24	758.77
504.60	774.51
504.97	790.71
505.33	807.30
505.69	824.81
506.05	842.61
506.41	860.33
506.78	878.24
507.14	896.66
507.50	915.50
507.86	934.68
508.22	954.09
508.59	973.33
508.95	993.38
509.31	1014.14
509.67	1035.55
510.03	1056.93
510.39	1078.38
510.75	1100.02
511.12	1121.93
511.48	1143.91
511.84	1166.01
512.20	1188.41
512.56	1211.65
512.92	1234.93
513.28	1257.79
513.64	1280.89
514.00	1304.33
514.37	1328.08
514.73	1351.80
515.09	1375.40
515.45	1399.30
515.81	1423.36
516.17	1447.52
516.53	1471.16
516.89	1494.64
517.25	1518.33
517.61	1541.97
517.97	1565.96
518.33	1589.43
518.69	1612.73
519.05	1636.63
519.41	1660.66
519.77	1684.84
520.13	1708.31
520.49	1731.67
520.85	1755.38
521.21	1778.59
521.57	1802.30
521.93	1825.37
522.29	1848.89
522.65	1871.83
523.01	1894.76
523.37	1917.25
523.73	1940.42
524.09	1963.36
524.45	1986.08
524.81	2008.35
525.17	2030.32
525.53	2051.70
525.89	2073.49
526.25	2095.31
526.61	2116.02
526.97	2136.89
527.33	2157.67
527.68	2178.18
528.04	2197.88
528.40	2216.44
528.76	2235.39
529.12	2253.77
529.48	2271.94
529.84	2288.31
530.20	2305.29
530.56	2321.58
530.91	2338.03
531.27	2354.16
531.63	2369.42
531.99	2384.19
532.35	2398.24
532.71	2412.50
533.07	2427.35
533.42	2440.40
533.78	2454.35
534.14	2468.55
534.50	2481.83
534.86	2494.92
535.21	2506.07
535.57	2517.71
535.93	2529.25
536.29	2539.51
536.65	2549.63
537.00	2559.09
537.36	2569.48
537.72	2578.39
538.08	2586.89
538.44	2594.74
538.79	2602.13
539.15	2608.73
539.51	2614.94
539.87	2620.57
540.22	2624.34
540.58	2628.24
540.94	2633.33
541.29	2636.83
541.65	2638.60
542.01	2639.76
542.37	2640.28
542.72	2642.03
543.08	2642.24
543.44	2642.98
543.79	2642.73
544.15	2641.62
544.51	2640.82
544.87	2638.94
545.22	2636.51
545.58	2633.40
545.94	2630.31
546.29	2625.80
546.65	2621.36
547.01	2616.94
547.36	2613.22
547.72	2609.47
548.07	2604.13
548.43	2597.38
548.79	2589.82
549.14	2583.50
549.50	2577.32
549.86	2570.19
550.21	2562.10
550.57	2554.83
550.92	2545.47
551.28	2536.75
551.64	2528.31
551.99	2519.53
552.35	2510.13
552.70	2501.01
553.06	2492.22
553.41	2482.82
553.77	2473.40
554.13	2463.75
554.48	2453.34
554.84	2441.76
555.19	2430.74
555.55	2419.76
555.90	2408.91
556.26	2398.52
556.61	2387.09
556.97	2374.20
557.32	2361.82
557.68	2349.40
558.03	2336.76
558.39	2325.24
558.74	2313.95
559.10	2301.10
559.45	2288.38
559.81	2276.34
560.16	2263.66
560.52	2251.21
560.87	2239.07
561.23	2226.15
561.58	2213.55
561.94	2200.60
562.29	2187.05
562.64	2174.19
563.00	2161.02
563.35	2148.29
563.71	2135.35
564.06	2122.34
564.42	2109.97
564.77	2097.16
565.12	2084.30
565.48	2071.36
565.83	2058.42
566.19	2045.60
566.54	2032.75
566.89	2018.93
567.25	2005.27
567.60	1992.85
567.96	1979.55
568.31	1965.07
568.66	1951.35
569.02	1938.61
569.37	1925.81
569.72	1913.66
570.08	1900.24
570.43	1886.51
570.78	1872.52
571.14	1858.08
571.49	1844.24
571.84	1830.98
572.20	1816.54
572.55	1802.36
572.90	1788.09
573.26	1773.80
573.61	1759.08
573.96	1744.85
574.31	1730.82
574.67	1716.76
575.02	1701.81
575.37	1687.03
575.72	1673.05
576.08	1659.33
576.43	1644.58
576.78	1630.27
577.13	1616.22
577.49	1602.56
577.84	1589.46
578.19	1575.54
578.54	1561.78
578.90	1547.58
579.25	1533.27
579.60	1520.41
579.95	1507.45
580.30	1494.40
580.66	1481.14
581.01	1467.87
581.36	1454.52
581.71	1442.14
582.06	1429.67
582.42	1417.41
582.77	1405.22
583.12	1392.97
583.47	1380.61
583.82	1368.39
584.17	1355.80
584.53	1342.87
584.88	1330.37
585.23	1317.46
585.58	1305.36
585.93	1293.42
586.28	1282.14
586.63	1270.87
586.98	1259.20
587.34	1247.62
587.69	1235.82
588.04	1224.32
588.39	1213.14
588.74	1202.13
589.09	1190.90
589.44	1179.31
589.79	1168.32
590.14	1157.41
590.49	1146.46
590.84	1135.59
591.19	1125.13
591.54	1114.57
591.89	1104.18
592.25	1093.91
592.60	1083.38
592.95	1073.19
593.30	1063.18
593.65	1052.96
594.00	1042.82
594.35	1033.24
594.70	1023.21
595.05	1013.99
595.40	1004.69
595.75	995.24
596.10	986.26
596.45	977.09
596.80	968.23
597.15	959.15
597.50	950.22
597.85	941.66
598.19	933.00
598.54	924.38
598.89	916.12
599.24	908.17
599.59	900.04
599.94	892.79
600.29	885.32
600.64	877.61
600.99	869.57
601.34	861.86
601.69	853.82
602.04	846.41
602.39	838.88
602.74	831.41
603.08	823.94
603.43	816.41
603.78	809.04
604.13	801.82
604.48	794.59
604.83	787.52
605.18	780.37
605.53	773.36
605.87	766.18
606.22	759.34
606.57	752.41
606.92	745.41
607.27	738.31
607.62	731.54
607.96	725.14
608.31	719.11
608.66	712.91
609.01	706.98
609.36	701.19
609.70	695.14
610.05	689.11
610.40	683.29
610.75	677.52
611.10	671.99
611.44	666.35
611.79	660.80
612.14	655.18
612.49	649.68
612.83	644.46
613.18	639.34
613.53	634.13
613.88	628.95
614.22	624.15
614.57	619.26
614.92	614.22
615.27	609.31
615.61	604.48
615.96	599.70
616.31	594.90
616.65	590.14
617.00	585.60
617.35	581.14
617.70	576.74
618.04	572.35
618.39	567.94
618.74	563.76
619.08	559.60
619.43	555.57
619.78	551.53
620.12	547.46
620.47	543.55
620.82	539.70
621.16	535.89
621.51	531.98
621.85	528.14
622.20	524.48
622.55	520.82
622.89	517.20
623.24	513.61
623.59	510.06
623.93	506.65
624.28	503.32
624.62	500.08
624.97	496.87
625.32	493.63
625.66	490.35
626.01	487.02
626.35	483.76
626.70	480.56
627.04	477.49
627.39	474.37
627.73	471.37
628.08	468.50
628.43	465.59
628.77	462.75
629.12	460.03
629.46	457.32
629.81	454.54
630.15	451.77
630.50	449.09
630.84	446.44
631.19	443.84
631.53	441.33
631.88	438.79
632.22	436.27
632.57	434.02
632.91	431.78
633.26	429.63
633.60	427.51
633.95	425.42
634.29	423.28
634.64	421.19
634.98	418.91
635.32	416.78
635.67	414.84
636.01	412.81
636.36	410.82
636.70	408.98
637.05	407.12
637.39	405.27
637.73	403.46
638.08	401.77
638.42	400.04
638.77	398.21
639.11	396.31
639.45	394.48
639.80	392.60
640.14	390.82
640.49	389.02
640.83	387.19
641.17	385.45
641.52	383.73
641.86	382.05
642.20	380.58
642.55	378.93
642.89	377.32
643.23	375.78
643.58	374.40
643.92	372.86
644.26	371.38
644.61	369.97
644.95	368.50
645.29	366.96
645.64	365.44
645.98	363.99
646.32	362.68
646.66	361.34
647.01	360.01
647.35	358.73
647.69	357.44
648.04	356.27
648.38	355.02
648.72	353.79
649.06	352.56
649.41	351.33
649.75	350.15
650.09	348.97
650.43	347.81
650.78	346.59
651.12	345.42
651.46	344.31
651.80	343.20
652.14	342.11
652.49	341.08
652.83	340.02
653.17	339.01
653.51	338.01
653.85	337.06
654.20	336.05
654.54	334.97
654.88	333.98
655.22	333.01
655.56	332.02
655.90	331.08
656.25	330.17
656.59	329.25
656.93	328.40
657.27	327.55
657.61	326.65
657.95	325.78
658.29	324.90
658.64	324.07
658.98	323.23
659.32	322.43
659.66	321.65
660.00	320.89
660.34	320.12
660.68	319.32
661.02	318.49
661.36	317.72
661.70	316.98
662.05	316.24
662.39	315.50
662.73	314.86
663.07	314.19
663.41	313.50
663.75	312.79
664.09	312.08
664.43	311.34
664.77	310.67
665.11	309.95
665.45	309.30
665.79	308.66
666.13	307.97
666.47	307.28
666.81	306.57
667.15	305.84
667.49	305.20
667.83	304.63
668.17	304.01
668.51	303.44
668.85	302.90
669.19	302.39
669.53	301.77
669.87	301.13
670.21	300.53
670.55	299.96
670.89	299.46
671.23	298.93
671.57	298.39
671.91	297.90
672.25	297.45
672.58	296.98
672.92	296.42
673.26	295.96
673.60	295.49
673.94	295.05
674.28	294.63
674.62	294.17
674.96	293.65
675.30	293.21
675.64	292.71
675.97	292.19
676.31	291.66
676.65	291.17
676.99	290.76
677.33	290.27
677.67	289.81
678.01	289.29
678.34	288.84
678.68	288.42
679.02	287.93
679.36	287.46
679.70	286.98
680.04	286.54
680.37	286.09
680.71	285.67
681.05	285.26
681.39	284.78
681.73	284.31
682.06	283.85
682.40	283.40
682.74	283.01
683.08	282.66
683.42	282.25
683.75	281.88
684.09	281.42
684.43	281.02
684.77	280.61
685.10	280.25
685.44	279.86
685.78	279.47
686.12	279.09
686.45	278.69
686.79	278.29
687.13	277.92
687.46	277.50
687.80	277.12
688.14	276.68
688.48	276.32
688.81	275.94
689.15	275.59
689.49	275.19
689.82	274.80
690.16	274.34
690.50	273.97
690.83	273.57
691.17	273.18
691.51	272.81
691.84	272.46
692.18	272.06
692.52	271.66
692.85	271.26
693.19	270.93
693.52	270.57
693.86	270.20
694.20	269.83
694.53	269.48
694.87	269.09
695.21	268.73
695.54	268.36
695.88	267.99
696.21	267.60
696.55	267.25
696.88	266.89
697.22	266.55
697.56	266.20
697.89	265.82
698.23	265.49
698.56	265.11
698.90	264.75
699.23	264.38
699.57	264.03
699.90	263.68
700.24	263.30
700.58	262.98
700.91	262.69
701.25	262.48
701.58	262.20
701.92	261.92
702.25	261.62
702.59	261.30
702.92	260.99
703.26	260.67
703.59	260.34
703.93	260.13
704.26	259.83
704.60	259.51
704.93	259.20
705.26	258.88
705.60	258.63
705.93	258.31
706.27	258.05
706.60	257.80
706.94	257.56
707.27	257.25
707.61	256.95
707.94	256.63
708.27	256.20
708.61	255.87
708.94	255.56
709.28	255.26
709.61	254.98
709.94	254.72
710.28	254.48
710.61	254.24
710.95	253.87
711.28	253.69
711.61	253.43
711.95	253.21
712.28	252.94
712.61	252.67
712.95	252.49
713.28	252.31
713.61	252.03
713.95	251.74
714.28	251.52
714.61	251.27
714.95	251.02
715.28	250.79
715.61	250.57
715.95	250.36
716.28	250.15
716.61	249.95
716.95	249.72
717.28	249.49
717.61	249.26
717.94	249.04
718.28	248.74
718.61	248.51
718.94	248.27
719.27	248.08
719.61	247.89
719.94	247.65
720.27	247.38
720.60	247.17
720.94	246.98
721.27	246.78
721.60	246.60
721.93	246.41
722.27	246.26
722.60	246.08
722.93	245.87
723.26	245.68
723.59	245.46
723.93	245.28
724.26	245.11
724.59	244.94
724.92	244.78
725.25	244.66
725.59	244.49
725.92	244.35
726.25	244.17
726.58	243.99
726.91	243.83
727.24	243.67
727.57	243.51
727.91	243.34
728.24	243.21
728.57	243.03
728.90	242.89
729.23	242.68
729.56	242.58
729.89	242.43
730.22	242.27
730.55	242.12
730.89	241.98
731.22	241.81
731.55	241.66
731.88	241.50
732.21	241.32
732.54	241.17
732.87	241.03
733.20	240.89
733.53	240.75
733.86	240.60
734.19	240.44
734.52	240.33
734.85	240.28
735.18	240.11
735.51	240.02
735.84	239.89
736.17	239.81
736.50	239.61
736.83	239.63
737.16	239.51
737.49	239.39
737.82	239.26
738.15	239.18
738.48	239.05
738.81	238.94
739.14	238.79
739.47	238.67
739.80	238.54
740.13	238.44
740.46	238.31
740.79	238.19
741.12	238.07
741.45	237.93
741.78	237.75
742.11	237.67
742.44	237.53
742.77	237.43
743.10	237.29
743.43	237.19
743.75	236.94
744.08	237.03
744.41	236.92
744.74	236.81
745.07	236.67
745.40	236.58
745.73	236.53
746.06	236.45
746.39	236.36
746.71	236.26
747.04	236.16
747.37	236.07
747.70	236.00
748.03	235.91
748.36	235.85
748.68	235.75
749.01	235.62
749.34	235.53
749.67	235.45
750.00	235.38
750.33	235.39
750.65	235.31
750.98	235.04
751.31	234.95
751.64	234.87
751.97	234.85
752.29	234.76
752.62	234.62
752.95	234.54
753.28	234.44
753.60	234.35
753.93	234.29
754.26	234.22
754.59	234.09
754.91	233.99
755.24	233.89
755.57	233.88
755.90	233.80
756.22	233.72
756.55	233.62
756.88	233.51
757.20	233.34
757.53	233.23
757.86	233.14
758.19	233.07
758.51	232.99
758.84	232.87
759.17	232.78
759.49	232.72
759.82	232.71
760.15	232.66
760.47	232.60
760.80	232.50
761.13	232.45
761.45	232.40
761.78	232.35
762.11	232.30
762.43	232.17
762.76	232.12
763.08	232.07
763.41	232.03
763.74	231.98
764.06	231.94
764.39	231.89
764.71	231.85
765.04	231.78
765.37	231.73
765.69	231.68
766.02	231.62
766.34	231.56
766.67	231.46
767.00	231.44
767.32	231.46
767.65	231.49
767.97	231.44
768.30	231.40
768.62	231.36
768.95	231.28
769.27	231.23
769.60	231.21
769.92	231.14
770.25	231.06
770.57	231.00
770.90	230.95
771.22	230.90
771.55	230.85
771.87	230.82
772.20	230.77
772.52	230.84
772.85	230.95
773.17	230.92
773.50	230.88
773.82	230.81
774.15	230.71
774.47	230.59
774.80	230.54
775.12	230.50
775.45	230.46
775.77	230.44
776.09	230.42
776.42	230.37
776.74	230.38
777.07	230.36
777.39	230.34
777.72	230.30
778.04	230.29
778.36	230.25
778.69	230.21
779.01	230.21
779.33	230.06
779.66	229.89
779.98	229.85
780.31	229.83
780.63	229.86
780.95	229.85
781.28	229.82
781.60	229.78
781.92	229.75
782.25	229.72
782.57	229.70
782.89	229.66
783.22	229.64
783.54	229.58
783.86	229.56
784.19	229.52
784.51	229.54
784.83	229.50
785.16	229.47
785.48	229.45
785.80	229.42
786.12	229.41
786.45	229.39
786.77	229.37
787.09	229.34
787.42	229.27
787.74	229.26
788.06	229.25
788.38	229.23
788.71	229.21
789.03	229.19
789.35	229.19
789.67	229.15
789.99	229.13
790.32	229.10
790.64	229.10
790.96	229.20
791.28	229.14
791.61	229.12
791.93	229.12
792.25	229.09
792.57	229.16
792.89	229.12
793.21	229.11
793.54	229.08
793.86	229.04
794.18	229.04
794.50	228.99
794.82	228.97
795.14	228.96
795.47	228.96
795.79	228.93
796.11	228.89
796.43	228.87
796.75	228.84
797.07	228.84
797.39	228.81
797.71	228.68
798.04	228.67
798.36	228.66
798.68	228.64
799.00	228.63
799.32	228.56
799.64	228.56
799.96	228.54
800.28	228.55
800.60	228.54
800.92	228.53
801.24	228.52
801.56	228.52
801.89	228.49
802.21	228.50
802.53	228.47
802.85	228.49
803.17	228.54
803.49	228.50
803.81	228.48
804.13	228.45
804.45	228.43
804.77	228.42
805.09	228.41
805.41	228.38
805.73	228.35
806.05	228.31
806.37	228.29
806.69	228.26
807.01	228.23
807.33	228.22
807.65	228.16
807.97	228.20
808.28	228.17
808.60	228.15
808.92	228.11
809.24	228.17
809.56	228.14
809.88	228.07
810.20	228.09
810.52	228.10
810.84	228.08
811.16	228.06
811.48	228.04
811.80	228.06
812.12	228.05
812.43	228.06
812.75	228.05
813.07	228.04
813.39	228.04
813.71	228.02
814.03	228.00
814.35	228.00
814.67	227.94
814.98	227.92
815.30	227.91
815.62	227.88
815.94	227.79
816.26	227.80
816.58	227.78
816.89	227.78
817.21	227.74
817.53	227.75
817.85	227.74
818.17	227.73
818.48	227.69
