SpectraSuite Data File
++++++++++++++++++++++++++++++++++++
Date: Sat Oct 03 07:57:19 EDT 2015
User: lab3
Dark Spectrum Present: No
Reference Spectrum Present: No
Number of Sampled Component Spectra: 1
Spectrometers: USB2E7196
Integration Time (usec): 46000 (USB2E7196)
Spectra Averaged: 12000 (USB2E7196)
Boxcar Smoothing: 10 (USB2E7196)
Correct for Electrical Dark: No (USB2E7196)
Strobe/Lamp Enabled: No (USB2E7196)
Correct for Detector Non-linearity: No (USB2E7196)
Correct for Stray Light: No (USB2E7196)
Number of Pixels in Processed Spectrum: 2048
>>>>>Begin Processed Spectral Data<<<<<
339.09	0.00
339.48	213.50
339.86	214.92
340.24	216.31
340.63	217.70
341.01	221.02
341.39	220.46
341.78	221.86
342.16	223.07
342.54	223.43
342.93	211.96
343.31	222.67
343.69	223.20
344.07	223.67
344.46	224.10
344.84	224.50
345.22	224.72
345.60	224.98
345.99	225.17
346.37	225.30
346.75	225.41
347.13	225.49
347.52	225.56
347.90	225.65
348.28	225.69
348.66	225.74
349.05	225.74
349.43	225.80
349.81	225.86
350.19	225.91
350.57	225.98
350.96	226.06
351.34	226.16
351.72	226.25
352.10	226.36
352.48	226.44
352.87	226.48
353.25	226.55
353.63	226.61
354.01	226.67
354.39	226.75
354.77	226.83
355.15	226.93
355.54	226.98
355.92	227.01
356.30	227.08
356.68	227.24
357.06	227.31
357.44	227.36
357.82	227.41
358.20	227.53
358.58	227.59
358.97	227.65
359.35	227.73
359.73	227.82
360.11	227.87
360.49	227.93
360.87	227.98
361.25	228.05
361.63	228.14
362.01	228.19
362.39	228.22
362.77	228.27
363.15	228.29
363.53	228.33
363.91	228.36
364.29	228.39
364.67	228.29
365.05	228.31
365.43	228.35
365.81	228.38
366.19	228.40
366.57	228.45
366.95	228.45
367.33	228.42
367.71	228.41
368.09	228.43
368.47	228.43
368.85	228.42
369.23	228.42
369.61	228.36
369.99	228.39
370.37	228.39
370.75	228.46
371.13	228.43
371.51	228.38
371.89	228.37
372.27	228.34
372.65	228.33
373.03	228.28
373.41	228.24
373.78	228.19
374.16	228.08
374.54	228.01
374.92	227.96
375.30	227.92
375.68	227.85
376.06	227.81
376.44	227.75
376.82	227.71
377.19	227.66
377.57	227.60
377.95	227.51
378.33	227.44
378.71	227.28
379.09	227.24
379.47	227.21
379.84	227.14
380.22	227.08
380.60	227.01
380.98	226.96
381.36	226.91
381.73	226.85
382.11	226.83
382.49	226.79
382.87	226.72
383.25	226.68
383.62	226.78
384.00	226.72
384.38	226.68
384.76	226.66
385.13	226.66
385.51	226.62
385.89	226.57
386.27	226.54
386.64	226.53
387.02	226.48
387.40	226.44
387.78	226.42
388.15	226.39
388.53	226.36
388.91	226.33
389.29	226.30
389.66	226.29
390.04	226.25
390.42	226.25
390.79	226.24
391.17	226.22
391.55	226.06
391.92	226.05
392.30	226.06
392.68	226.02
393.05	225.99
393.43	225.99
393.81	226.00
394.18	225.98
394.56	225.98
394.94	226.01
395.31	226.01
395.69	226.06
396.06	226.09
396.44	226.12
396.82	226.13
397.19	226.22
397.57	226.23
397.95	226.28
398.32	226.27
398.70	226.32
399.07	226.38
399.45	226.43
399.82	226.47
400.20	226.51
400.58	226.57
400.95	226.59
401.33	226.67
401.70	226.83
402.08	226.94
402.45	227.02
402.83	227.14
403.20	227.26
403.58	227.35
403.95	227.49
404.33	227.64
404.71	227.79
405.08	228.00
405.46	228.17
405.83	228.36
406.21	228.56
406.58	228.78
406.96	229.00
407.33	229.25
407.70	229.54
408.08	229.93
408.45	230.27
408.83	230.64
409.20	230.97
409.58	231.27
409.95	231.69
410.33	232.14
410.70	232.56
411.08	233.05
411.45	233.58
411.82	234.12
412.20	234.73
412.57	235.45
412.95	236.02
413.32	236.77
413.69	237.53
414.07	238.34
414.44	239.21
414.82	240.11
415.19	241.16
415.56	242.23
415.94	243.33
416.31	244.57
416.68	245.81
417.06	247.25
417.43	248.59
417.81	250.14
418.18	251.72
418.55	253.44
418.93	255.23
419.30	257.10
419.67	259.09
420.04	261.13
420.42	263.25
420.79	265.71
421.16	268.19
421.54	270.72
421.91	273.35
422.28	276.09
422.66	279.04
423.03	281.85
423.40	284.79
423.77	287.95
424.15	291.19
424.52	294.56
424.89	298.20
425.26	301.83
425.64	305.21
426.01	309.00
426.38	312.88
426.75	316.88
427.13	320.97
427.50	325.27
427.87	329.72
428.24	334.23
428.61	338.56
428.99	343.23
429.36	348.36
429.73	353.27
430.10	358.18
430.47	363.20
430.85	368.37
431.22	373.92
431.59	379.62
431.96	385.18
432.33	391.37
432.70	397.25
433.08	404.19
433.45	410.76
433.82	417.23
434.19	424.46
434.56	431.58
434.93	438.47
435.30	445.27
435.68	452.95
436.05	460.49
436.42	467.99
436.79	474.84
437.16	482.22
437.53	490.14
437.90	498.06
438.27	505.81
438.64	514.18
439.01	521.77
439.38	528.71
439.75	535.39
440.13	542.92
440.50	550.07
440.87	555.74
441.24	561.96
441.61	568.75
441.98	573.67
442.35	579.52
442.72	585.49
443.09	591.18
443.46	594.76
443.83	597.37
444.20	599.53
444.57	602.78
444.94	604.59
445.31	606.47
445.68	608.05
446.05	609.18
446.42	608.73
446.79	608.07
447.16	607.48
447.53	606.93
447.90	604.42
448.27	602.01
448.64	598.41
449.01	595.88
449.37	590.93
449.74	586.45
450.11	580.70
450.48	574.42
450.85	568.14
451.22	562.77
451.59	557.54
451.96	552.80
452.33	545.95
452.70	539.87
453.07	532.47
453.43	525.09
453.80	517.92
454.17	511.06
454.54	504.75
454.91	497.62
455.28	490.96
455.65	484.68
456.02	478.06
456.38	472.73
456.75	465.87
457.12	460.35
457.49	454.79
457.86	449.56
458.23	444.99
458.59	439.91
458.96	434.70
459.33	430.13
459.70	425.47
460.07	421.94
460.43	417.78
460.80	413.90
461.17	410.53
461.54	406.86
461.91	403.45
462.27	399.98
462.64	397.19
463.01	393.96
463.38	390.70
463.74	387.77
464.11	385.18
464.48	382.86
464.85	380.32
465.21	378.42
465.58	376.28
465.95	373.80
466.32	371.85
466.68	369.93
467.05	368.00
467.42	366.12
467.78	364.07
468.15	362.19
468.52	360.83
468.88	358.97
469.25	357.28
469.62	355.95
469.98	354.48
470.35	353.17
470.72	351.99
471.08	350.79
471.45	349.78
471.82	348.64
472.18	347.44
472.55	346.67
472.92	345.69
473.28	344.92
473.65	344.09
474.02	343.30
474.38	342.64
474.75	342.24
475.11	341.69
475.48	341.42
475.85	341.13
476.21	340.97
476.58	340.86
476.94	340.98
477.31	341.02
477.67	341.09
478.04	341.28
478.41	341.56
478.77	341.97
479.14	342.21
479.50	342.72
479.87	343.37
480.23	344.03
480.60	344.67
480.96	345.32
481.33	346.31
481.69	347.28
482.06	348.26
482.42	349.14
482.79	350.24
483.15	351.53
483.52	353.00
483.88	354.40
484.25	355.90
484.61	357.47
484.98	359.17
485.34	361.08
485.71	363.07
486.07	365.20
486.44	367.33
486.80	369.71
487.17	372.18
487.53	374.88
487.90	377.70
488.26	380.79
488.62	384.04
488.99	387.29
489.35	390.71
489.72	394.42
490.08	398.33
490.44	402.37
490.81	406.56
491.17	410.87
491.54	415.49
491.90	420.25
492.26	425.36
492.63	430.69
492.99	436.27
493.36	442.04
493.72	448.13
494.08	454.35
494.45	460.97
494.81	467.82
495.17	474.88
495.54	482.33
495.90	490.08
496.26	498.02
496.63	506.19
496.99	514.68
497.35	523.56
497.72	532.75
498.08	542.12
498.44	551.82
498.80	562.10
499.17	572.63
499.53	583.51
499.89	594.75
500.26	606.23
500.62	617.99
500.98	630.40
501.34	642.98
501.71	656.08
502.07	669.37
502.43	683.21
502.79	697.27
503.16	711.79
503.52	726.50
503.88	741.64
504.24	757.25
504.60	773.05
504.97	789.36
505.33	806.09
505.69	823.74
506.05	841.73
506.41	859.65
506.78	877.77
507.14	896.38
507.50	915.45
507.86	934.85
508.22	954.50
508.59	973.99
508.95	994.26
509.31	1015.27
509.67	1036.99
510.03	1058.73
510.39	1080.51
510.75	1102.49
511.12	1124.76
511.48	1147.20
511.84	1169.69
512.20	1192.57
512.56	1216.30
512.92	1240.07
513.28	1263.47
513.64	1287.11
514.00	1311.22
514.37	1335.64
514.73	1360.04
515.09	1384.32
515.45	1408.91
515.81	1433.71
516.17	1458.61
516.53	1483.08
516.89	1507.43
517.25	1531.95
517.61	1556.32
517.97	1581.16
518.33	1605.54
518.69	1629.84
519.05	1654.57
519.41	1679.60
519.77	1704.92
520.13	1729.48
520.49	1753.94
520.85	1778.69
521.21	1803.10
521.57	1827.83
521.93	1852.05
522.29	1876.81
522.65	1901.03
523.01	1925.24
523.37	1949.03
523.73	1973.52
524.09	1997.72
524.45	2021.72
524.81	2045.37
525.17	2068.88
525.53	2091.83
525.89	2115.18
526.25	2138.51
526.61	2160.88
526.97	2183.40
527.33	2205.76
527.68	2227.89
528.04	2249.24
528.40	2269.68
528.76	2290.26
529.12	2310.42
529.48	2330.37
529.84	2348.38
530.20	2367.04
530.56	2385.09
530.91	2403.27
531.27	2421.14
531.63	2438.13
531.99	2454.62
532.35	2470.43
532.71	2486.44
533.07	2503.09
533.42	2517.95
533.78	2533.77
534.14	2549.77
534.50	2564.88
534.86	2579.72
535.21	2592.64
535.57	2606.07
535.93	2619.28
536.29	2631.40
536.65	2643.26
537.00	2654.33
537.36	2666.43
537.72	2677.15
538.08	2687.34
538.44	2696.86
538.79	2705.97
539.15	2714.28
539.51	2722.31
539.87	2729.72
540.22	2735.00
540.58	2740.33
540.94	2746.83
541.29	2751.85
541.65	2755.14
542.01	2757.54
542.37	2759.33
542.72	2762.51
543.08	2763.94
543.44	2765.99
543.79	2766.95
544.15	2767.11
544.51	2767.67
544.87	2767.09
545.22	2765.80
545.58	2763.82
545.94	2761.80
546.29	2758.50
546.65	2755.19
547.01	2751.74
547.36	2749.01
547.72	2746.55
548.07	2742.31
548.43	2736.66
548.79	2729.93
549.14	2724.47
549.50	2719.42
549.86	2713.38
550.21	2706.15
550.57	2699.93
550.92	2691.41
551.28	2683.42
551.64	2675.81
551.99	2667.75
552.35	2659.08
552.70	2650.61
553.06	2642.48
553.41	2633.75
553.77	2624.79
554.13	2615.78
554.48	2605.99
554.84	2594.89
555.19	2584.21
555.55	2573.60
555.90	2563.04
556.26	2553.10
556.61	2542.07
556.97	2529.37
557.32	2517.21
557.68	2505.01
558.03	2492.49
558.39	2481.21
558.74	2470.24
559.10	2457.48
559.45	2444.94
559.81	2433.02
560.16	2420.47
560.52	2408.18
560.87	2396.30
561.23	2383.57
561.58	2370.87
561.94	2357.85
562.29	2344.35
562.64	2331.50
563.00	2318.38
563.35	2305.63
563.71	2292.72
564.06	2279.71
564.42	2267.43
564.77	2254.58
565.12	2241.60
565.48	2228.62
565.83	2215.55
566.19	2202.64
566.54	2189.73
566.89	2175.69
567.25	2161.73
567.60	2149.17
567.96	2135.68
568.31	2120.85
568.66	2106.72
569.02	2093.82
569.37	2080.83
569.72	2068.33
570.08	2054.59
570.43	2040.51
570.78	2026.34
571.14	2011.39
571.49	1997.05
571.84	1983.26
572.20	1968.27
572.55	1953.51
572.90	1938.72
573.26	1923.92
573.61	1908.64
573.96	1893.81
574.31	1879.18
574.67	1864.67
575.02	1849.09
575.37	1833.61
575.72	1818.91
576.08	1804.57
576.43	1789.10
576.78	1774.04
577.13	1759.24
577.49	1744.80
577.84	1730.99
578.19	1716.19
578.54	1701.58
578.90	1686.50
579.25	1671.33
579.60	1657.71
579.95	1644.01
580.30	1630.11
580.66	1615.97
581.01	1601.70
581.36	1587.38
581.71	1574.10
582.06	1560.74
582.42	1547.59
582.77	1534.51
583.12	1521.41
583.47	1508.16
583.82	1495.04
584.17	1481.58
584.53	1467.79
584.88	1454.38
585.23	1440.51
585.58	1427.45
585.93	1414.60
586.28	1402.51
586.63	1390.39
586.98	1377.84
587.34	1365.35
587.69	1352.51
588.04	1340.04
588.39	1327.95
588.74	1316.02
589.09	1303.86
589.44	1291.27
589.79	1279.30
590.14	1267.44
590.49	1255.51
590.84	1243.77
591.19	1232.37
591.54	1220.80
591.89	1209.37
592.25	1198.12
592.60	1186.51
592.95	1175.33
593.30	1164.37
593.65	1153.09
594.00	1141.97
594.35	1131.35
594.70	1120.31
595.05	1110.18
595.40	1099.96
595.75	1089.58
596.10	1079.72
596.45	1069.60
596.80	1059.82
597.15	1049.77
597.50	1039.87
597.85	1030.44
598.19	1020.78
598.54	1011.18
598.89	1002.04
599.24	993.22
599.59	984.19
599.94	976.10
600.29	967.80
600.64	959.21
600.99	950.27
601.34	941.67
601.69	932.76
602.04	924.52
602.39	916.10
602.74	907.73
603.08	899.32
603.43	890.87
603.78	882.61
604.13	874.49
604.48	866.42
604.83	858.49
605.18	850.46
605.53	842.61
605.87	834.57
606.22	826.83
606.57	819.05
606.92	811.20
607.27	803.26
607.62	795.62
607.96	788.41
608.31	781.64
608.66	774.66
609.01	767.94
609.36	761.34
609.70	754.54
610.05	747.70
610.40	741.14
610.75	734.56
611.10	728.33
611.44	721.92
611.79	715.62
612.14	709.25
612.49	702.96
612.83	696.97
613.18	691.13
613.53	685.17
613.88	679.24
614.22	673.69
614.57	668.11
614.92	662.39
615.27	656.77
615.61	651.19
615.96	645.67
616.31	640.18
616.65	634.72
617.00	629.47
617.35	624.34
617.70	619.24
618.04	614.22
618.39	609.11
618.74	604.26
619.08	599.44
619.43	594.75
619.78	590.07
620.12	585.34
620.47	580.77
620.82	576.33
621.16	571.93
621.51	567.41
621.85	562.93
622.20	558.60
622.55	554.30
622.89	550.09
623.24	545.90
623.59	541.72
623.93	537.72
624.28	533.80
624.62	529.97
624.97	526.19
625.32	522.37
625.66	518.51
626.01	514.61
626.35	510.79
626.70	507.02
627.04	503.45
627.39	499.79
627.73	496.30
628.08	492.89
628.43	489.48
628.77	486.14
629.12	482.92
629.46	479.75
629.81	476.47
630.15	473.18
630.50	469.99
630.84	466.85
631.19	463.79
631.53	460.83
631.88	457.84
632.22	454.86
632.57	452.18
632.91	449.53
633.26	446.96
633.60	444.40
633.95	441.90
634.29	439.31
634.64	436.81
634.98	434.11
635.32	431.56
635.67	429.20
636.01	426.78
636.36	424.40
636.70	422.15
637.05	419.90
637.39	417.70
637.73	415.52
638.08	413.46
638.42	411.36
638.77	409.13
639.11	406.84
639.45	404.64
639.80	402.37
640.14	400.22
640.49	398.06
640.83	395.87
641.17	393.78
641.52	391.73
641.86	389.71
642.20	387.89
642.55	385.91
642.89	383.96
643.23	382.10
643.58	380.40
643.92	378.58
644.26	376.82
644.61	375.12
644.95	373.38
645.29	371.56
645.64	369.77
645.98	368.07
646.32	366.50
646.66	364.90
647.01	363.33
647.35	361.80
647.69	360.25
648.04	358.84
648.38	357.35
648.72	355.88
649.06	354.42
649.41	352.96
649.75	351.57
650.09	350.19
650.43	348.81
650.78	347.38
651.12	345.99
651.46	344.66
651.80	343.35
652.14	342.07
652.49	340.85
652.83	339.59
653.17	338.38
653.51	337.20
653.85	336.08
654.20	334.92
654.54	333.68
654.88	332.53
655.22	331.40
655.56	330.26
655.90	329.18
656.25	328.14
656.59	327.09
656.93	326.09
657.27	325.11
657.61	324.08
657.95	323.09
658.29	322.09
658.64	321.15
658.98	320.19
659.32	319.27
659.66	318.40
660.00	317.54
660.34	316.68
660.68	315.80
661.02	314.88
661.36	314.01
661.70	313.18
662.05	312.37
662.39	311.56
662.73	310.84
663.07	310.12
663.41	309.35
663.75	308.59
664.09	307.82
664.43	307.03
664.77	306.31
665.11	305.54
665.45	304.85
665.79	304.16
666.13	303.45
666.47	302.72
666.81	301.97
667.15	301.21
667.49	300.54
667.83	299.92
668.17	299.29
668.51	298.69
668.85	298.12
669.19	297.59
669.53	296.96
669.87	296.31
670.21	295.68
670.55	295.10
670.89	294.60
671.23	294.05
671.57	293.51
671.91	293.02
672.25	292.56
672.58	292.09
672.92	291.54
673.26	291.07
673.60	290.61
673.94	290.16
674.28	289.74
674.62	289.29
674.96	288.78
675.30	288.34
675.64	287.85
675.97	287.36
676.31	286.84
676.65	286.37
676.99	285.98
677.33	285.50
677.67	285.07
678.01	284.56
678.34	284.13
678.68	283.73
679.02	283.26
679.36	282.81
679.70	282.35
680.04	281.94
680.37	281.52
680.71	281.12
681.05	280.74
681.39	280.31
681.73	279.87
682.06	279.45
682.40	279.03
682.74	278.68
683.08	278.37
683.42	278.00
683.75	277.65
684.09	277.23
684.43	276.88
684.77	276.51
685.10	276.18
685.44	275.83
685.78	275.48
686.12	275.15
686.45	274.79
686.79	274.42
687.13	274.09
687.46	273.72
687.80	273.37
688.14	272.98
688.48	272.65
688.81	272.31
689.15	272.00
689.49	271.66
689.82	271.29
690.16	270.87
690.50	270.54
690.83	270.19
691.17	269.84
691.51	269.49
691.84	269.17
692.18	268.82
692.52	268.45
692.85	268.11
693.19	267.81
693.52	267.48
693.86	267.16
694.20	266.83
694.53	266.52
694.87	266.18
695.21	265.85
695.54	265.52
695.88	265.19
696.21	264.83
696.55	264.51
696.88	264.20
697.22	263.89
697.56	263.57
697.89	263.22
698.23	262.91
698.56	262.58
698.90	262.27
699.23	261.94
699.57	261.63
699.90	261.31
700.24	260.97
700.58	260.69
700.91	260.43
701.25	260.24
701.58	259.99
701.92	259.75
702.25	259.47
702.59	259.18
702.92	258.90
703.26	258.62
703.59	258.32
703.93	258.13
704.26	257.86
704.60	257.58
704.93	257.30
705.26	257.01
705.60	256.77
705.93	256.47
706.27	256.23
706.60	256.00
706.94	255.78
707.27	255.49
707.61	255.20
707.94	254.90
708.27	254.51
708.61	254.18
708.94	253.89
709.28	253.62
709.61	253.36
709.94	253.12
710.28	252.88
710.61	252.66
710.95	252.31
711.28	252.15
711.61	251.90
711.95	251.70
712.28	251.46
712.61	251.20
712.95	251.04
713.28	250.87
713.61	250.60
713.95	250.33
714.28	250.12
714.61	249.88
714.95	249.66
715.28	249.44
715.61	249.23
715.95	249.04
716.28	248.82
716.61	248.65
716.95	248.42
717.28	248.21
717.61	247.99
717.94	247.79
718.28	247.49
718.61	247.28
718.94	247.06
719.27	246.86
719.61	246.68
719.94	246.45
720.27	246.17
720.60	245.98
720.94	245.78
721.27	245.60
721.60	245.43
721.93	245.24
722.27	245.10
722.60	244.93
722.93	244.73
723.26	244.55
723.59	244.33
723.93	244.16
724.26	243.99
724.59	243.80
724.92	243.64
725.25	243.51
725.59	243.35
725.92	243.21
726.25	243.05
726.58	242.88
726.91	242.71
727.24	242.57
727.57	242.41
727.91	242.24
728.24	242.11
728.57	241.93
728.90	241.79
729.23	241.59
729.56	241.49
729.89	241.33
730.22	241.17
730.55	241.03
730.89	240.88
731.22	240.72
731.55	240.58
731.88	240.43
732.21	240.25
732.54	240.10
732.87	239.96
733.20	239.82
733.53	239.69
733.86	239.56
734.19	239.41
734.52	239.29
734.85	239.25
735.18	239.09
735.51	239.00
735.84	238.87
736.17	238.78
736.50	238.59
736.83	238.62
737.16	238.49
737.49	238.38
737.82	238.26
738.15	238.16
738.48	238.04
738.81	237.92
739.14	237.79
739.47	237.67
739.80	237.54
740.13	237.43
740.46	237.29
740.79	237.17
741.12	237.05
741.45	236.90
741.78	236.72
742.11	236.64
742.44	236.50
742.77	236.40
743.10	236.27
743.43	236.15
743.75	235.91
744.08	236.01
744.41	235.89
744.74	235.78
745.07	235.65
745.40	235.57
745.73	235.52
746.06	235.43
746.39	235.35
746.71	235.25
747.04	235.14
747.37	235.05
747.70	234.98
748.03	234.90
748.36	234.83
748.68	234.73
749.01	234.60
749.34	234.51
749.67	234.43
750.00	234.36
750.33	234.37
750.65	234.29
750.98	234.01
751.31	233.93
751.64	233.85
751.97	233.83
752.29	233.74
752.62	233.59
752.95	233.50
753.28	233.40
753.60	233.31
753.93	233.26
754.26	233.19
754.59	233.07
754.91	232.97
755.24	232.88
755.57	232.86
755.90	232.78
756.22	232.69
756.55	232.59
756.88	232.48
757.20	232.32
757.53	232.21
757.86	232.13
758.19	232.06
758.51	231.98
758.84	231.85
759.17	231.76
759.49	231.69
759.82	231.69
760.15	231.63
760.47	231.56
760.80	231.46
761.13	231.41
761.45	231.35
761.78	231.29
762.11	231.23
762.43	231.10
762.76	231.04
763.08	231.00
763.41	230.95
763.74	230.90
764.06	230.84
764.39	230.80
764.71	230.74
765.04	230.67
765.37	230.61
765.69	230.56
766.02	230.50
766.34	230.45
766.67	230.35
767.00	230.32
767.32	230.34
767.65	230.37
767.97	230.30
768.30	230.26
768.62	230.21
768.95	230.15
769.27	230.10
769.60	230.07
769.92	230.00
770.25	229.93
770.57	229.86
770.90	229.82
771.22	229.76
771.55	229.71
771.87	229.68
772.20	229.63
772.52	229.70
772.85	229.81
773.17	229.78
773.50	229.73
773.82	229.66
774.15	229.56
774.47	229.44
774.80	229.39
775.12	229.34
775.45	229.30
775.77	229.27
776.09	229.25
776.42	229.21
776.74	229.22
777.07	229.18
777.39	229.16
777.72	229.12
778.04	229.10
778.36	229.06
778.69	229.03
779.01	229.02
779.33	228.87
779.66	228.70
779.98	228.66
780.31	228.64
780.63	228.66
780.95	228.66
781.28	228.63
781.60	228.60
781.92	228.58
782.25	228.55
782.57	228.52
782.89	228.49
783.22	228.45
783.54	228.40
783.86	228.39
784.19	228.35
784.51	228.37
784.83	228.33
785.16	228.30
785.48	228.28
785.80	228.25
786.12	228.24
786.45	228.22
786.77	228.20
787.09	228.16
787.42	228.10
787.74	228.07
788.06	228.06
788.38	228.03
788.71	228.00
789.03	227.99
789.35	227.99
789.67	227.95
789.99	227.94
790.32	227.91
790.64	227.90
790.96	228.00
791.28	227.93
791.61	227.91
791.93	227.90
792.25	227.87
792.57	227.94
792.89	227.90
793.21	227.89
793.54	227.86
793.86	227.83
794.18	227.82
794.50	227.78
794.82	227.76
795.14	227.76
795.47	227.76
795.79	227.74
796.11	227.69
796.43	227.67
796.75	227.65
797.07	227.65
797.39	227.62
797.71	227.50
798.04	227.49
798.36	227.48
798.68	227.46
799.00	227.46
799.32	227.38
799.64	227.38
799.96	227.36
800.28	227.37
800.60	227.36
800.92	227.35
801.24	227.33
801.56	227.33
801.89	227.30
802.21	227.29
802.53	227.25
802.85	227.27
803.17	227.31
803.49	227.27
803.81	227.24
804.13	227.22
804.45	227.19
804.77	227.18
805.09	227.17
805.41	227.15
805.73	227.11
806.05	227.06
806.37	227.04
806.69	227.01
807.01	226.98
807.33	226.98
807.65	226.92
807.97	226.97
808.28	226.94
808.60	226.93
808.92	226.89
809.24	226.96
809.56	226.93
809.88	226.87
810.20	226.87
810.52	226.89
810.84	226.86
811.16	226.84
811.48	226.82
811.80	226.85
812.12	226.84
812.43	226.85
812.75	226.85
813.07	226.82
813.39	226.83
813.71	226.80
814.03	226.78
814.35	226.78
814.67	226.71
814.98	226.69
815.30	226.68
815.62	226.65
815.94	226.56
816.26	226.57
816.58	226.53
816.89	226.53
817.21	226.50
817.53	226.50
817.85	226.50
818.17	226.49
818.48	226.42
