SpectraSuite Data File
++++++++++++++++++++++++++++++++++++
Date: Fri Oct 02 20:08:27 EDT 2015
User: lab3
Dark Spectrum Present: No
Reference Spectrum Present: No
Number of Sampled Component Spectra: 1
Spectrometers: USB2E7196
Integration Time (usec): 46000 (USB2E7196)
Spectra Averaged: 4500 (USB2E7196)
Boxcar Smoothing: 10 (USB2E7196)
Correct for Electrical Dark: No (USB2E7196)
Strobe/Lamp Enabled: No (USB2E7196)
Correct for Detector Non-linearity: No (USB2E7196)
Correct for Stray Light: No (USB2E7196)
Number of Pixels in Processed Spectrum: 2048
>>>>>Begin Processed Spectral Data<<<<<
339.09	0.00
339.48	215.72
339.86	217.12
340.24	218.47
340.63	219.91
341.01	223.09
341.39	222.49
341.78	224.05
342.16	225.23
342.54	225.67
342.93	214.01
343.31	224.82
343.69	225.35
344.07	225.82
344.46	226.25
344.84	226.64
345.22	226.86
345.60	227.13
345.99	227.32
346.37	227.45
346.75	227.55
347.13	227.63
347.52	227.70
347.90	227.80
348.28	227.83
348.66	227.89
349.05	227.88
349.43	227.92
349.81	227.98
350.19	228.03
350.57	228.10
350.96	228.18
351.34	228.27
351.72	228.37
352.10	228.47
352.48	228.54
352.87	228.59
353.25	228.65
353.63	228.71
354.01	228.76
354.39	228.84
354.77	228.91
355.15	229.01
355.54	229.06
355.92	229.08
356.30	229.15
356.68	229.30
357.06	229.38
357.44	229.42
357.82	229.48
358.20	229.60
358.58	229.65
358.97	229.71
359.35	229.79
359.73	229.87
360.11	229.92
360.49	229.98
360.87	230.02
361.25	230.08
361.63	230.17
362.01	230.22
362.39	230.25
362.77	230.30
363.15	230.32
363.53	230.35
363.91	230.38
364.29	230.40
364.67	230.30
365.05	230.32
365.43	230.35
365.81	230.38
366.19	230.40
366.57	230.45
366.95	230.45
367.33	230.42
367.71	230.41
368.09	230.43
368.47	230.43
368.85	230.41
369.23	230.42
369.61	230.36
369.99	230.38
370.37	230.38
370.75	230.45
371.13	230.42
371.51	230.38
371.89	230.36
372.27	230.34
372.65	230.33
373.03	230.28
373.41	230.23
373.78	230.19
374.16	230.08
374.54	230.00
374.92	229.95
375.30	229.91
375.68	229.85
376.06	229.80
376.44	229.74
376.82	229.71
377.19	229.66
377.57	229.61
377.95	229.52
378.33	229.46
378.71	229.30
379.09	229.26
379.47	229.23
379.84	229.17
380.22	229.10
380.60	229.03
380.98	228.99
381.36	228.94
381.73	228.88
382.11	228.85
382.49	228.82
382.87	228.75
383.25	228.71
383.62	228.81
384.00	228.75
384.38	228.72
384.76	228.70
385.13	228.69
385.51	228.66
385.89	228.61
386.27	228.58
386.64	228.56
387.02	228.51
387.40	228.47
387.78	228.44
388.15	228.42
388.53	228.39
388.91	228.37
389.29	228.33
389.66	228.33
390.04	228.29
390.42	228.29
390.79	228.28
391.17	228.25
391.55	228.10
391.92	228.09
392.30	228.09
392.68	228.05
393.05	228.03
393.43	228.03
393.81	228.04
394.18	228.03
394.56	228.04
394.94	228.07
395.31	228.06
395.69	228.10
396.06	228.13
396.44	228.16
396.82	228.17
397.19	228.25
397.57	228.27
397.95	228.32
398.32	228.31
398.70	228.35
399.07	228.42
399.45	228.45
399.82	228.50
400.20	228.53
400.58	228.58
400.95	228.59
401.33	228.67
401.70	228.82
402.08	228.91
402.45	228.99
402.83	229.11
403.20	229.22
403.58	229.31
403.95	229.45
404.33	229.60
404.71	229.73
405.08	229.94
405.46	230.09
405.83	230.27
406.21	230.47
406.58	230.68
406.96	230.89
407.33	231.13
407.70	231.40
408.08	231.78
408.45	232.10
408.83	232.46
409.20	232.78
409.58	233.06
409.95	233.46
410.33	233.88
410.70	234.28
411.08	234.75
411.45	235.25
411.82	235.76
412.20	236.34
412.57	237.04
412.95	237.58
413.32	238.29
413.69	239.01
414.07	239.77
414.44	240.60
414.82	241.46
415.19	242.46
415.56	243.48
415.94	244.52
416.31	245.70
416.68	246.88
417.06	248.25
417.43	249.53
417.81	251.00
418.18	252.49
418.55	254.14
418.93	255.83
419.30	257.62
419.67	259.50
420.04	261.43
420.42	263.44
420.79	265.78
421.16	268.13
421.54	270.53
421.91	273.03
422.28	275.62
422.66	278.42
423.03	281.09
423.40	283.88
423.77	286.87
424.15	289.94
424.52	293.13
424.89	296.59
425.26	300.03
425.64	303.23
426.01	306.82
426.38	310.49
426.75	314.27
427.13	318.15
427.50	322.23
427.87	326.45
428.24	330.73
428.61	334.84
428.99	339.27
429.36	344.13
429.73	348.78
430.10	353.44
430.47	358.21
430.85	363.11
431.22	368.37
431.59	373.79
431.96	379.07
432.33	384.95
432.70	390.54
433.08	397.14
433.45	403.39
433.82	409.54
434.19	416.41
434.56	423.19
434.93	429.73
435.30	436.20
435.68	443.51
436.05	450.66
436.42	457.78
436.79	464.28
437.16	471.30
437.53	478.81
437.90	486.33
438.27	493.69
438.64	501.63
439.01	508.81
439.38	515.37
439.75	521.70
440.13	528.83
440.50	535.59
440.87	540.94
441.24	546.82
441.61	553.21
441.98	557.86
442.35	563.38
442.72	569.00
443.09	574.35
443.46	577.70
443.83	580.14
444.20	582.14
444.57	585.18
444.94	586.86
445.31	588.59
445.68	590.04
446.05	591.05
446.42	590.52
446.79	589.86
447.16	589.25
447.53	588.67
447.90	586.24
448.27	583.90
448.64	580.44
449.01	577.99
449.37	573.26
449.74	568.96
450.11	563.47
450.48	557.49
450.85	551.51
451.22	546.38
451.59	541.37
451.96	536.86
452.33	530.32
452.70	524.53
453.07	517.48
453.43	510.46
453.80	503.65
454.17	497.16
454.54	491.17
454.91	484.41
455.28	478.09
455.65	472.14
456.02	465.87
456.38	460.82
456.75	454.32
457.12	449.09
457.49	443.83
457.86	438.87
458.23	434.53
458.59	429.72
458.96	424.80
459.33	420.48
459.70	416.09
460.07	412.76
460.43	408.83
460.80	405.17
461.17	402.01
461.54	398.56
461.91	395.35
462.27	392.08
462.64	389.46
463.01	386.41
463.38	383.34
463.74	380.57
464.11	378.13
464.48	375.95
464.85	373.57
465.21	371.79
465.58	369.79
465.95	367.48
466.32	365.65
466.68	363.85
467.05	362.04
467.42	360.26
467.78	358.35
468.15	356.58
468.52	355.32
468.88	353.58
469.25	352.00
469.62	350.75
469.98	349.39
470.35	348.18
470.72	347.08
471.08	345.96
471.45	345.02
471.82	343.99
472.18	342.87
472.55	342.15
472.92	341.23
473.28	340.52
473.65	339.75
474.02	339.02
474.38	338.41
474.75	338.06
475.11	337.56
475.48	337.33
475.85	337.09
476.21	336.95
476.58	336.86
476.94	337.01
477.31	337.08
477.67	337.16
478.04	337.35
478.41	337.64
478.77	338.05
479.14	338.31
479.50	338.79
479.87	339.43
480.23	340.07
480.60	340.71
480.96	341.34
481.33	342.29
481.69	343.23
482.06	344.17
482.42	345.03
482.79	346.10
483.15	347.34
483.52	348.73
483.88	350.08
484.25	351.54
484.61	353.03
484.98	354.67
485.34	356.50
485.71	358.44
486.07	360.48
486.44	362.52
486.80	364.80
487.17	367.18
487.53	369.78
487.90	372.50
488.26	375.47
488.62	378.59
488.99	381.71
489.35	385.01
489.72	388.58
490.08	392.34
490.44	396.22
490.81	400.25
491.17	404.39
491.54	408.84
491.90	413.44
492.26	418.35
492.63	423.49
492.99	428.87
493.36	434.42
493.72	440.27
494.08	446.26
494.45	452.64
494.81	459.27
495.17	466.07
495.54	473.25
495.90	480.72
496.26	488.35
496.63	496.24
496.99	504.45
497.35	513.03
497.72	521.89
498.08	530.95
498.44	540.34
498.80	550.28
499.17	560.46
499.53	570.95
499.89	581.82
500.26	592.90
500.62	604.28
500.98	616.28
501.34	628.46
501.71	641.14
502.07	654.02
502.43	667.42
502.79	681.03
503.16	695.08
503.52	709.34
503.88	724.05
504.24	739.18
504.60	754.53
504.97	770.36
505.33	786.61
505.69	803.75
506.05	821.18
506.41	838.55
506.78	856.17
507.14	874.29
507.50	892.84
507.86	911.75
508.22	930.86
508.59	949.84
508.95	969.65
509.31	990.20
509.67	1011.38
510.03	1032.55
510.39	1053.84
510.75	1075.34
511.12	1097.12
511.48	1119.01
511.84	1141.02
512.20	1163.48
512.56	1186.73
512.92	1210.00
513.28	1232.90
513.64	1256.17
514.00	1279.84
514.37	1303.74
514.73	1327.72
515.09	1351.63
515.45	1375.89
515.81	1400.27
516.17	1424.84
516.53	1448.85
516.89	1472.78
517.25	1496.94
517.61	1521.08
517.97	1545.67
518.33	1569.72
518.69	1593.72
519.05	1618.29
519.41	1643.13
519.77	1668.03
520.13	1692.34
520.49	1716.57
520.85	1741.22
521.21	1765.26
521.57	1789.84
521.93	1813.94
522.29	1838.49
522.65	1862.58
523.01	1886.59
523.37	1910.30
523.73	1934.67
524.09	1958.85
524.45	1982.82
524.81	2006.39
525.17	2029.83
525.53	2052.68
525.89	2076.00
526.25	2099.36
526.61	2121.69
526.97	2144.19
527.33	2166.72
527.68	2188.85
528.04	2210.27
528.40	2230.72
528.76	2251.67
529.12	2271.98
529.48	2291.92
529.84	2310.18
530.20	2329.10
530.56	2347.41
530.91	2365.90
531.27	2384.05
531.63	2401.35
531.99	2418.26
532.35	2434.54
532.71	2450.83
533.07	2467.78
533.42	2483.00
533.78	2499.22
534.14	2515.61
534.50	2530.93
534.86	2546.10
535.21	2559.46
535.57	2573.30
535.93	2586.91
536.29	2599.30
536.65	2611.68
537.00	2623.45
537.36	2636.04
537.72	2647.03
538.08	2657.72
538.44	2667.78
538.79	2677.35
539.15	2686.10
539.51	2694.44
539.87	2702.08
540.22	2707.98
540.58	2713.95
540.94	2721.18
541.29	2726.61
541.65	2730.32
542.01	2733.48
542.37	2735.92
542.72	2739.68
543.08	2741.78
543.44	2744.39
543.79	2745.98
544.15	2746.68
544.51	2747.81
544.87	2747.83
545.22	2747.14
545.58	2745.76
545.94	2744.40
546.29	2741.73
546.65	2739.10
547.01	2736.48
547.36	2734.58
547.72	2732.50
548.07	2728.80
548.43	2723.54
548.79	2717.56
549.14	2712.85
549.50	2708.25
549.86	2702.74
550.21	2696.12
550.57	2690.41
550.92	2682.49
551.28	2675.23
551.64	2668.17
551.99	2660.54
552.35	2652.31
552.70	2644.41
553.06	2636.76
553.41	2628.43
553.77	2619.90
554.13	2611.23
554.48	2601.67
554.84	2590.95
555.19	2580.94
555.55	2570.84
555.90	2560.72
556.26	2551.09
556.61	2540.41
556.97	2528.13
557.32	2516.44
557.68	2504.54
558.03	2492.51
558.39	2481.60
558.74	2470.92
559.10	2458.52
559.45	2446.51
559.81	2435.08
560.16	2422.92
560.52	2410.96
560.87	2399.35
561.23	2386.91
561.58	2374.71
561.94	2362.06
562.29	2348.87
562.64	2336.34
563.00	2323.48
563.35	2311.18
563.71	2298.62
564.06	2285.84
564.42	2273.83
564.77	2261.11
565.12	2248.40
565.48	2235.61
565.83	2222.85
566.19	2210.07
566.54	2197.31
566.89	2183.34
567.25	2169.62
567.60	2157.16
567.96	2143.87
568.31	2129.21
568.66	2115.40
569.02	2102.58
569.37	2089.75
569.72	2077.44
570.08	2063.83
570.43	2049.94
570.78	2035.70
571.14	2020.84
571.49	2006.75
571.84	1993.17
572.20	1978.31
572.55	1963.80
572.90	1949.01
573.26	1934.22
573.61	1918.98
573.96	1904.15
574.31	1889.66
574.67	1875.05
575.02	1859.53
575.37	1844.09
575.72	1829.53
576.08	1815.17
576.43	1799.68
576.78	1784.65
577.13	1769.91
577.49	1755.48
577.84	1741.62
578.19	1726.85
578.54	1712.31
578.90	1697.25
579.25	1682.05
579.60	1668.49
579.95	1654.67
580.30	1640.82
580.66	1626.69
581.01	1612.43
581.36	1598.23
581.71	1585.02
582.06	1571.66
582.42	1558.53
582.77	1545.39
583.12	1532.16
583.47	1518.88
583.82	1505.71
584.17	1492.20
584.53	1478.31
584.88	1464.79
585.23	1450.81
585.58	1437.76
585.93	1424.91
586.28	1412.79
586.63	1400.69
586.98	1388.05
587.34	1375.49
587.69	1362.63
588.04	1350.12
588.39	1338.05
588.74	1326.02
589.09	1313.76
589.44	1301.14
589.79	1289.20
590.14	1277.36
590.49	1265.47
590.84	1253.67
591.19	1242.31
591.54	1230.75
591.89	1219.35
592.25	1208.07
592.60	1196.53
592.95	1185.32
593.30	1174.29
593.65	1162.94
594.00	1151.68
594.35	1141.05
594.70	1130.06
595.05	1119.96
595.40	1109.73
595.75	1099.33
596.10	1089.49
596.45	1079.31
596.80	1069.45
597.15	1059.38
597.50	1049.46
597.85	1039.90
598.19	1030.21
598.54	1020.59
598.89	1011.39
599.24	1002.50
599.59	993.50
599.94	985.41
600.29	977.06
600.64	968.42
600.99	959.42
601.34	950.83
601.69	941.89
602.04	933.60
602.39	925.16
602.74	916.71
603.08	908.26
603.43	899.78
603.78	891.50
604.13	883.40
604.48	875.24
604.83	867.29
605.18	859.24
605.53	851.33
605.87	843.23
606.22	835.51
606.57	827.69
606.92	819.74
607.27	811.70
607.62	804.07
607.96	796.84
608.31	790.06
608.66	783.06
609.01	776.34
609.36	769.73
609.70	762.82
610.05	755.97
610.40	749.38
610.75	742.78
611.10	736.51
611.44	730.09
611.79	723.77
612.14	717.35
612.49	711.09
612.83	705.10
613.18	699.24
613.53	693.24
613.88	687.32
614.22	681.85
614.57	676.28
614.92	670.49
615.27	664.88
615.61	659.29
615.96	653.77
616.31	648.25
616.65	642.80
617.00	637.63
617.35	632.52
617.70	627.47
618.04	622.43
618.39	617.34
618.74	612.52
619.08	607.72
619.43	603.05
619.78	598.39
620.12	593.68
620.47	589.17
620.82	584.75
621.16	580.30
621.51	575.72
621.85	571.25
622.20	566.98
622.55	562.70
622.89	558.50
623.24	554.29
623.59	550.14
623.93	546.16
624.28	542.23
624.62	538.41
624.97	534.62
625.32	530.85
625.66	526.99
626.01	523.09
626.35	519.29
626.70	515.54
627.04	511.94
627.39	508.31
627.73	504.84
628.08	501.45
628.43	498.09
628.77	494.81
629.12	491.63
629.46	488.43
629.81	485.18
630.15	481.94
630.50	478.80
630.84	475.71
631.19	472.68
631.53	469.77
631.88	466.81
632.22	463.88
632.57	461.23
632.91	458.62
633.26	456.10
633.60	453.57
633.95	451.12
634.29	448.60
634.64	446.13
634.98	443.45
635.32	440.95
635.67	438.63
636.01	436.23
636.36	433.89
636.70	431.73
637.05	429.52
637.39	427.33
637.73	425.19
638.08	423.15
638.42	421.06
638.77	418.86
639.11	416.60
639.45	414.45
639.80	412.22
640.14	410.11
640.49	407.99
640.83	405.84
641.17	403.78
641.52	401.76
641.86	399.77
642.20	397.99
642.55	396.04
642.89	394.13
643.23	392.30
643.58	390.65
643.92	388.84
644.26	387.11
644.61	385.44
644.95	383.70
645.29	381.92
645.64	380.16
645.98	378.48
646.32	376.93
646.66	375.36
647.01	373.80
647.35	372.30
647.69	370.78
648.04	369.41
648.38	367.93
648.72	366.49
649.06	365.06
649.41	363.63
649.75	362.26
650.09	360.89
650.43	359.54
650.78	358.12
651.12	356.74
651.46	355.42
651.80	354.13
652.14	352.88
652.49	351.67
652.83	350.43
653.17	349.24
653.51	348.08
653.85	346.98
654.20	345.82
654.54	344.59
654.88	343.45
655.22	342.33
655.56	341.21
655.90	340.14
656.25	339.10
656.59	338.05
656.93	337.06
657.27	336.09
657.61	335.05
657.95	334.06
658.29	333.07
658.64	332.14
658.98	331.19
659.32	330.26
659.66	329.38
660.00	328.51
660.34	327.65
660.68	326.75
661.02	325.80
661.36	324.90
661.70	324.05
662.05	323.21
662.39	322.37
662.73	321.62
663.07	320.86
663.41	320.07
663.75	319.26
664.09	318.46
664.43	317.63
664.77	316.88
665.11	316.09
665.45	315.37
665.79	314.64
666.13	313.87
666.47	313.10
666.81	312.32
667.15	311.50
667.49	310.80
667.83	310.16
668.17	309.50
668.51	308.88
668.85	308.28
669.19	307.70
669.53	307.03
669.87	306.34
670.21	305.68
670.55	305.05
670.89	304.51
671.23	303.92
671.57	303.36
671.91	302.82
672.25	302.31
672.58	301.78
672.92	301.18
673.26	300.68
673.60	300.18
673.94	299.69
674.28	299.24
674.62	298.74
674.96	298.19
675.30	297.70
675.64	297.17
675.97	296.63
676.31	296.06
676.65	295.56
676.99	295.12
677.33	294.59
677.67	294.11
678.01	293.55
678.34	293.08
678.68	292.62
679.02	292.10
679.36	291.60
679.70	291.10
680.04	290.64
680.37	290.16
680.71	289.71
681.05	289.27
681.39	288.78
681.73	288.28
682.06	287.79
682.40	287.33
682.74	286.92
683.08	286.55
683.42	286.12
683.75	285.72
684.09	285.24
684.43	284.84
684.77	284.42
685.10	284.05
685.44	283.64
685.78	283.23
686.12	282.86
686.45	282.45
686.79	282.04
687.13	281.65
687.46	281.22
687.80	280.82
688.14	280.38
688.48	280.00
688.81	279.60
689.15	279.25
689.49	278.84
689.82	278.42
690.16	277.96
690.50	277.57
690.83	277.16
691.17	276.77
691.51	276.38
691.84	276.00
692.18	275.58
692.52	275.16
692.85	274.76
693.19	274.40
693.52	274.02
693.86	273.62
694.20	273.24
694.53	272.88
694.87	272.49
695.21	272.11
695.54	271.72
695.88	271.35
696.21	270.94
696.55	270.59
696.88	270.22
697.22	269.86
697.56	269.49
697.89	269.10
698.23	268.74
698.56	268.35
698.90	268.00
699.23	267.61
699.57	267.25
699.90	266.89
700.24	266.50
700.58	266.16
700.91	265.87
701.25	265.63
701.58	265.34
701.92	265.05
702.25	264.73
702.59	264.39
702.92	264.06
703.26	263.72
703.59	263.37
703.93	263.15
704.26	262.84
704.60	262.50
704.93	262.18
705.26	261.85
705.60	261.58
705.93	261.23
706.27	260.96
706.60	260.70
706.94	260.43
707.27	260.10
707.61	259.78
707.94	259.44
708.27	259.02
708.61	258.66
708.94	258.34
709.28	258.04
709.61	257.74
709.94	257.47
710.28	257.22
710.61	256.98
710.95	256.59
711.28	256.40
711.61	256.13
711.95	255.89
712.28	255.61
712.61	255.33
712.95	255.15
713.28	254.94
713.61	254.64
713.95	254.35
714.28	254.11
714.61	253.84
714.95	253.59
715.28	253.35
715.61	253.12
715.95	252.90
716.28	252.67
716.61	252.47
716.95	252.21
717.28	251.97
717.61	251.73
717.94	251.50
718.28	251.18
718.61	250.94
718.94	250.69
719.27	250.48
719.61	250.28
719.94	250.02
720.27	249.73
720.60	249.52
720.94	249.31
721.27	249.11
721.60	248.93
721.93	248.71
722.27	248.55
722.60	248.35
722.93	248.13
723.26	247.93
723.59	247.69
723.93	247.51
724.26	247.32
724.59	247.12
724.92	246.95
725.25	246.81
725.59	246.63
725.92	246.48
726.25	246.30
726.58	246.12
726.91	245.94
727.24	245.79
727.57	245.62
727.91	245.44
728.24	245.29
728.57	245.10
728.90	244.95
729.23	244.74
729.56	244.63
729.89	244.46
730.22	244.28
730.55	244.13
730.89	243.97
731.22	243.80
731.55	243.64
731.88	243.49
732.21	243.31
732.54	243.16
732.87	243.00
733.20	242.85
733.53	242.70
733.86	242.56
734.19	242.39
734.52	242.26
734.85	242.20
735.18	242.03
735.51	241.92
735.84	241.79
736.17	241.69
736.50	241.49
736.83	241.50
737.16	241.38
737.49	241.25
737.82	241.11
738.15	241.00
738.48	240.87
738.81	240.73
739.14	240.59
739.47	240.45
739.80	240.31
740.13	240.19
740.46	240.05
740.79	239.91
741.12	239.78
741.45	239.63
741.78	239.43
742.11	239.35
742.44	239.20
742.77	239.09
743.10	238.94
743.43	238.82
743.75	238.57
744.08	238.65
744.41	238.52
744.74	238.41
745.07	238.26
745.40	238.18
745.73	238.13
746.06	238.03
746.39	237.94
746.71	237.84
747.04	237.72
747.37	237.62
747.70	237.55
748.03	237.46
748.36	237.38
748.68	237.29
749.01	237.16
749.34	237.06
749.67	236.97
750.00	236.90
750.33	236.89
750.65	236.81
750.98	236.53
751.31	236.44
751.64	236.37
751.97	236.34
752.29	236.24
752.62	236.09
752.95	236.00
753.28	235.89
753.60	235.80
753.93	235.74
754.26	235.66
754.59	235.52
754.91	235.42
755.24	235.32
755.57	235.29
755.90	235.21
756.22	235.11
756.55	235.00
756.88	234.90
757.20	234.74
757.53	234.62
757.86	234.53
758.19	234.46
758.51	234.37
758.84	234.24
759.17	234.15
759.49	234.08
759.82	234.07
760.15	234.01
760.47	233.93
760.80	233.83
761.13	233.78
761.45	233.72
761.78	233.66
762.11	233.60
762.43	233.47
762.76	233.40
763.08	233.35
763.41	233.30
763.74	233.25
764.06	233.19
764.39	233.14
764.71	233.08
765.04	233.02
765.37	232.96
765.69	232.90
766.02	232.84
766.34	232.78
766.67	232.67
767.00	232.64
767.32	232.66
767.65	232.68
767.97	232.62
768.30	232.58
768.62	232.53
768.95	232.46
769.27	232.41
769.60	232.38
769.92	232.31
770.25	232.24
770.57	232.17
770.90	232.12
771.22	232.06
771.55	232.01
771.87	231.97
772.20	231.92
772.52	231.98
772.85	232.08
773.17	232.04
773.50	231.99
773.82	231.93
774.15	231.82
774.47	231.70
774.80	231.65
775.12	231.61
775.45	231.57
775.77	231.54
776.09	231.51
776.42	231.47
776.74	231.47
777.07	231.43
777.39	231.40
777.72	231.36
778.04	231.35
778.36	231.31
778.69	231.27
779.01	231.26
779.33	231.12
779.66	230.94
779.98	230.90
780.31	230.88
780.63	230.89
780.95	230.88
781.28	230.85
781.60	230.82
781.92	230.79
782.25	230.76
782.57	230.72
782.89	230.69
783.22	230.65
783.54	230.60
783.86	230.58
784.19	230.55
784.51	230.56
784.83	230.52
785.16	230.49
785.48	230.47
785.80	230.44
786.12	230.43
786.45	230.40
786.77	230.38
787.09	230.35
787.42	230.27
787.74	230.25
788.06	230.23
788.38	230.20
788.71	230.18
789.03	230.16
789.35	230.16
789.67	230.12
789.99	230.11
790.32	230.08
790.64	230.07
790.96	230.16
791.28	230.10
791.61	230.07
791.93	230.06
792.25	230.04
792.57	230.10
792.89	230.06
793.21	230.05
793.54	230.02
793.86	230.00
794.18	229.99
794.50	229.95
794.82	229.93
795.14	229.93
795.47	229.93
795.79	229.91
796.11	229.86
796.43	229.84
796.75	229.82
797.07	229.81
797.39	229.78
797.71	229.66
798.04	229.65
798.36	229.65
798.68	229.63
799.00	229.62
799.32	229.54
799.64	229.54
799.96	229.52
800.28	229.53
800.60	229.51
800.92	229.50
801.24	229.48
801.56	229.47
801.89	229.45
802.21	229.44
802.53	229.41
802.85	229.43
803.17	229.47
803.49	229.43
803.81	229.40
804.13	229.38
804.45	229.36
804.77	229.35
805.09	229.34
805.41	229.32
805.73	229.29
806.05	229.23
806.37	229.21
806.69	229.18
807.01	229.16
807.33	229.15
807.65	229.10
807.97	229.14
808.28	229.11
808.60	229.09
808.92	229.06
809.24	229.13
809.56	229.09
809.88	229.03
810.20	229.03
810.52	229.04
810.84	229.01
811.16	228.99
811.48	228.97
811.80	228.99
812.12	228.98
812.43	228.99
812.75	228.99
813.07	228.97
813.39	228.97
813.71	228.94
814.03	228.92
814.35	228.92
814.67	228.86
814.98	228.85
815.30	228.84
815.62	228.81
815.94	228.71
816.26	228.71
816.58	228.69
816.89	228.69
817.21	228.65
817.53	228.65
817.85	228.65
818.17	228.64
818.48	228.58
