SpectraSuite Data File
++++++++++++++++++++++++++++++++++++
Date: Fri Oct 02 18:23:37 EDT 2015
User: lab3
Dark Spectrum Present: No
Reference Spectrum Present: No
Number of Sampled Component Spectra: 1
Spectrometers: USB2E7196
Integration Time (usec): 46000 (USB2E7196)
Spectra Averaged: 1500 (USB2E7196)
Boxcar Smoothing: 10 (USB2E7196)
Correct for Electrical Dark: No (USB2E7196)
Strobe/Lamp Enabled: No (USB2E7196)
Correct for Detector Non-linearity: No (USB2E7196)
Correct for Stray Light: No (USB2E7196)
Number of Pixels in Processed Spectrum: 2048
>>>>>Begin Processed Spectral Data<<<<<
339.09	0.00
339.48	215.84
339.86	217.11
340.24	218.55
340.63	219.86
341.01	223.11
341.39	222.82
341.78	224.15
342.16	225.29
342.54	225.71
342.93	214.03
343.31	224.85
343.69	225.38
344.07	225.85
344.46	226.28
344.84	226.67
345.22	226.89
345.60	227.14
345.99	227.32
346.37	227.44
346.75	227.54
347.13	227.62
347.52	227.69
347.90	227.78
348.28	227.81
348.66	227.87
349.05	227.86
349.43	227.91
349.81	227.97
350.19	228.03
350.57	228.09
350.96	228.18
351.34	228.26
351.72	228.35
352.10	228.46
352.48	228.53
352.87	228.58
353.25	228.64
353.63	228.70
354.01	228.76
354.39	228.84
354.77	228.92
355.15	229.02
355.54	229.07
355.92	229.09
356.30	229.17
356.68	229.31
357.06	229.39
357.44	229.43
357.82	229.48
358.20	229.59
358.58	229.64
358.97	229.69
359.35	229.77
359.73	229.84
360.11	229.88
360.49	229.93
360.87	229.98
361.25	230.05
361.63	230.15
362.01	230.21
362.39	230.24
362.77	230.28
363.15	230.30
363.53	230.33
363.91	230.37
364.29	230.40
364.67	230.30
365.05	230.33
365.43	230.37
365.81	230.40
366.19	230.42
366.57	230.48
366.95	230.49
367.33	230.47
367.71	230.47
368.09	230.50
368.47	230.49
368.85	230.48
369.23	230.49
369.61	230.42
369.99	230.43
370.37	230.44
370.75	230.52
371.13	230.50
371.51	230.46
371.89	230.45
372.27	230.42
372.65	230.41
373.03	230.36
373.41	230.32
373.78	230.28
374.16	230.18
374.54	230.09
374.92	230.04
375.30	230.00
375.68	229.93
376.06	229.89
376.44	229.84
376.82	229.80
377.19	229.75
377.57	229.70
377.95	229.62
378.33	229.55
378.71	229.38
379.09	229.34
379.47	229.30
379.84	229.24
380.22	229.16
380.60	229.09
380.98	229.05
381.36	228.99
381.73	228.92
382.11	228.89
382.49	228.86
382.87	228.81
383.25	228.77
383.62	228.86
384.00	228.79
384.38	228.74
384.76	228.73
385.13	228.73
385.51	228.70
385.89	228.64
386.27	228.60
386.64	228.58
387.02	228.54
387.40	228.49
387.78	228.46
388.15	228.43
388.53	228.41
388.91	228.38
389.29	228.36
389.66	228.35
390.04	228.32
390.42	228.32
390.79	228.30
391.17	228.28
391.55	228.13
391.92	228.12
392.30	228.12
392.68	228.09
393.05	228.06
393.43	228.04
393.81	228.05
394.18	228.03
394.56	228.04
394.94	228.07
395.31	228.08
395.69	228.12
396.06	228.15
396.44	228.17
396.82	228.18
397.19	228.27
397.57	228.28
397.95	228.33
398.32	228.31
398.70	228.35
399.07	228.42
399.45	228.46
399.82	228.50
400.20	228.53
400.58	228.59
400.95	228.60
401.33	228.69
401.70	228.84
402.08	228.95
402.45	229.03
402.83	229.14
403.20	229.25
403.58	229.34
403.95	229.48
404.33	229.62
404.71	229.74
405.08	229.94
405.46	230.10
405.83	230.28
406.21	230.46
406.58	230.66
406.96	230.87
407.33	231.10
407.70	231.37
408.08	231.75
408.45	232.06
408.83	232.40
409.20	232.71
409.58	233.00
409.95	233.38
410.33	233.80
410.70	234.18
411.08	234.66
411.45	235.15
411.82	235.65
412.20	236.23
412.57	236.92
412.95	237.45
413.32	238.15
413.69	238.87
414.07	239.64
414.44	240.47
414.82	241.33
415.19	242.33
415.56	243.33
415.94	244.36
416.31	245.53
416.68	246.71
417.06	248.07
417.43	249.35
417.81	250.80
418.18	252.30
418.55	253.94
418.93	255.62
419.30	257.39
419.67	259.26
420.04	261.17
420.42	263.17
420.79	265.49
421.16	267.82
421.54	270.20
421.91	272.68
422.28	275.25
422.66	278.02
423.03	280.67
423.40	283.44
423.77	286.39
424.15	289.43
424.52	292.60
424.89	296.03
425.26	299.42
425.64	302.58
426.01	306.14
426.38	309.77
426.75	313.52
427.13	317.36
427.50	321.39
427.87	325.58
428.24	329.81
428.61	333.88
428.99	338.26
429.36	343.08
429.73	347.69
430.10	352.29
430.47	356.99
430.85	361.83
431.22	367.06
431.59	372.43
431.96	377.67
432.33	383.48
432.70	389.01
433.08	395.55
433.45	401.74
433.82	407.83
434.19	414.63
434.56	421.34
434.93	427.81
435.30	434.21
435.68	441.46
436.05	448.54
436.42	455.60
436.79	462.04
437.16	468.98
437.53	476.43
437.90	483.88
438.27	491.17
438.64	499.05
439.01	506.15
439.38	512.66
439.75	518.93
440.13	525.99
440.50	532.68
440.87	537.99
441.24	543.79
441.61	550.15
441.98	554.75
442.35	560.22
442.72	565.79
443.09	571.09
443.46	574.41
443.83	576.82
444.20	578.80
444.57	581.82
444.94	583.47
445.31	585.18
445.68	586.62
446.05	587.60
446.42	587.09
446.79	586.42
447.16	585.79
447.53	585.20
447.90	582.80
448.27	580.47
448.64	577.06
449.01	574.65
449.37	569.94
449.74	565.68
450.11	560.24
450.48	554.31
450.85	548.39
451.22	543.31
451.59	538.34
451.96	533.87
452.33	527.39
452.70	521.66
453.07	514.67
453.43	507.72
453.80	500.98
454.17	494.55
454.54	488.62
454.91	481.96
455.28	475.70
455.65	469.81
456.02	463.61
456.38	458.60
456.75	452.15
457.12	446.97
457.49	441.75
457.86	436.83
458.23	432.55
458.59	427.79
458.96	422.92
459.33	418.65
459.70	414.30
460.07	411.02
460.43	407.14
460.80	403.53
461.17	400.40
461.54	397.00
461.91	393.82
462.27	390.60
462.64	388.01
463.01	385.01
463.38	381.98
463.74	379.24
464.11	376.84
464.48	374.71
464.85	372.37
465.21	370.61
465.58	368.63
465.95	366.34
466.32	364.54
466.68	362.77
467.05	360.98
467.42	359.23
467.78	357.34
468.15	355.60
468.52	354.34
468.88	352.62
469.25	351.05
469.62	349.82
469.98	348.46
470.35	347.26
470.72	346.17
471.08	345.05
471.45	344.12
471.82	343.08
472.18	341.97
472.55	341.26
472.92	340.36
473.28	339.66
473.65	338.89
474.02	338.17
474.38	337.56
474.75	337.22
475.11	336.72
475.48	336.49
475.85	336.23
476.21	336.09
476.58	336.01
476.94	336.15
477.31	336.22
477.67	336.31
478.04	336.50
478.41	336.78
478.77	337.19
479.14	337.44
479.50	337.93
479.87	338.56
480.23	339.19
480.60	339.81
480.96	340.45
481.33	341.39
481.69	342.33
482.06	343.26
482.42	344.12
482.79	345.17
483.15	346.39
483.52	347.80
483.88	349.12
484.25	350.55
484.61	352.04
484.98	353.66
485.34	355.48
485.71	357.39
486.07	359.42
486.44	361.45
486.80	363.72
487.17	366.09
487.53	368.64
487.90	371.35
488.26	374.28
488.62	377.37
488.99	380.46
489.35	383.74
489.72	387.27
490.08	391.01
490.44	394.86
490.81	398.86
491.17	402.96
491.54	407.39
491.90	411.97
492.26	416.84
492.63	421.95
492.99	427.28
493.36	432.78
493.72	438.59
494.08	444.56
494.45	450.89
494.81	457.45
495.17	464.22
495.54	471.36
495.90	478.78
496.26	486.38
496.63	494.23
496.99	502.36
497.35	510.91
497.72	519.70
498.08	528.70
498.44	538.03
498.80	547.92
499.17	558.05
499.53	568.46
499.89	579.28
500.26	590.30
500.62	601.63
500.98	613.56
501.34	625.68
501.71	638.30
502.07	651.11
502.43	664.46
502.79	678.01
503.16	691.99
503.52	706.19
503.88	720.80
504.24	735.87
504.60	751.14
504.97	766.91
505.33	783.08
505.69	800.17
506.05	817.53
506.41	834.83
506.78	852.36
507.14	870.41
507.50	888.87
507.86	907.69
508.22	926.73
508.59	945.63
508.95	965.37
509.31	985.82
509.67	1006.91
510.03	1028.01
510.39	1049.25
510.75	1070.70
511.12	1092.40
511.48	1114.23
511.84	1136.17
512.20	1158.55
512.56	1181.71
512.92	1204.92
513.28	1227.77
513.64	1250.98
514.00	1274.60
514.37	1298.47
514.73	1322.40
515.09	1346.23
515.45	1370.41
515.81	1394.72
516.17	1419.24
516.53	1443.21
516.89	1467.10
517.25	1491.24
517.61	1515.30
517.97	1539.79
518.33	1563.82
518.69	1587.81
519.05	1612.38
519.41	1637.18
519.77	1662.07
520.13	1686.40
520.49	1710.63
520.85	1735.24
521.21	1759.28
521.57	1783.82
521.93	1807.90
522.29	1832.44
522.65	1856.52
523.01	1880.58
523.37	1904.31
523.73	1928.70
524.09	1952.88
524.45	1976.83
524.81	2000.44
525.17	2023.88
525.53	2046.73
525.89	2070.05
526.25	2093.41
526.61	2115.74
526.97	2138.24
527.33	2160.79
527.68	2182.92
528.04	2204.38
528.40	2224.82
528.76	2245.79
529.12	2266.13
529.48	2286.12
529.84	2304.44
530.20	2323.45
530.56	2341.82
530.91	2360.37
531.27	2378.57
531.63	2395.95
531.99	2413.00
532.35	2429.37
532.71	2445.81
533.07	2462.87
533.42	2478.20
533.78	2494.52
534.14	2511.04
534.50	2526.50
534.86	2541.82
535.21	2555.28
535.57	2569.22
535.93	2583.03
536.29	2595.55
536.65	2608.08
537.00	2619.95
537.36	2632.66
537.72	2643.79
538.08	2654.58
538.44	2664.76
538.79	2674.54
539.15	2683.41
539.51	2691.87
539.87	2699.60
540.22	2705.62
540.58	2711.76
540.94	2719.09
541.29	2724.72
541.65	2728.60
542.01	2731.91
542.37	2734.51
542.72	2738.47
543.08	2740.74
543.44	2743.54
543.79	2745.30
544.15	2746.13
544.51	2747.44
544.87	2747.62
545.22	2747.06
545.58	2745.84
545.94	2744.56
546.29	2741.98
546.65	2739.52
547.01	2737.02
547.36	2735.30
547.72	2733.40
548.07	2729.86
548.43	2724.81
548.79	2718.91
549.14	2714.34
549.50	2709.91
549.86	2704.54
550.21	2698.04
550.57	2692.47
550.92	2684.62
551.28	2677.43
551.64	2670.54
551.99	2663.01
552.35	2654.92
552.70	2647.17
553.06	2639.62
553.41	2631.45
553.77	2623.07
554.13	2614.55
554.48	2605.15
554.84	2594.55
555.19	2584.66
555.55	2574.63
555.90	2564.58
556.26	2555.06
556.61	2544.45
556.97	2532.20
557.32	2520.49
557.68	2508.70
558.03	2496.72
558.39	2485.89
558.74	2475.28
559.10	2462.96
559.45	2451.02
559.81	2439.63
560.16	2427.50
560.52	2415.64
560.87	2404.08
561.23	2391.67
561.58	2379.50
561.94	2366.84
562.29	2353.62
562.64	2341.07
563.00	2328.23
563.35	2315.92
563.71	2303.36
564.06	2290.57
564.42	2278.58
564.77	2265.94
565.12	2253.17
565.48	2240.32
565.83	2227.52
566.19	2214.77
566.54	2201.96
566.89	2187.96
567.25	2174.18
567.60	2161.70
567.96	2148.37
568.31	2133.67
568.66	2119.77
569.02	2106.92
569.37	2094.05
569.72	2081.70
570.08	2068.03
570.43	2054.07
570.78	2039.81
571.14	2024.93
571.49	2010.76
571.84	1997.15
572.20	1982.20
572.55	1967.64
572.90	1952.84
573.26	1938.04
573.61	1922.71
573.96	1907.85
574.31	1893.28
574.67	1878.67
575.02	1863.09
575.37	1847.59
575.72	1832.97
576.08	1818.63
576.43	1803.08
576.78	1787.98
577.13	1773.23
577.49	1758.81
577.84	1744.94
578.19	1730.10
578.54	1715.49
578.90	1700.35
579.25	1685.11
579.60	1671.51
579.95	1657.68
580.30	1643.76
580.66	1629.61
581.01	1615.36
581.36	1601.11
581.71	1587.86
582.06	1574.44
582.42	1561.30
582.77	1548.13
583.12	1534.89
583.47	1521.57
583.82	1508.34
584.17	1494.79
584.53	1480.84
584.88	1467.26
585.23	1453.26
585.58	1440.17
585.93	1427.25
586.28	1415.16
586.63	1403.02
586.98	1390.36
587.34	1377.75
587.69	1364.86
588.04	1352.31
588.39	1340.18
588.74	1328.17
589.09	1315.93
589.44	1303.30
589.79	1291.27
590.14	1279.41
590.49	1267.46
590.84	1255.59
591.19	1244.21
591.54	1232.62
591.89	1221.18
592.25	1209.89
592.60	1198.27
592.95	1187.04
593.30	1176.04
593.65	1164.65
594.00	1153.38
594.35	1142.71
594.70	1131.69
595.05	1121.55
595.40	1111.26
595.75	1100.80
596.10	1090.92
596.45	1080.71
596.80	1070.82
597.15	1060.76
597.50	1050.80
597.85	1041.23
598.19	1031.54
598.54	1021.91
598.89	1012.70
599.24	1003.82
599.59	994.79
599.94	986.68
600.29	978.31
600.64	969.63
600.99	960.62
601.34	952.00
601.69	943.05
602.04	934.74
602.39	926.30
602.74	917.86
603.08	909.42
603.43	900.91
603.78	892.61
604.13	884.50
604.48	876.32
604.83	868.34
605.18	860.31
605.53	852.41
605.87	844.28
606.22	836.57
606.57	828.74
606.92	820.77
607.27	812.72
607.62	805.09
607.96	797.85
608.31	791.04
608.66	784.06
609.01	777.35
609.36	770.74
609.70	763.82
610.05	756.99
610.40	750.37
610.75	743.79
611.10	737.52
611.44	731.08
611.79	724.76
612.14	718.36
612.49	712.06
612.83	706.07
613.18	700.21
613.53	694.20
613.88	688.26
614.22	682.78
614.57	677.22
614.92	671.44
615.27	665.83
615.61	660.25
615.96	654.72
616.31	649.19
616.65	643.74
617.00	638.58
617.35	633.45
617.70	628.42
618.04	623.36
618.39	618.26
618.74	613.44
619.08	608.64
619.43	603.96
619.78	599.31
620.12	594.59
620.47	590.08
620.82	585.66
621.16	581.25
621.51	576.68
621.85	572.22
622.20	567.95
622.55	563.67
622.89	559.47
623.24	555.25
623.59	551.12
623.93	547.14
624.28	543.23
624.62	539.42
624.97	535.65
625.32	531.90
625.66	528.03
626.01	524.16
626.35	520.37
626.70	516.64
627.04	513.05
627.39	509.44
627.73	506.00
628.08	502.65
628.43	499.28
628.77	496.04
629.12	492.85
629.46	489.69
629.81	486.45
630.15	483.22
630.50	480.11
630.84	477.04
631.19	474.02
631.53	471.08
631.88	468.15
632.22	465.22
632.57	462.56
632.91	459.97
633.26	457.45
633.60	454.94
633.95	452.49
634.29	449.99
634.64	447.52
634.98	444.83
635.32	442.34
635.67	440.03
636.01	437.64
636.36	435.31
636.70	433.13
637.05	430.93
637.39	428.77
637.73	426.63
638.08	424.62
638.42	422.55
638.77	420.37
639.11	418.12
639.45	415.97
639.80	413.78
640.14	411.68
640.49	409.56
640.83	407.42
641.17	405.40
641.52	403.38
641.86	401.39
642.20	399.64
642.55	397.70
642.89	395.80
643.23	393.98
643.58	392.34
643.92	390.54
644.26	388.83
644.61	387.17
644.95	385.45
645.29	383.66
645.64	381.91
645.98	380.22
646.32	378.70
646.66	377.14
647.01	375.60
647.35	374.11
647.69	372.60
648.04	371.25
648.38	369.77
648.72	368.35
649.06	366.92
649.41	365.49
649.75	364.13
650.09	362.77
650.43	361.43
650.78	360.02
651.12	358.67
651.46	357.35
651.80	356.06
652.14	354.81
652.49	353.61
652.83	352.40
653.17	351.22
653.51	350.06
653.85	348.97
654.20	347.81
654.54	346.60
654.88	345.46
655.22	344.35
655.56	343.23
655.90	342.17
656.25	341.15
656.59	340.09
656.93	339.11
657.27	338.14
657.61	337.10
657.95	336.09
658.29	335.09
658.64	334.15
658.98	333.20
659.32	332.27
659.66	331.40
660.00	330.53
660.34	329.67
660.68	328.76
661.02	327.82
661.36	326.91
661.70	326.04
662.05	325.20
662.39	324.35
662.73	323.59
663.07	322.80
663.41	322.01
663.75	321.21
664.09	320.41
664.43	319.57
664.77	318.82
665.11	318.02
665.45	317.30
665.79	316.57
666.13	315.80
666.47	315.00
666.81	314.20
667.15	313.37
667.49	312.64
667.83	311.99
668.17	311.31
668.51	310.68
668.85	310.07
669.19	309.49
669.53	308.81
669.87	308.11
670.21	307.45
670.55	306.82
670.89	306.27
671.23	305.67
671.57	305.08
671.91	304.54
672.25	304.02
672.58	303.49
672.92	302.88
673.26	302.37
673.60	301.85
673.94	301.36
674.28	300.90
674.62	300.39
674.96	299.83
675.30	299.33
675.64	298.78
675.97	298.23
676.31	297.65
676.65	297.12
676.99	296.67
677.33	296.13
677.67	295.63
678.01	295.06
678.34	294.56
678.68	294.10
679.02	293.56
679.36	293.05
679.70	292.52
680.04	292.05
680.37	291.55
680.71	291.09
681.05	290.63
681.39	290.13
681.73	289.61
682.06	289.10
682.40	288.63
682.74	288.21
683.08	287.81
683.42	287.37
683.75	286.96
684.09	286.47
684.43	286.05
684.77	285.60
685.10	285.22
685.44	284.80
685.78	284.37
686.12	283.98
686.45	283.57
686.79	283.15
687.13	282.74
687.46	282.30
687.80	281.90
688.14	281.44
688.48	281.05
688.81	280.64
689.15	280.29
689.49	279.87
689.82	279.46
690.16	278.97
690.50	278.58
690.83	278.17
691.17	277.76
691.51	277.35
691.84	276.98
692.18	276.55
692.52	276.13
692.85	275.72
693.19	275.35
693.52	274.96
693.86	274.55
694.20	274.17
694.53	273.80
694.87	273.39
695.21	273.00
695.54	272.60
695.88	272.21
696.21	271.79
696.55	271.42
696.88	271.05
697.22	270.68
697.56	270.30
697.89	269.88
698.23	269.51
698.56	269.10
698.90	268.73
699.23	268.34
699.57	267.96
699.90	267.58
700.24	267.19
700.58	266.85
700.91	266.55
701.25	266.30
701.58	266.00
701.92	265.70
702.25	265.38
702.59	265.04
702.92	264.71
703.26	264.37
703.59	264.01
703.93	263.77
704.26	263.45
704.60	263.10
704.93	262.77
705.26	262.43
705.60	262.16
705.93	261.80
706.27	261.53
706.60	261.27
706.94	261.00
707.27	260.67
707.61	260.34
707.94	259.99
708.27	259.56
708.61	259.19
708.94	258.86
709.28	258.55
709.61	258.25
709.94	257.97
710.28	257.70
710.61	257.46
710.95	257.06
711.28	256.86
711.61	256.60
711.95	256.37
712.28	256.09
712.61	255.79
712.95	255.61
713.28	255.39
713.61	255.08
713.95	254.78
714.28	254.52
714.61	254.25
714.95	254.00
715.28	253.76
715.61	253.52
715.95	253.30
716.28	253.06
716.61	252.85
716.95	252.59
717.28	252.35
717.61	252.09
717.94	251.86
718.28	251.54
718.61	251.31
718.94	251.05
719.27	250.83
719.61	250.62
719.94	250.35
720.27	250.06
720.60	249.84
720.94	249.63
721.27	249.43
721.60	249.24
721.93	249.03
722.27	248.85
722.60	248.66
722.93	248.42
723.26	248.21
723.59	247.97
723.93	247.78
724.26	247.59
724.59	247.40
724.92	247.23
725.25	247.08
725.59	246.90
725.92	246.74
726.25	246.56
726.58	246.37
726.91	246.18
727.24	246.02
727.57	245.85
727.91	245.66
728.24	245.50
728.57	245.32
728.90	245.15
729.23	244.94
729.56	244.82
729.89	244.66
730.22	244.48
730.55	244.33
730.89	244.17
731.22	243.99
731.55	243.84
731.88	243.66
732.21	243.46
732.54	243.31
732.87	243.15
733.20	243.00
733.53	242.85
733.86	242.71
734.19	242.55
734.52	242.41
734.85	242.35
735.18	242.18
735.51	242.07
735.84	241.93
736.17	241.82
736.50	241.62
736.83	241.62
737.16	241.50
737.49	241.37
737.82	241.24
738.15	241.14
738.48	241.00
738.81	240.88
739.14	240.75
739.47	240.60
739.80	240.47
740.13	240.35
740.46	240.22
740.79	240.08
741.12	239.95
741.45	239.81
741.78	239.61
742.11	239.52
742.44	239.36
742.77	239.26
743.10	239.12
743.43	239.00
743.75	238.76
744.08	238.83
744.41	238.71
744.74	238.58
745.07	238.44
745.40	238.35
745.73	238.29
746.06	238.19
746.39	238.10
746.71	237.99
747.04	237.88
747.37	237.77
747.70	237.70
748.03	237.60
748.36	237.52
748.68	237.43
749.01	237.30
749.34	237.21
749.67	237.11
750.00	237.03
750.33	237.02
750.65	236.93
750.98	236.65
751.31	236.55
751.64	236.47
751.97	236.45
752.29	236.34
752.62	236.20
752.95	236.10
753.28	235.99
753.60	235.90
753.93	235.83
754.26	235.75
754.59	235.61
754.91	235.52
755.24	235.41
755.57	235.39
755.90	235.30
756.22	235.20
756.55	235.10
756.88	234.99
757.20	234.82
757.53	234.71
757.86	234.62
758.19	234.55
758.51	234.46
758.84	234.32
759.17	234.22
759.49	234.14
759.82	234.13
760.15	234.07
760.47	233.99
760.80	233.89
761.13	233.84
761.45	233.78
761.78	233.72
762.11	233.66
762.43	233.52
762.76	233.45
763.08	233.42
763.41	233.36
763.74	233.31
764.06	233.24
764.39	233.19
764.71	233.14
765.04	233.06
765.37	233.00
765.69	232.95
766.02	232.90
766.34	232.84
766.67	232.74
767.00	232.71
767.32	232.72
767.65	232.75
767.97	232.68
768.30	232.63
768.62	232.57
768.95	232.50
769.27	232.45
769.60	232.42
769.92	232.33
770.25	232.26
770.57	232.19
770.90	232.14
771.22	232.08
771.55	232.04
771.87	232.00
772.20	231.95
772.52	232.00
772.85	232.11
773.17	232.08
773.50	232.02
773.82	231.95
774.15	231.84
774.47	231.72
774.80	231.66
775.12	231.62
775.45	231.58
775.77	231.56
776.09	231.53
776.42	231.49
776.74	231.51
777.07	231.47
777.39	231.45
777.72	231.41
778.04	231.39
778.36	231.35
778.69	231.31
779.01	231.29
779.33	231.15
779.66	230.97
779.98	230.92
780.31	230.90
780.63	230.93
780.95	230.92
781.28	230.89
781.60	230.85
781.92	230.82
782.25	230.78
782.57	230.74
782.89	230.70
783.22	230.67
783.54	230.62
783.86	230.60
784.19	230.57
784.51	230.58
784.83	230.55
785.16	230.52
785.48	230.50
785.80	230.47
786.12	230.46
786.45	230.44
786.77	230.43
787.09	230.40
787.42	230.32
787.74	230.31
788.06	230.30
788.38	230.28
788.71	230.25
789.03	230.25
789.35	230.24
789.67	230.21
789.99	230.19
790.32	230.15
790.64	230.14
790.96	230.23
791.28	230.16
791.61	230.14
791.93	230.12
792.25	230.09
792.57	230.16
792.89	230.12
793.21	230.11
793.54	230.07
793.86	230.03
794.18	230.01
794.50	229.98
794.82	229.95
795.14	229.95
795.47	229.95
795.79	229.92
796.11	229.87
796.43	229.86
796.75	229.85
797.07	229.84
797.39	229.83
797.71	229.70
798.04	229.70
798.36	229.69
798.68	229.67
799.00	229.66
799.32	229.58
799.64	229.58
799.96	229.56
800.28	229.57
800.60	229.55
800.92	229.55
801.24	229.52
801.56	229.51
801.89	229.48
802.21	229.47
802.53	229.44
802.85	229.45
803.17	229.49
803.49	229.45
803.81	229.42
804.13	229.40
804.45	229.36
804.77	229.36
805.09	229.34
805.41	229.31
805.73	229.28
806.05	229.24
806.37	229.21
806.69	229.19
807.01	229.16
807.33	229.17
807.65	229.11
807.97	229.15
808.28	229.13
808.60	229.12
808.92	229.08
809.24	229.15
809.56	229.12
809.88	229.07
810.20	229.05
810.52	229.06
810.84	229.03
811.16	229.01
811.48	228.99
811.80	229.02
812.12	229.00
812.43	229.01
812.75	228.99
813.07	228.97
813.39	228.97
813.71	228.95
814.03	228.92
814.35	228.92
814.67	228.86
814.98	228.84
815.30	228.83
815.62	228.80
815.94	228.71
816.26	228.71
816.58	228.68
816.89	228.69
817.21	228.65
817.53	228.66
817.85	228.65
818.17	228.65
818.48	228.60
