SpectraSuite Data File
++++++++++++++++++++++++++++++++++++
Date: Fri Oct 02 17:57:41 EDT 2015
User: lab3
Dark Spectrum Present: No
Reference Spectrum Present: No
Number of Sampled Component Spectra: 1
Spectrometers: USB2E7196
Integration Time (usec): 46000 (USB2E7196)
Spectra Averaged: 1500 (USB2E7196)
Boxcar Smoothing: 10 (USB2E7196)
Correct for Electrical Dark: No (USB2E7196)
Strobe/Lamp Enabled: No (USB2E7196)
Correct for Detector Non-linearity: No (USB2E7196)
Correct for Stray Light: No (USB2E7196)
Number of Pixels in Processed Spectrum: 2048
>>>>>Begin Processed Spectral Data<<<<<
339.09	0.00
339.48	215.95
339.86	217.37
340.24	218.81
340.63	220.24
341.01	223.44
341.39	222.86
341.78	224.19
342.16	225.54
342.54	225.88
342.93	214.24
343.31	225.06
343.69	225.60
344.07	226.06
344.46	226.49
344.84	226.88
345.22	227.09
345.60	227.35
345.99	227.55
346.37	227.68
346.75	227.78
347.13	227.86
347.52	227.94
347.90	228.03
348.28	228.07
348.66	228.12
349.05	228.12
349.43	228.18
349.81	228.23
350.19	228.28
350.57	228.36
350.96	228.45
351.34	228.54
351.72	228.63
352.10	228.73
352.48	228.81
352.87	228.85
353.25	228.93
353.63	228.99
354.01	229.05
354.39	229.13
354.77	229.22
355.15	229.33
355.54	229.37
355.92	229.40
356.30	229.48
356.68	229.63
357.06	229.70
357.44	229.76
357.82	229.82
358.20	229.94
358.58	229.99
358.97	230.06
359.35	230.15
359.73	230.23
360.11	230.28
360.49	230.34
360.87	230.39
361.25	230.45
361.63	230.54
362.01	230.59
362.39	230.60
362.77	230.65
363.15	230.67
363.53	230.71
363.91	230.74
364.29	230.76
364.67	230.67
365.05	230.70
365.43	230.74
365.81	230.77
366.19	230.79
366.57	230.85
366.95	230.86
367.33	230.83
367.71	230.83
368.09	230.86
368.47	230.85
368.85	230.83
369.23	230.84
369.61	230.78
369.99	230.80
370.37	230.82
370.75	230.89
371.13	230.85
371.51	230.81
371.89	230.80
372.27	230.77
372.65	230.75
373.03	230.70
373.41	230.64
373.78	230.59
374.16	230.49
374.54	230.41
374.92	230.35
375.30	230.31
375.68	230.24
376.06	230.19
376.44	230.13
376.82	230.11
377.19	230.07
377.57	230.03
377.95	229.93
378.33	229.86
378.71	229.70
379.09	229.66
379.47	229.63
379.84	229.56
380.22	229.50
380.60	229.43
380.98	229.38
381.36	229.33
381.73	229.27
382.11	229.24
382.49	229.20
382.87	229.13
383.25	229.09
383.62	229.19
384.00	229.12
384.38	229.08
384.76	229.06
385.13	229.04
385.51	229.00
385.89	228.96
386.27	228.92
386.64	228.91
387.02	228.86
387.40	228.81
387.78	228.78
388.15	228.75
388.53	228.71
388.91	228.68
389.29	228.65
389.66	228.64
390.04	228.60
390.42	228.59
390.79	228.57
391.17	228.54
391.55	228.38
391.92	228.37
392.30	228.37
392.68	228.32
393.05	228.30
393.43	228.29
393.81	228.30
394.18	228.29
394.56	228.28
394.94	228.31
395.31	228.31
395.69	228.36
396.06	228.39
396.44	228.41
396.82	228.42
397.19	228.49
397.57	228.50
397.95	228.54
398.32	228.53
398.70	228.58
399.07	228.65
399.45	228.69
399.82	228.74
400.20	228.77
400.58	228.83
400.95	228.85
401.33	228.93
401.70	229.08
402.08	229.18
402.45	229.27
402.83	229.37
403.20	229.49
403.58	229.57
403.95	229.72
404.33	229.86
404.71	230.00
405.08	230.21
405.46	230.37
405.83	230.54
406.21	230.73
406.58	230.95
406.96	231.15
407.33	231.38
407.70	231.66
408.08	232.03
408.45	232.35
408.83	232.69
409.20	233.00
409.58	233.28
409.95	233.67
410.33	234.09
410.70	234.48
411.08	234.95
411.45	235.45
411.82	235.95
412.20	236.53
412.57	237.22
412.95	237.75
413.32	238.47
413.69	239.19
414.07	239.95
414.44	240.79
414.82	241.64
415.19	242.64
415.56	243.64
415.94	244.68
416.31	245.85
416.68	247.02
417.06	248.39
417.43	249.66
417.81	251.12
418.18	252.63
418.55	254.26
418.93	255.96
419.30	257.72
419.67	259.59
420.04	261.52
420.42	263.54
420.79	265.86
421.16	268.20
421.54	270.60
421.91	273.10
422.28	275.69
422.66	278.48
423.03	281.15
423.40	283.94
423.77	286.93
424.15	290.00
424.52	293.21
424.89	296.66
425.26	300.10
425.64	303.31
426.01	306.89
426.38	310.59
426.75	314.37
427.13	318.28
427.50	322.37
427.87	326.62
428.24	330.91
428.61	335.04
428.99	339.50
429.36	344.39
429.73	349.07
430.10	353.78
430.47	358.60
430.85	363.55
431.22	368.87
431.59	374.34
431.96	379.70
432.33	385.63
432.70	391.28
433.08	397.95
433.45	404.27
433.82	410.50
434.19	417.45
434.56	424.30
434.93	430.92
435.30	437.46
435.68	444.88
436.05	452.11
436.42	459.32
436.79	465.91
437.16	473.02
437.53	480.62
437.90	488.20
438.27	495.63
438.64	503.65
439.01	510.90
439.38	517.52
439.75	523.89
440.13	531.08
440.50	537.92
440.87	543.32
441.24	549.21
441.61	555.63
441.98	560.29
442.35	565.81
442.72	571.43
443.09	576.75
443.46	580.03
443.83	582.41
444.20	584.34
444.57	587.29
444.94	588.86
445.31	590.49
445.68	591.81
446.05	592.67
446.42	592.00
446.79	591.18
447.16	590.41
447.53	589.66
447.90	587.04
448.27	584.51
448.64	580.89
449.01	578.26
449.37	573.36
449.74	568.89
450.11	563.21
450.48	557.06
450.85	550.91
451.22	545.63
451.59	540.48
451.96	535.81
452.33	529.17
452.70	523.25
453.07	516.10
453.43	508.99
453.80	502.11
454.17	495.54
454.54	489.49
454.91	482.68
455.28	476.33
455.65	470.33
456.02	464.04
456.38	458.94
456.75	452.45
457.12	447.20
457.49	441.93
457.86	436.98
458.23	432.64
458.59	427.85
458.96	422.97
459.33	418.66
459.70	414.31
460.07	410.99
460.43	407.09
460.80	403.46
461.17	400.32
461.54	396.89
461.91	393.71
462.27	390.47
462.64	387.86
463.01	384.85
463.38	381.81
463.74	379.06
464.11	376.65
464.48	374.48
464.85	372.11
465.21	370.34
465.58	368.35
465.95	366.07
466.32	364.25
466.68	362.45
467.05	360.66
467.42	358.90
467.78	357.01
468.15	355.27
468.52	354.02
468.88	352.30
469.25	350.74
469.62	349.50
469.98	348.14
470.35	346.95
470.72	345.88
471.08	344.77
471.45	343.85
471.82	342.82
472.18	341.73
472.55	341.03
472.92	340.13
473.28	339.43
473.65	338.68
474.02	337.97
474.38	337.40
474.75	337.06
475.11	336.59
475.48	336.35
475.85	336.12
476.21	335.99
476.58	335.92
476.94	336.06
477.31	336.14
477.67	336.23
478.04	336.43
478.41	336.73
478.77	337.13
479.14	337.40
479.50	337.89
479.87	338.53
480.23	339.19
480.60	339.84
480.96	340.48
481.33	341.43
481.69	342.38
482.06	343.31
482.42	344.18
482.79	345.24
483.15	346.49
483.52	347.88
483.88	349.24
484.25	350.69
484.61	352.20
484.98	353.83
485.34	355.68
485.71	357.61
486.07	359.66
486.44	361.70
486.80	363.99
487.17	366.38
487.53	368.99
487.90	371.72
488.26	374.67
488.62	377.81
488.99	380.94
489.35	384.25
489.72	387.83
490.08	391.59
490.44	395.48
490.81	399.52
491.17	403.69
491.54	408.15
491.90	412.76
492.26	417.69
492.63	422.84
492.99	428.22
493.36	433.80
493.72	439.67
494.08	445.71
494.45	452.10
494.81	458.75
495.17	465.57
495.54	472.77
495.90	480.26
496.26	487.92
496.63	495.84
496.99	504.06
497.35	512.66
497.72	521.53
498.08	530.64
498.44	540.07
498.80	550.03
499.17	560.24
499.53	570.75
499.89	581.66
500.26	592.78
500.62	604.20
500.98	616.21
501.34	628.40
501.71	641.10
502.07	654.01
502.43	667.43
502.79	681.05
503.16	695.16
503.52	709.49
503.88	724.22
504.24	739.36
504.60	754.74
504.97	770.62
505.33	786.91
505.69	804.08
506.05	821.52
506.41	838.91
506.78	856.54
507.14	874.72
507.50	893.32
507.86	912.27
508.22	931.42
508.59	950.41
508.95	970.30
509.31	990.87
509.67	1012.07
510.03	1033.25
510.39	1054.57
510.75	1076.11
511.12	1097.90
511.48	1119.83
511.84	1141.93
512.20	1164.44
512.56	1187.68
512.92	1210.98
513.28	1233.94
513.64	1257.24
514.00	1280.93
514.37	1304.86
514.73	1328.87
515.09	1352.79
515.45	1377.09
515.81	1401.46
516.17	1426.05
516.53	1450.06
516.89	1474.05
517.25	1498.27
517.61	1522.43
517.97	1547.04
518.33	1571.11
518.69	1595.18
519.05	1619.81
519.41	1644.67
519.77	1669.56
520.13	1693.94
520.49	1718.25
520.85	1742.95
521.21	1767.03
521.57	1791.63
521.93	1815.72
522.29	1840.24
522.65	1864.41
523.01	1888.50
523.37	1912.27
523.73	1936.69
524.09	1960.88
524.45	1984.84
524.81	2008.41
525.17	2031.87
525.53	2054.72
525.89	2078.01
526.25	2101.29
526.61	2123.64
526.97	2146.12
527.33	2168.71
527.68	2190.78
528.04	2212.22
528.40	2232.57
528.76	2253.49
529.12	2273.79
529.48	2293.71
529.84	2311.98
530.20	2330.82
530.56	2349.11
530.91	2367.58
531.27	2385.65
531.63	2403.01
531.99	2419.99
532.35	2436.34
532.71	2452.57
533.07	2469.48
533.42	2484.69
533.78	2500.90
534.14	2517.22
534.50	2532.43
534.86	2547.54
535.21	2560.84
535.57	2574.58
535.93	2588.14
536.29	2600.46
536.65	2612.76
537.00	2624.51
537.36	2637.09
537.72	2648.02
538.08	2658.60
538.44	2668.52
538.79	2678.07
539.15	2686.68
539.51	2694.87
539.87	2702.26
540.22	2708.10
540.58	2714.11
540.94	2721.28
541.29	2726.66
541.65	2730.23
542.01	2733.43
542.37	2735.79
542.72	2739.53
543.08	2741.58
543.44	2744.15
543.79	2745.68
544.15	2746.32
544.51	2747.34
544.87	2747.23
545.22	2746.43
545.58	2744.92
545.94	2743.51
546.29	2740.78
546.65	2738.10
547.01	2735.41
547.36	2733.46
547.72	2731.28
548.07	2727.42
548.43	2722.00
548.79	2715.95
549.14	2711.20
549.50	2706.41
549.86	2700.82
550.21	2694.10
550.57	2688.27
550.92	2680.26
551.28	2672.97
551.64	2665.82
551.99	2658.08
552.35	2649.82
552.70	2641.92
553.06	2634.23
553.41	2625.85
553.77	2617.23
554.13	2608.40
554.48	2598.71
554.84	2587.99
555.19	2578.01
555.55	2567.86
555.90	2557.77
556.26	2548.12
556.61	2537.32
556.97	2525.01
557.32	2513.25
557.68	2501.29
558.03	2489.24
558.39	2478.23
558.74	2467.40
559.10	2454.98
559.45	2442.96
559.81	2431.47
560.16	2419.21
560.52	2407.21
560.87	2395.51
561.23	2382.98
561.58	2370.86
561.94	2358.15
562.29	2344.90
562.64	2332.28
563.00	2319.37
563.35	2307.03
563.71	2294.35
564.06	2281.57
564.42	2269.51
564.77	2256.73
565.12	2243.99
565.48	2231.16
565.83	2218.47
566.19	2205.70
566.54	2192.94
566.89	2178.95
567.25	2165.25
567.60	2152.74
567.96	2139.40
568.31	2124.81
568.66	2111.10
569.02	2098.19
569.37	2085.42
569.72	2073.10
570.08	2059.45
570.43	2045.58
570.78	2031.25
571.14	2016.43
571.49	2002.38
571.84	1988.81
572.20	1973.97
572.55	1959.49
572.90	1944.71
573.26	1929.85
573.61	1914.64
573.96	1899.74
574.31	1885.24
574.67	1870.56
575.02	1855.08
575.37	1839.65
575.72	1825.11
576.08	1810.67
576.43	1795.22
576.78	1780.15
577.13	1765.45
577.49	1751.13
577.84	1737.27
578.19	1722.54
578.54	1707.99
578.90	1692.98
579.25	1677.84
579.60	1664.32
579.95	1650.49
580.30	1636.61
580.66	1622.49
581.01	1608.29
581.36	1594.18
581.71	1581.03
582.06	1567.66
582.42	1554.55
582.77	1541.41
583.12	1528.14
583.47	1514.90
583.82	1501.73
584.17	1488.22
584.53	1474.29
584.88	1460.71
585.23	1446.70
585.58	1433.67
585.93	1420.88
586.28	1408.72
586.63	1396.62
586.98	1383.93
587.34	1371.32
587.69	1358.49
588.04	1346.02
588.39	1333.92
588.74	1321.89
589.09	1309.66
589.44	1297.06
589.79	1285.13
590.14	1273.32
590.49	1261.46
590.84	1249.68
591.19	1238.32
591.54	1226.82
591.89	1215.45
592.25	1204.21
592.60	1192.70
592.95	1181.51
593.30	1170.43
593.65	1159.12
594.00	1147.83
594.35	1137.24
594.70	1126.30
595.05	1116.21
595.40	1105.99
595.75	1095.61
596.10	1085.77
596.45	1075.55
596.80	1065.68
597.15	1055.64
597.50	1045.71
597.85	1036.12
598.19	1026.43
598.54	1016.83
598.89	1007.59
599.24	998.71
599.59	989.76
599.94	981.68
600.29	973.38
600.64	964.77
600.99	955.77
601.34	947.22
601.69	938.32
602.04	930.05
602.39	921.63
602.74	913.19
603.08	904.77
603.43	896.33
603.78	888.07
604.13	880.04
604.48	871.89
604.83	863.97
605.18	855.97
605.53	848.10
605.87	840.01
606.22	832.34
606.57	824.56
606.92	816.60
607.27	808.59
607.62	800.97
607.96	793.76
608.31	787.02
608.66	780.07
609.01	773.38
609.36	766.81
609.70	759.92
610.05	753.11
610.40	746.54
610.75	739.98
611.10	733.75
611.44	727.36
611.79	721.09
612.14	714.72
612.49	708.50
612.83	702.57
613.18	696.77
613.53	690.80
613.88	684.92
614.22	679.51
614.57	673.98
614.92	668.24
615.27	662.66
615.61	657.10
615.96	651.62
616.31	646.15
616.65	640.74
617.00	635.60
617.35	630.55
617.70	625.55
618.04	620.51
618.39	615.48
618.74	610.72
619.08	605.98
619.43	601.35
619.78	596.76
620.12	592.08
620.47	587.59
620.82	583.22
621.16	578.81
621.51	574.27
621.85	569.85
622.20	565.63
622.55	561.39
622.89	557.22
623.24	553.06
623.59	548.98
623.93	545.04
624.28	541.17
624.62	537.39
624.97	533.64
625.32	529.93
625.66	526.13
626.01	522.27
626.35	518.51
626.70	514.80
627.04	511.23
627.39	507.66
627.73	504.24
628.08	500.91
628.43	497.61
628.77	494.40
629.12	491.25
629.46	488.07
629.81	484.86
630.15	481.68
630.50	478.59
630.84	475.53
631.19	472.54
631.53	469.66
631.88	466.75
632.22	463.85
632.57	461.25
632.91	458.66
633.26	456.18
633.60	453.69
633.95	451.29
634.29	448.77
634.64	446.34
634.98	443.70
635.32	441.24
635.67	438.95
636.01	436.57
636.36	434.27
636.70	432.15
637.05	429.98
637.39	427.82
637.73	425.68
638.08	423.66
638.42	421.59
638.77	419.41
639.11	417.20
639.45	415.07
639.80	412.89
640.14	410.81
640.49	408.72
640.83	406.60
641.17	404.57
641.52	402.59
641.86	400.63
642.20	398.88
642.55	396.96
642.89	395.07
643.23	393.25
643.58	391.64
643.92	389.84
644.26	388.14
644.61	386.50
644.95	384.80
645.29	383.05
645.64	381.32
645.98	379.68
646.32	378.15
646.66	376.60
647.01	375.07
647.35	373.59
647.69	372.08
648.04	370.73
648.38	369.28
648.72	367.86
649.06	366.45
649.41	365.04
649.75	363.67
650.09	362.33
650.43	361.01
650.78	359.60
651.12	358.26
651.46	356.94
651.80	355.66
652.14	354.44
652.49	353.25
652.83	352.04
653.17	350.87
653.51	349.71
653.85	348.62
654.20	347.47
654.54	346.26
654.88	345.14
655.22	344.03
655.56	342.92
655.90	341.88
656.25	340.84
656.59	339.79
656.93	338.82
657.27	337.87
657.61	336.85
657.95	335.87
658.29	334.89
658.64	333.98
658.98	333.05
659.32	332.13
659.66	331.26
660.00	330.40
660.34	329.55
660.68	328.66
661.02	327.71
661.36	326.82
661.70	325.97
662.05	325.12
662.39	324.30
662.73	323.55
663.07	322.78
663.41	322.00
663.75	321.19
664.09	320.40
664.43	319.57
664.77	318.81
665.11	318.03
665.45	317.30
665.79	316.58
666.13	315.79
666.47	315.01
666.81	314.22
667.15	313.40
667.49	312.69
667.83	312.05
668.17	311.39
668.51	310.78
668.85	310.16
669.19	309.57
669.53	308.89
669.87	308.20
670.21	307.54
670.55	306.91
670.89	306.37
671.23	305.77
671.57	305.19
671.91	304.65
672.25	304.13
672.58	303.58
672.92	302.97
673.26	302.48
673.60	301.95
673.94	301.46
674.28	301.00
674.62	300.50
674.96	299.94
675.30	299.44
675.64	298.88
675.97	298.34
676.31	297.77
676.65	297.26
676.99	296.81
677.33	296.28
677.67	295.79
678.01	295.21
678.34	294.72
678.68	294.25
679.02	293.72
679.36	293.19
679.70	292.69
680.04	292.23
680.37	291.75
680.71	291.29
681.05	290.83
681.39	290.34
681.73	289.82
682.06	289.31
682.40	288.84
682.74	288.43
683.08	288.06
683.42	287.62
683.75	287.22
684.09	286.72
684.43	286.28
684.77	285.85
685.10	285.47
685.44	285.06
685.78	284.63
686.12	284.23
686.45	283.81
686.79	283.39
687.13	282.98
687.46	282.54
687.80	282.13
688.14	281.68
688.48	281.28
688.81	280.88
689.15	280.53
689.49	280.12
689.82	279.69
690.16	279.21
690.50	278.81
690.83	278.39
691.17	277.97
691.51	277.58
691.84	277.19
692.18	276.76
692.52	276.33
692.85	275.92
693.19	275.56
693.52	275.17
693.86	274.76
694.20	274.38
694.53	274.02
694.87	273.61
695.21	273.20
695.54	272.81
695.88	272.42
696.21	272.00
696.55	271.62
696.88	271.25
697.22	270.88
697.56	270.51
697.89	270.10
698.23	269.74
698.56	269.34
698.90	268.98
699.23	268.58
699.57	268.22
699.90	267.85
700.24	267.46
700.58	267.12
700.91	266.81
701.25	266.56
701.58	266.26
701.92	265.96
702.25	265.64
702.59	265.29
702.92	264.95
703.26	264.60
703.59	264.25
703.93	264.00
704.26	263.68
704.60	263.33
704.93	263.01
705.26	262.68
705.60	262.41
705.93	262.05
706.27	261.78
706.60	261.52
706.94	261.25
707.27	260.90
707.61	260.58
707.94	260.23
708.27	259.80
708.61	259.44
708.94	259.11
709.28	258.82
709.61	258.52
709.94	258.24
710.28	257.98
710.61	257.73
710.95	257.35
711.28	257.15
711.61	256.87
711.95	256.61
712.28	256.31
712.61	256.02
712.95	255.82
713.28	255.61
713.61	255.29
713.95	254.98
714.28	254.74
714.61	254.47
714.95	254.21
715.28	253.96
715.61	253.70
715.95	253.47
716.28	253.22
716.61	253.01
716.95	252.76
717.28	252.51
717.61	252.26
717.94	252.02
718.28	251.69
718.61	251.46
718.94	251.21
719.27	250.99
719.61	250.78
719.94	250.53
720.27	250.23
720.60	250.01
720.94	249.79
721.27	249.58
721.60	249.39
721.93	249.18
722.27	249.01
722.60	248.82
722.93	248.59
723.26	248.39
723.59	248.16
723.93	247.96
724.26	247.77
724.59	247.57
724.92	247.39
725.25	247.25
725.59	247.06
725.92	246.91
726.25	246.74
726.58	246.54
726.91	246.35
727.24	246.20
727.57	246.02
727.91	245.84
728.24	245.69
728.57	245.50
728.90	245.34
729.23	245.12
729.56	245.00
729.89	244.83
730.22	244.65
730.55	244.48
730.89	244.33
731.22	244.16
731.55	244.01
731.88	243.85
732.21	243.67
732.54	243.52
732.87	243.36
733.20	243.21
733.53	243.07
733.86	242.93
734.19	242.76
734.52	242.65
734.85	242.59
735.18	242.41
735.51	242.30
735.84	242.16
736.17	242.07
736.50	241.87
736.83	241.88
737.16	241.76
737.49	241.63
737.82	241.50
738.15	241.38
738.48	241.25
738.81	241.11
739.14	240.97
739.47	240.82
739.80	240.69
740.13	240.56
740.46	240.42
740.79	240.27
741.12	240.15
741.45	239.99
741.78	239.79
742.11	239.71
742.44	239.56
742.77	239.46
743.10	239.32
743.43	239.20
743.75	238.96
744.08	239.04
744.41	238.91
744.74	238.80
745.07	238.65
745.40	238.57
745.73	238.51
746.06	238.41
746.39	238.33
746.71	238.22
747.04	238.10
747.37	238.00
747.70	237.92
748.03	237.84
748.36	237.77
748.68	237.67
749.01	237.54
749.34	237.44
749.67	237.35
750.00	237.27
750.33	237.27
750.65	237.18
750.98	236.90
751.31	236.82
751.64	236.74
751.97	236.72
752.29	236.62
752.62	236.46
752.95	236.37
753.28	236.25
753.60	236.17
753.93	236.10
754.26	236.02
754.59	235.89
754.91	235.78
755.24	235.67
755.57	235.64
755.90	235.55
756.22	235.46
756.55	235.35
756.88	235.23
757.20	235.08
757.53	234.96
757.86	234.89
758.19	234.81
758.51	234.71
758.84	234.57
759.17	234.47
759.49	234.42
759.82	234.41
760.15	234.35
760.47	234.27
760.80	234.18
761.13	234.12
761.45	234.05
761.78	233.99
762.11	233.93
762.43	233.80
762.76	233.74
763.08	233.69
763.41	233.64
763.74	233.58
764.06	233.51
764.39	233.46
764.71	233.39
765.04	233.32
765.37	233.26
765.69	233.21
766.02	233.15
766.34	233.07
766.67	232.97
767.00	232.93
767.32	232.95
767.65	232.97
767.97	232.90
768.30	232.86
768.62	232.81
768.95	232.75
769.27	232.69
769.60	232.65
769.92	232.57
770.25	232.50
770.57	232.44
770.90	232.39
771.22	232.33
771.55	232.28
771.87	232.24
772.20	232.21
772.52	232.26
772.85	232.37
773.17	232.33
773.50	232.28
773.82	232.22
774.15	232.11
774.47	231.99
774.80	231.95
775.12	231.90
775.45	231.86
775.77	231.84
776.09	231.81
776.42	231.78
776.74	231.79
777.07	231.75
777.39	231.72
777.72	231.69
778.04	231.67
778.36	231.63
778.69	231.61
779.01	231.58
779.33	231.44
779.66	231.26
779.98	231.22
780.31	231.20
780.63	231.22
780.95	231.22
781.28	231.19
781.60	231.15
781.92	231.13
782.25	231.10
782.57	231.07
782.89	231.04
783.22	231.00
783.54	230.95
783.86	230.93
784.19	230.88
784.51	230.90
784.83	230.86
785.16	230.83
785.48	230.80
785.80	230.77
786.12	230.75
786.45	230.73
786.77	230.73
787.09	230.70
787.42	230.63
787.74	230.60
788.06	230.59
788.38	230.56
788.71	230.53
789.03	230.51
789.35	230.50
789.67	230.46
789.99	230.45
790.32	230.42
790.64	230.42
790.96	230.52
791.28	230.46
791.61	230.44
791.93	230.42
792.25	230.40
792.57	230.46
792.89	230.42
793.21	230.42
793.54	230.38
793.86	230.34
794.18	230.33
794.50	230.30
794.82	230.27
795.14	230.27
795.47	230.28
795.79	230.26
796.11	230.21
796.43	230.19
796.75	230.17
797.07	230.16
797.39	230.14
797.71	230.01
798.04	230.00
798.36	229.99
798.68	229.97
799.00	229.95
799.32	229.88
799.64	229.89
799.96	229.86
800.28	229.87
800.60	229.85
800.92	229.85
801.24	229.82
801.56	229.82
801.89	229.79
802.21	229.78
802.53	229.74
802.85	229.75
803.17	229.80
803.49	229.76
803.81	229.73
804.13	229.70
804.45	229.68
804.77	229.68
805.09	229.67
805.41	229.64
805.73	229.62
806.05	229.57
806.37	229.54
806.69	229.52
807.01	229.50
807.33	229.49
807.65	229.43
807.97	229.47
808.28	229.45
808.60	229.44
808.92	229.41
809.24	229.48
809.56	229.44
809.88	229.38
810.20	229.37
810.52	229.39
810.84	229.36
811.16	229.34
811.48	229.31
811.80	229.34
812.12	229.33
812.43	229.34
812.75	229.34
813.07	229.31
813.39	229.30
813.71	229.27
814.03	229.26
814.35	229.26
814.67	229.19
814.98	229.17
815.30	229.15
815.62	229.12
815.94	229.01
816.26	229.02
816.58	228.99
816.89	229.00
817.21	228.96
817.53	228.96
817.85	228.96
818.17	228.95
818.48	228.88
