SpectraSuite Data File
++++++++++++++++++++++++++++++++++++
Date: Fri Oct 02 18:05:56 EDT 2015
User: lab3
Dark Spectrum Present: No
Reference Spectrum Present: No
Number of Sampled Component Spectra: 1
Spectrometers: USB2E7196
Integration Time (usec): 46000 (USB2E7196)
Spectra Averaged: 1500 (USB2E7196)
Boxcar Smoothing: 10 (USB2E7196)
Correct for Electrical Dark: No (USB2E7196)
Strobe/Lamp Enabled: No (USB2E7196)
Correct for Detector Non-linearity: No (USB2E7196)
Correct for Stray Light: No (USB2E7196)
Number of Pixels in Processed Spectrum: 2048
>>>>>Begin Processed Spectral Data<<<<<
339.09	0.00
339.48	216.04
339.86	217.41
340.24	218.86
340.63	220.34
341.01	223.52
341.39	222.99
341.78	224.34
342.16	225.74
342.54	226.12
342.93	214.38
343.31	225.21
343.69	225.75
344.07	226.22
344.46	226.65
344.84	227.04
345.22	227.27
345.60	227.53
345.99	227.73
346.37	227.86
346.75	227.97
347.13	228.04
347.52	228.12
347.90	228.22
348.28	228.26
348.66	228.33
349.05	228.33
349.43	228.39
349.81	228.45
350.19	228.50
350.57	228.57
350.96	228.66
351.34	228.76
351.72	228.86
352.10	228.96
352.48	229.04
352.87	229.08
353.25	229.15
353.63	229.21
354.01	229.27
354.39	229.35
354.77	229.43
355.15	229.53
355.54	229.58
355.92	229.60
356.30	229.67
356.68	229.81
357.06	229.90
357.44	229.95
357.82	230.00
358.20	230.13
358.58	230.19
358.97	230.24
359.35	230.32
359.73	230.40
360.11	230.45
360.49	230.51
360.87	230.55
361.25	230.61
361.63	230.70
362.01	230.76
362.39	230.79
362.77	230.84
363.15	230.86
363.53	230.88
363.91	230.92
364.29	230.94
364.67	230.83
365.05	230.85
365.43	230.88
365.81	230.91
366.19	230.93
366.57	230.98
366.95	230.99
367.33	230.96
367.71	230.96
368.09	230.98
368.47	230.97
368.85	230.96
369.23	230.97
369.61	230.90
369.99	230.91
370.37	230.91
370.75	230.97
371.13	230.95
371.51	230.91
371.89	230.89
372.27	230.86
372.65	230.84
373.03	230.80
373.41	230.75
373.78	230.70
374.16	230.59
374.54	230.51
374.92	230.45
375.30	230.41
375.68	230.34
376.06	230.29
376.44	230.24
376.82	230.20
377.19	230.17
377.57	230.12
377.95	230.02
378.33	229.96
378.71	229.79
379.09	229.74
379.47	229.72
379.84	229.66
380.22	229.60
380.60	229.54
380.98	229.49
381.36	229.43
381.73	229.37
382.11	229.34
382.49	229.30
382.87	229.24
383.25	229.18
383.62	229.27
384.00	229.20
384.38	229.16
384.76	229.15
385.13	229.14
385.51	229.10
385.89	229.06
386.27	229.03
386.64	229.01
387.02	228.97
387.40	228.91
387.78	228.88
388.15	228.86
388.53	228.82
388.91	228.78
389.29	228.75
389.66	228.75
390.04	228.72
390.42	228.72
390.79	228.71
391.17	228.70
391.55	228.55
391.92	228.54
392.30	228.55
392.68	228.51
393.05	228.49
393.43	228.49
393.81	228.49
394.18	228.47
394.56	228.47
394.94	228.50
395.31	228.51
395.69	228.56
396.06	228.58
396.44	228.62
396.82	228.64
397.19	228.72
397.57	228.72
397.95	228.77
398.32	228.76
398.70	228.80
399.07	228.86
399.45	228.90
399.82	228.94
400.20	228.98
400.58	229.05
400.95	229.05
401.33	229.14
401.70	229.29
402.08	229.39
402.45	229.47
402.83	229.59
403.20	229.69
403.58	229.77
403.95	229.91
404.33	230.05
404.71	230.20
405.08	230.40
405.46	230.57
405.83	230.74
406.21	230.92
406.58	231.14
406.96	231.35
407.33	231.59
407.70	231.86
408.08	232.23
408.45	232.54
408.83	232.89
409.20	233.19
409.58	233.48
409.95	233.87
410.33	234.29
410.70	234.69
411.08	235.16
411.45	235.65
411.82	236.15
412.20	236.72
412.57	237.41
412.95	237.94
413.32	238.65
413.69	239.38
414.07	240.13
414.44	240.96
414.82	241.80
415.19	242.79
415.56	243.80
415.94	244.83
416.31	246.01
416.68	247.19
417.06	248.55
417.43	249.82
417.81	251.27
418.18	252.76
418.55	254.39
418.93	256.08
419.30	257.86
419.67	259.74
420.04	261.66
420.42	263.65
420.79	265.98
421.16	268.31
421.54	270.68
421.91	273.18
422.28	275.75
422.66	278.54
423.03	281.20
423.40	283.98
423.77	286.96
424.15	290.01
424.52	293.19
424.89	296.63
425.26	300.07
425.64	303.27
426.01	306.83
426.38	310.49
426.75	314.28
427.13	318.16
427.50	322.23
427.87	326.45
428.24	330.71
428.61	334.80
428.99	339.24
429.36	344.09
429.73	348.74
430.10	353.41
430.47	358.17
430.85	363.08
431.22	368.36
431.59	373.78
431.96	379.06
432.33	384.94
432.70	390.54
433.08	397.15
433.45	403.41
433.82	409.57
434.19	416.46
434.56	423.24
434.93	429.79
435.30	436.26
435.68	443.59
436.05	450.77
436.42	457.90
436.79	464.41
437.16	471.46
437.53	478.96
437.90	486.46
438.27	493.81
438.64	501.74
439.01	508.91
439.38	515.47
439.75	521.76
440.13	528.88
440.50	535.64
440.87	540.97
441.24	546.82
441.61	553.19
441.98	557.81
442.35	563.27
442.72	568.84
443.09	574.13
443.46	577.43
443.83	579.83
444.20	581.79
444.57	584.75
444.94	586.36
445.31	588.04
445.68	589.43
446.05	590.37
446.42	589.79
446.79	589.04
447.16	588.35
447.53	587.70
447.90	585.19
448.27	582.77
448.64	579.23
449.01	576.69
449.37	571.91
449.74	567.57
450.11	562.03
450.48	556.00
450.85	549.97
451.22	544.80
451.59	539.76
451.96	535.19
452.33	528.64
452.70	522.82
453.07	515.76
453.43	508.73
453.80	501.92
454.17	495.43
454.54	489.45
454.91	482.71
455.28	476.42
455.65	470.48
456.02	464.24
456.38	459.20
456.75	452.75
457.12	447.54
457.49	442.30
457.86	437.37
458.23	433.05
458.59	428.28
458.96	423.40
459.33	419.09
459.70	414.74
460.07	411.44
460.43	407.54
460.80	403.92
461.17	400.77
461.54	397.35
461.91	394.16
462.27	390.93
462.64	388.33
463.01	385.32
463.38	382.28
463.74	379.54
464.11	377.13
464.48	374.97
464.85	372.60
465.21	370.83
465.58	368.84
465.95	366.56
466.32	364.76
466.68	362.97
467.05	361.18
467.42	359.43
467.78	357.53
468.15	355.79
468.52	354.53
468.88	352.82
469.25	351.27
469.62	350.02
469.98	348.66
470.35	347.46
470.72	346.37
471.08	345.25
471.45	344.32
471.82	343.30
472.18	342.18
472.55	341.47
472.92	340.58
473.28	339.88
473.65	339.12
474.02	338.41
474.38	337.82
474.75	337.49
475.11	337.00
475.48	336.78
475.85	336.55
476.21	336.43
476.58	336.34
476.94	336.48
477.31	336.56
477.67	336.65
478.04	336.86
478.41	337.16
478.77	337.58
479.14	337.85
479.50	338.34
479.87	338.99
480.23	339.63
480.60	340.26
480.96	340.90
481.33	341.84
481.69	342.78
482.06	343.71
482.42	344.56
482.79	345.63
483.15	346.87
483.52	348.27
483.88	349.62
484.25	351.08
484.61	352.58
484.98	354.20
485.34	356.05
485.71	357.95
486.07	359.99
486.44	362.03
486.80	364.31
487.17	366.69
487.53	369.28
487.90	372.00
488.26	374.96
488.62	378.06
488.99	381.18
489.35	384.47
489.72	388.03
490.08	391.79
490.44	395.67
490.81	399.69
491.17	403.82
491.54	408.26
491.90	412.85
492.26	417.74
492.63	422.89
492.99	428.24
493.36	433.78
493.72	439.64
494.08	445.61
494.45	451.97
494.81	458.57
495.17	465.34
495.54	472.50
495.90	479.96
496.26	487.60
496.63	495.49
496.99	503.66
497.35	512.23
497.72	521.03
498.08	530.09
498.44	539.47
498.80	549.38
499.17	559.55
499.53	570.00
499.89	580.85
500.26	591.91
500.62	603.28
500.98	615.27
501.34	627.41
501.71	640.09
502.07	652.95
502.43	666.33
502.79	679.92
503.16	693.96
503.52	708.22
503.88	722.90
504.24	738.00
504.60	753.36
504.97	769.18
505.33	785.44
505.69	802.56
506.05	819.94
506.41	837.28
506.78	854.87
507.14	872.99
507.50	891.52
507.86	910.43
508.22	929.54
508.59	948.48
508.95	968.30
509.31	988.85
509.67	1010.04
510.03	1031.23
510.39	1052.51
510.75	1074.04
511.12	1095.80
511.48	1117.69
511.84	1139.73
512.20	1162.19
512.56	1185.44
512.92	1208.69
513.28	1231.63
513.64	1254.92
514.00	1278.60
514.37	1302.50
514.73	1326.47
515.09	1350.38
515.45	1374.63
515.81	1399.01
516.17	1423.60
516.53	1447.62
516.89	1471.57
517.25	1495.72
517.61	1519.84
517.97	1544.46
518.33	1568.50
518.69	1592.52
519.05	1617.13
519.41	1641.99
519.77	1666.88
520.13	1691.24
520.49	1715.54
520.85	1740.21
521.21	1764.26
521.57	1788.90
521.93	1813.03
522.29	1837.59
522.65	1861.75
523.01	1885.82
523.37	1909.56
523.73	1933.98
524.09	1958.19
524.45	1982.13
524.81	2005.74
525.17	2029.19
525.53	2052.05
525.89	2075.38
526.25	2098.75
526.61	2121.10
526.97	2143.60
527.33	2166.18
527.68	2188.30
528.04	2209.70
528.40	2230.06
528.76	2251.05
529.12	2271.31
529.48	2291.20
529.84	2309.49
530.20	2328.38
530.56	2346.64
530.91	2365.12
531.27	2383.18
531.63	2400.47
531.99	2417.45
532.35	2433.74
532.71	2449.95
533.07	2466.92
533.42	2482.15
533.78	2498.36
534.14	2514.74
534.50	2529.99
534.86	2545.14
535.21	2558.44
535.57	2572.25
535.93	2585.86
536.29	2598.17
536.65	2610.50
537.00	2622.25
537.36	2634.82
537.72	2645.73
538.08	2656.41
538.44	2666.42
538.79	2676.02
539.15	2684.70
539.51	2692.94
539.87	2700.45
540.22	2706.41
540.58	2712.33
540.94	2719.54
541.29	2724.93
541.65	2728.58
542.01	2731.81
542.37	2734.27
542.72	2738.02
543.08	2740.14
543.44	2742.78
543.79	2744.40
544.15	2745.18
544.51	2746.29
544.87	2746.28
545.22	2745.57
545.58	2744.18
545.94	2742.79
546.29	2740.09
546.65	2737.52
547.01	2734.90
547.36	2733.07
547.72	2730.92
548.07	2727.23
548.43	2721.96
548.79	2715.97
549.14	2711.24
549.50	2706.56
549.86	2701.03
550.21	2694.39
550.57	2688.66
550.92	2680.74
551.28	2673.51
551.64	2666.39
551.99	2658.83
552.35	2650.61
552.70	2642.79
553.06	2635.14
553.41	2626.86
553.77	2618.36
554.13	2609.67
554.48	2600.12
554.84	2589.46
555.19	2579.52
555.55	2569.45
555.90	2559.36
556.26	2549.77
556.61	2539.11
556.97	2526.86
557.32	2515.13
557.68	2503.30
558.03	2491.32
558.39	2480.44
558.74	2469.73
559.10	2457.37
559.45	2445.37
559.81	2433.97
560.16	2421.81
560.52	2409.88
560.87	2398.29
561.23	2385.85
561.58	2373.70
561.94	2361.05
562.29	2347.86
562.64	2335.36
563.00	2322.52
563.35	2310.22
563.71	2297.68
564.06	2284.90
564.42	2272.87
564.77	2260.22
565.12	2247.47
565.48	2234.67
565.83	2221.92
566.19	2209.19
566.54	2196.43
566.89	2182.46
567.25	2168.78
567.60	2156.31
567.96	2143.06
568.31	2128.43
568.66	2114.64
569.02	2101.84
569.37	2089.05
569.72	2076.77
570.08	2063.15
570.43	2049.25
570.78	2035.02
571.14	2020.15
571.49	2006.09
571.84	1992.54
572.20	1977.67
572.55	1963.19
572.90	1948.39
573.26	1933.59
573.61	1918.30
573.96	1903.45
574.31	1888.95
574.67	1874.29
575.02	1858.79
575.37	1843.34
575.72	1828.78
576.08	1814.39
576.43	1798.90
576.78	1783.88
577.13	1769.13
577.49	1754.72
577.84	1740.86
578.19	1726.04
578.54	1711.46
578.90	1696.40
579.25	1681.24
579.60	1667.66
579.95	1653.83
580.30	1639.92
580.66	1625.80
581.01	1611.55
581.36	1597.41
581.71	1584.22
582.06	1570.84
582.42	1557.70
582.77	1544.53
583.12	1531.29
583.47	1518.03
583.82	1504.80
584.17	1491.22
584.53	1477.26
584.88	1463.67
585.23	1449.65
585.58	1436.61
585.93	1423.78
586.28	1411.61
586.63	1399.49
586.98	1386.78
587.34	1374.17
587.69	1361.35
588.04	1348.78
588.39	1336.68
588.74	1324.61
589.09	1312.31
589.44	1299.69
589.79	1287.71
590.14	1275.81
590.49	1263.87
590.84	1252.03
591.19	1240.68
591.54	1229.10
591.89	1217.68
592.25	1206.44
592.60	1194.88
592.95	1183.65
593.30	1172.59
593.65	1161.25
594.00	1149.95
594.35	1139.35
594.70	1128.35
595.05	1118.20
595.40	1107.97
595.75	1097.53
596.10	1087.68
596.45	1077.48
596.80	1067.60
597.15	1057.52
597.50	1047.60
597.85	1038.04
598.19	1028.35
598.54	1018.69
598.89	1009.49
599.24	1000.62
599.59	991.61
599.94	983.52
600.29	975.19
600.64	966.52
600.99	957.52
601.34	948.93
601.69	940.00
602.04	931.71
602.39	923.30
602.74	914.86
603.08	906.45
603.43	897.98
603.78	889.72
604.13	881.62
604.48	873.48
604.83	865.53
605.18	857.52
605.53	849.63
605.87	841.55
606.22	833.87
606.57	826.07
606.92	818.15
607.27	810.13
607.62	802.52
607.96	795.32
608.31	788.59
608.66	781.65
609.01	774.97
609.36	768.42
609.70	761.51
610.05	754.72
610.40	748.14
610.75	741.58
611.10	735.34
611.44	728.99
611.79	722.72
612.14	716.36
612.49	710.11
612.83	704.16
613.18	698.35
613.53	692.38
613.88	686.48
614.22	681.03
614.57	675.50
614.92	669.74
615.27	664.18
615.61	658.60
615.96	653.07
616.31	647.56
616.65	642.13
617.00	637.01
617.35	631.91
617.70	626.91
618.04	621.89
618.39	616.85
618.74	612.05
619.08	607.28
619.43	602.62
619.78	598.00
620.12	593.33
620.47	588.83
620.82	584.44
621.16	580.02
621.51	575.47
621.85	571.02
622.20	566.77
622.55	562.51
622.89	558.33
623.24	554.17
623.59	550.07
623.93	546.12
624.28	542.21
624.62	538.42
624.97	534.66
625.32	530.91
625.66	527.07
626.01	523.20
626.35	519.44
626.70	515.71
627.04	512.14
627.39	508.54
627.73	505.11
628.08	501.77
628.43	498.45
628.77	495.25
629.12	492.11
629.46	488.94
629.81	485.72
630.15	482.51
630.50	479.40
630.84	476.33
631.19	473.34
631.53	470.44
631.88	467.52
632.22	464.60
632.57	461.98
632.91	459.40
633.26	456.91
633.60	454.40
633.95	451.99
634.29	449.48
634.64	447.04
634.98	444.38
635.32	441.88
635.67	439.58
636.01	437.19
636.36	434.86
636.70	432.72
637.05	430.53
637.39	428.38
637.73	426.26
638.08	424.25
638.42	422.19
638.77	420.02
639.11	417.79
639.45	415.67
639.80	413.46
640.14	411.38
640.49	409.26
640.83	407.14
641.17	405.10
641.52	403.10
641.86	401.12
642.20	399.37
642.55	397.46
642.89	395.56
643.23	393.77
643.58	392.14
643.92	390.34
644.26	388.63
644.61	386.98
644.95	385.27
645.29	383.51
645.64	381.77
645.98	380.12
646.32	378.58
646.66	377.02
647.01	375.49
647.35	374.01
647.69	372.52
648.04	371.16
648.38	369.70
648.72	368.29
649.06	366.86
649.41	365.45
649.75	364.10
650.09	362.75
650.43	361.41
650.78	360.02
651.12	358.68
651.46	357.37
651.80	356.09
652.14	354.85
652.49	353.64
652.83	352.42
653.17	351.23
653.51	350.10
653.85	349.01
654.20	347.87
654.54	346.66
654.88	345.54
655.22	344.43
655.56	343.32
655.90	342.27
656.25	341.25
656.59	340.21
656.93	339.23
657.27	338.26
657.61	337.23
657.95	336.24
658.29	335.26
658.64	334.33
658.98	333.39
659.32	332.46
659.66	331.59
660.00	330.75
660.34	329.90
660.68	328.98
661.02	328.06
661.36	327.14
661.70	326.28
662.05	325.42
662.39	324.60
662.73	323.85
663.07	323.09
663.41	322.29
663.75	321.49
664.09	320.69
664.43	319.86
664.77	319.11
665.11	318.31
665.45	317.58
665.79	316.85
666.13	316.07
666.47	315.29
666.81	314.51
667.15	313.69
667.49	312.98
667.83	312.34
668.17	311.68
668.51	311.07
668.85	310.45
669.19	309.87
669.53	309.20
669.87	308.51
670.21	307.86
670.55	307.22
670.89	306.66
671.23	306.06
671.57	305.48
671.91	304.94
672.25	304.41
672.58	303.87
672.92	303.27
673.26	302.78
673.60	302.28
673.94	301.77
674.28	301.31
674.62	300.81
674.96	300.23
675.30	299.73
675.64	299.18
675.97	298.65
676.31	298.08
676.65	297.55
676.99	297.08
677.33	296.54
677.67	296.04
678.01	295.48
678.34	295.01
678.68	294.54
679.02	294.01
679.36	293.50
679.70	293.00
680.04	292.53
680.37	292.02
680.71	291.55
681.05	291.09
681.39	290.57
681.73	290.05
682.06	289.55
682.40	289.08
682.74	288.66
683.08	288.28
683.42	287.84
683.75	287.44
684.09	286.95
684.43	286.53
684.77	286.09
685.10	285.69
685.44	285.27
685.78	284.85
686.12	284.45
686.45	284.02
686.79	283.59
687.13	283.19
687.46	282.76
687.80	282.35
688.14	281.90
688.48	281.52
688.81	281.12
689.15	280.75
689.49	280.33
689.82	279.91
690.16	279.42
690.50	279.01
690.83	278.60
691.17	278.19
691.51	277.79
691.84	277.40
692.18	276.97
692.52	276.54
692.85	276.13
693.19	275.75
693.52	275.36
693.86	274.96
694.20	274.58
694.53	274.21
694.87	273.80
695.21	273.41
695.54	273.00
695.88	272.61
696.21	272.19
696.55	271.81
696.88	271.43
697.22	271.06
697.56	270.67
697.89	270.25
698.23	269.87
698.56	269.46
698.90	269.10
699.23	268.70
699.57	268.33
699.90	267.95
700.24	267.57
700.58	267.22
700.91	266.91
701.25	266.65
701.58	266.35
701.92	266.05
702.25	265.72
702.59	265.38
702.92	265.05
703.26	264.72
703.59	264.37
703.93	264.13
704.26	263.82
704.60	263.48
704.93	263.16
705.26	262.82
705.60	262.54
705.93	262.18
706.27	261.91
706.60	261.64
706.94	261.36
707.27	261.01
707.61	260.69
707.94	260.35
708.27	259.92
708.61	259.56
708.94	259.22
709.28	258.91
709.61	258.60
709.94	258.32
710.28	258.04
710.61	257.79
710.95	257.40
711.28	257.20
711.61	256.92
711.95	256.68
712.28	256.40
712.61	256.10
712.95	255.92
713.28	255.72
713.61	255.42
713.95	255.11
714.28	254.87
714.61	254.60
714.95	254.34
715.28	254.10
715.61	253.86
715.95	253.63
716.28	253.40
716.61	253.18
716.95	252.92
717.28	252.68
717.61	252.44
717.94	252.20
718.28	251.87
718.61	251.63
718.94	251.38
719.27	251.15
719.61	250.97
719.94	250.71
720.27	250.41
720.60	250.19
720.94	249.98
721.27	249.78
721.60	249.59
721.93	249.38
722.27	249.21
722.60	249.01
722.93	248.79
723.26	248.58
723.59	248.35
723.93	248.16
724.26	247.97
724.59	247.77
724.92	247.60
725.25	247.47
725.59	247.29
725.92	247.14
726.25	246.96
726.58	246.77
726.91	246.59
727.24	246.44
727.57	246.26
727.91	246.07
728.24	245.92
728.57	245.73
728.90	245.58
729.23	245.36
729.56	245.25
729.89	245.09
730.22	244.92
730.55	244.76
730.89	244.60
731.22	244.44
731.55	244.27
731.88	244.11
732.21	243.92
732.54	243.77
732.87	243.61
733.20	243.47
733.53	243.31
733.86	243.16
734.19	242.98
734.52	242.85
734.85	242.80
735.18	242.62
735.51	242.51
735.84	242.37
736.17	242.27
736.50	242.08
736.83	242.09
737.16	241.96
737.49	241.84
737.82	241.71
738.15	241.59
738.48	241.46
738.81	241.32
739.14	241.18
739.47	241.04
739.80	240.90
740.13	240.77
740.46	240.62
740.79	240.49
741.12	240.36
741.45	240.21
741.78	240.01
742.11	239.93
742.44	239.77
742.77	239.66
743.10	239.52
743.43	239.39
743.75	239.14
744.08	239.21
744.41	239.08
744.74	238.96
745.07	238.82
745.40	238.74
745.73	238.68
746.06	238.57
746.39	238.48
746.71	238.38
747.04	238.25
747.37	238.15
747.70	238.08
748.03	237.99
748.36	237.92
748.68	237.81
749.01	237.67
749.34	237.59
749.67	237.49
750.00	237.41
750.33	237.41
750.65	237.32
750.98	237.04
751.31	236.95
751.64	236.86
751.97	236.83
752.29	236.73
752.62	236.58
752.95	236.49
753.28	236.39
753.60	236.29
753.93	236.24
754.26	236.16
754.59	236.02
754.91	235.92
755.24	235.82
755.57	235.79
755.90	235.72
756.22	235.62
756.55	235.51
756.88	235.41
757.20	235.24
757.53	235.12
757.86	235.04
758.19	234.98
758.51	234.89
758.84	234.75
759.17	234.66
759.49	234.59
759.82	234.58
760.15	234.52
760.47	234.44
760.80	234.34
761.13	234.29
761.45	234.22
761.78	234.16
762.11	234.09
762.43	233.97
762.76	233.90
763.08	233.84
763.41	233.79
763.74	233.73
764.06	233.67
764.39	233.62
764.71	233.56
765.04	233.49
765.37	233.42
765.69	233.38
766.02	233.32
766.34	233.25
766.67	233.14
767.00	233.10
767.32	233.12
767.65	233.14
767.97	233.07
768.30	233.03
768.62	232.98
768.95	232.92
769.27	232.86
769.60	232.82
769.92	232.75
770.25	232.68
770.57	232.61
770.90	232.57
771.22	232.51
771.55	232.46
771.87	232.41
772.20	232.36
772.52	232.42
772.85	232.52
773.17	232.48
773.50	232.43
773.82	232.37
774.15	232.27
774.47	232.15
774.80	232.09
775.12	232.05
775.45	232.01
775.77	231.98
776.09	231.94
776.42	231.91
776.74	231.92
777.07	231.88
777.39	231.84
777.72	231.80
778.04	231.78
778.36	231.74
778.69	231.71
779.01	231.69
779.33	231.55
779.66	231.38
779.98	231.36
780.31	231.33
780.63	231.36
780.95	231.35
781.28	231.30
781.60	231.26
781.92	231.23
782.25	231.20
782.57	231.18
782.89	231.13
783.22	231.10
783.54	231.04
783.86	231.03
784.19	231.01
784.51	231.02
784.83	230.98
785.16	230.96
785.48	230.93
785.80	230.89
786.12	230.88
786.45	230.85
786.77	230.82
787.09	230.79
787.42	230.72
787.74	230.70
788.06	230.70
788.38	230.68
788.71	230.66
789.03	230.64
789.35	230.62
789.67	230.60
789.99	230.59
790.32	230.55
790.64	230.55
790.96	230.64
791.28	230.57
791.61	230.56
791.93	230.54
792.25	230.51
792.57	230.59
792.89	230.54
793.21	230.53
793.54	230.51
793.86	230.47
794.18	230.45
794.50	230.40
794.82	230.37
795.14	230.37
795.47	230.38
795.79	230.37
796.11	230.33
796.43	230.30
796.75	230.27
797.07	230.28
797.39	230.24
797.71	230.12
798.04	230.12
798.36	230.10
798.68	230.08
799.00	230.06
799.32	229.98
799.64	229.99
799.96	229.96
800.28	229.96
800.60	229.94
800.92	229.94
801.24	229.93
801.56	229.93
801.89	229.90
802.21	229.89
802.53	229.85
802.85	229.87
803.17	229.92
803.49	229.88
803.81	229.85
804.13	229.83
804.45	229.80
804.77	229.80
805.09	229.78
805.41	229.76
805.73	229.73
806.05	229.68
806.37	229.65
806.69	229.63
807.01	229.62
807.33	229.62
807.65	229.57
807.97	229.61
808.28	229.57
808.60	229.55
808.92	229.52
809.24	229.58
809.56	229.55
809.88	229.49
810.20	229.49
810.52	229.50
810.84	229.47
811.16	229.45
811.48	229.44
811.80	229.47
812.12	229.45
812.43	229.47
812.75	229.47
813.07	229.44
813.39	229.43
813.71	229.41
814.03	229.38
814.35	229.37
814.67	229.31
814.98	229.30
815.30	229.28
815.62	229.26
815.94	229.17
816.26	229.17
816.58	229.14
816.89	229.14
817.21	229.10
817.53	229.10
817.85	229.09
818.17	229.07
818.48	229.02
