SpectraSuite Data File
++++++++++++++++++++++++++++++++++++
Date: Fri Oct 02 19:09:33 EDT 2015
User: lab3
Dark Spectrum Present: No
Reference Spectrum Present: No
Number of Sampled Component Spectra: 1
Spectrometers: USB2E7196
Integration Time (usec): 46000 (USB2E7196)
Spectra Averaged: 1500 (USB2E7196)
Boxcar Smoothing: 10 (USB2E7196)
Correct for Electrical Dark: No (USB2E7196)
Strobe/Lamp Enabled: No (USB2E7196)
Correct for Detector Non-linearity: No (USB2E7196)
Correct for Stray Light: No (USB2E7196)
Number of Pixels in Processed Spectrum: 2048
>>>>>Begin Processed Spectral Data<<<<<
339.09	0.00
339.48	215.41
339.86	216.97
340.24	218.27
340.63	219.64
341.01	222.86
341.39	222.29
341.78	223.60
342.16	225.08
342.54	225.43
342.93	213.80
343.31	224.61
343.69	225.15
344.07	225.60
344.46	226.04
344.84	226.43
345.22	226.66
345.60	226.92
345.99	227.12
346.37	227.25
346.75	227.36
347.13	227.44
347.52	227.51
347.90	227.60
348.28	227.63
348.66	227.68
349.05	227.67
349.43	227.72
349.81	227.78
350.19	227.83
350.57	227.88
350.96	227.97
351.34	228.06
351.72	228.15
352.10	228.26
352.48	228.34
352.87	228.38
353.25	228.44
353.63	228.50
354.01	228.56
354.39	228.64
354.77	228.71
355.15	228.81
355.54	228.86
355.92	228.89
356.30	228.97
356.68	229.12
357.06	229.21
357.44	229.26
357.82	229.32
358.20	229.43
358.58	229.51
358.97	229.57
359.35	229.66
359.73	229.74
360.11	229.79
360.49	229.85
360.87	229.90
361.25	229.97
361.63	230.07
362.01	230.12
362.39	230.15
362.77	230.19
363.15	230.21
363.53	230.25
363.91	230.28
364.29	230.30
364.67	230.19
365.05	230.21
365.43	230.24
365.81	230.28
366.19	230.30
366.57	230.34
366.95	230.34
367.33	230.30
367.71	230.30
368.09	230.32
368.47	230.31
368.85	230.31
369.23	230.31
369.61	230.24
369.99	230.26
370.37	230.26
370.75	230.34
371.13	230.31
371.51	230.27
371.89	230.25
372.27	230.23
372.65	230.21
373.03	230.18
373.41	230.14
373.78	230.09
374.16	229.98
374.54	229.91
374.92	229.85
375.30	229.80
375.68	229.73
376.06	229.69
376.44	229.64
376.82	229.60
377.19	229.56
377.57	229.51
377.95	229.42
378.33	229.36
378.71	229.21
379.09	229.17
379.47	229.13
379.84	229.06
380.22	229.00
380.60	228.93
380.98	228.88
381.36	228.83
381.73	228.76
382.11	228.74
382.49	228.70
382.87	228.65
383.25	228.61
383.62	228.70
384.00	228.64
384.38	228.59
384.76	228.57
385.13	228.56
385.51	228.53
385.89	228.47
386.27	228.43
386.64	228.41
387.02	228.35
387.40	228.32
387.78	228.30
388.15	228.26
388.53	228.23
388.91	228.20
389.29	228.16
389.66	228.16
390.04	228.12
390.42	228.11
390.79	228.09
391.17	228.07
391.55	227.93
391.92	227.92
392.30	227.92
392.68	227.89
393.05	227.86
393.43	227.86
393.81	227.87
394.18	227.85
394.56	227.85
394.94	227.88
395.31	227.88
395.69	227.92
396.06	227.96
396.44	227.98
396.82	228.00
397.19	228.09
397.57	228.09
397.95	228.14
398.32	228.14
398.70	228.19
399.07	228.26
399.45	228.29
399.82	228.33
400.20	228.36
400.58	228.41
400.95	228.43
401.33	228.51
401.70	228.66
402.08	228.75
402.45	228.83
402.83	228.95
403.20	229.06
403.58	229.15
403.95	229.29
404.33	229.43
404.71	229.57
405.08	229.78
405.46	229.94
405.83	230.12
406.21	230.31
406.58	230.52
406.96	230.73
407.33	230.98
407.70	231.25
408.08	231.63
408.45	231.95
408.83	232.30
409.20	232.62
409.58	232.91
409.95	233.30
410.33	233.73
410.70	234.12
411.08	234.59
411.45	235.07
411.82	235.57
412.20	236.15
412.57	236.83
412.95	237.36
413.32	238.05
413.69	238.76
414.07	239.53
414.44	240.37
414.82	241.20
415.19	242.19
415.56	243.19
415.94	244.22
416.31	245.38
416.68	246.54
417.06	247.91
417.43	249.16
417.81	250.64
418.18	252.12
418.55	253.75
418.93	255.45
419.30	257.21
419.67	259.08
420.04	261.00
420.42	263.00
420.79	265.32
421.16	267.67
421.54	270.05
421.91	272.52
422.28	275.09
422.66	277.87
423.03	280.53
423.40	283.32
423.77	286.29
424.15	289.35
424.52	292.54
424.89	295.95
425.26	299.37
425.64	302.53
426.01	306.11
426.38	309.75
426.75	313.51
427.13	317.37
427.50	321.41
427.87	325.61
428.24	329.85
428.61	333.92
428.99	338.32
429.36	343.14
429.73	347.77
430.10	352.39
430.47	357.12
430.85	361.98
431.22	367.22
431.59	372.60
431.96	377.83
432.33	383.65
432.70	389.21
433.08	395.77
433.45	401.97
433.82	408.08
434.19	414.91
434.56	421.62
434.93	428.13
435.30	434.55
435.68	441.83
436.05	448.95
436.42	456.04
436.79	462.52
437.16	469.51
437.53	476.97
437.90	484.43
438.27	491.75
438.64	499.63
439.01	506.75
439.38	513.28
439.75	519.57
440.13	526.66
440.50	533.40
440.87	538.73
441.24	544.58
441.61	550.95
441.98	555.56
442.35	561.06
442.72	566.64
443.09	571.95
443.46	575.27
443.83	577.67
444.20	579.65
444.57	582.66
444.94	584.30
445.31	586.01
445.68	587.45
446.05	588.43
446.42	587.93
446.79	587.24
447.16	586.61
447.53	586.03
447.90	583.60
448.27	581.25
448.64	577.80
449.01	575.35
449.37	570.64
449.74	566.37
450.11	560.90
450.48	554.96
450.85	548.99
451.22	543.90
451.59	538.92
451.96	534.41
452.33	527.90
452.70	522.14
453.07	515.13
453.43	508.15
453.80	501.40
454.17	494.94
454.54	489.00
454.91	482.30
455.28	476.04
455.65	470.12
456.02	463.90
456.38	458.89
456.75	452.42
457.12	447.23
457.49	441.98
457.86	437.06
458.23	432.75
458.59	428.00
458.96	423.10
459.33	418.82
459.70	414.46
460.07	411.18
460.43	407.29
460.80	403.68
461.17	400.54
461.54	397.11
461.91	393.93
462.27	390.69
462.64	388.08
463.01	385.05
463.38	382.01
463.74	379.26
464.11	376.84
464.48	374.69
464.85	372.32
465.21	370.55
465.58	368.55
465.95	366.27
466.32	364.45
466.68	362.67
467.05	360.88
467.42	359.14
467.78	357.22
468.15	355.47
468.52	354.21
468.88	352.49
469.25	350.92
469.62	349.69
469.98	348.34
470.35	347.15
470.72	346.06
471.08	344.95
471.45	344.02
471.82	342.99
472.18	341.87
472.55	341.16
472.92	340.27
473.28	339.58
473.65	338.82
474.02	338.10
474.38	337.49
474.75	337.13
475.11	336.63
475.48	336.42
475.85	336.17
476.21	336.04
476.58	335.96
476.94	336.10
477.31	336.17
477.67	336.24
478.04	336.44
478.41	336.72
478.77	337.14
479.14	337.41
479.50	337.89
479.87	338.54
480.23	339.19
480.60	339.81
480.96	340.44
481.33	341.38
481.69	342.30
482.06	343.24
482.42	344.09
482.79	345.15
483.15	346.37
483.52	347.76
483.88	349.09
484.25	350.52
484.61	352.00
484.98	353.61
485.34	355.44
485.71	357.33
486.07	359.36
486.44	361.38
486.80	363.63
487.17	365.97
487.53	368.53
487.90	371.22
488.26	374.15
488.62	377.24
488.99	380.35
489.35	383.62
489.72	387.17
490.08	390.90
490.44	394.75
490.81	398.76
491.17	402.85
491.54	407.27
491.90	411.85
492.26	416.73
492.63	421.84
492.99	427.17
493.36	432.70
493.72	438.50
494.08	444.46
494.45	450.79
494.81	457.37
495.17	464.11
495.54	471.24
495.90	478.64
496.26	486.22
496.63	494.04
496.99	502.19
497.35	510.71
497.72	519.51
498.08	528.54
498.44	537.87
498.80	547.75
499.17	557.87
499.53	568.28
499.89	579.09
500.26	590.12
500.62	601.44
500.98	613.37
501.34	625.48
501.71	638.10
502.07	650.93
502.43	664.29
502.79	677.87
503.16	691.88
503.52	706.11
503.88	720.77
504.24	735.84
504.60	751.13
504.97	766.89
505.33	783.08
505.69	800.14
506.05	817.49
506.41	834.82
506.78	852.37
507.14	870.39
507.50	888.88
507.86	907.72
508.22	926.77
508.59	945.73
508.95	965.48
509.31	985.96
509.67	1007.03
510.03	1028.13
510.39	1049.35
510.75	1070.78
511.12	1092.45
511.48	1114.24
511.84	1136.23
512.20	1158.66
512.56	1181.89
512.92	1205.13
513.28	1228.05
513.64	1251.30
514.00	1274.94
514.37	1298.84
514.73	1322.87
515.09	1346.75
515.45	1371.00
515.81	1395.38
516.17	1419.87
516.53	1443.90
516.89	1467.85
517.25	1492.04
517.61	1516.15
517.97	1540.71
518.33	1564.80
518.69	1588.87
519.05	1613.49
519.41	1638.37
519.77	1663.33
520.13	1687.68
520.49	1712.01
520.85	1736.66
521.21	1760.79
521.57	1785.41
521.93	1809.60
522.29	1834.19
522.65	1858.34
523.01	1882.47
523.37	1906.23
523.73	1930.72
524.09	1954.96
524.45	1979.03
524.81	2002.71
525.17	2026.24
525.53	2049.20
525.89	2072.64
526.25	2096.04
526.61	2118.46
526.97	2141.04
527.33	2163.67
527.68	2185.94
528.04	2207.43
528.40	2227.96
528.76	2249.02
529.12	2269.41
529.48	2289.43
529.84	2307.79
530.20	2326.79
530.56	2345.15
530.91	2363.76
531.27	2382.02
531.63	2399.47
531.99	2416.50
532.35	2432.96
532.71	2449.47
533.07	2466.65
533.42	2482.07
533.78	2498.51
534.14	2515.11
534.50	2530.68
534.86	2546.10
535.21	2559.61
535.57	2573.64
535.93	2587.53
536.29	2600.08
536.65	2612.62
537.00	2624.59
537.36	2637.38
537.72	2648.63
538.08	2659.56
538.44	2669.81
538.79	2679.61
539.15	2688.54
539.51	2697.02
539.87	2704.78
540.22	2710.73
540.58	2716.82
540.94	2724.08
541.29	2729.67
541.65	2733.61
542.01	2736.87
542.37	2739.43
542.72	2743.40
543.08	2745.65
543.44	2748.41
543.79	2750.20
544.15	2751.14
544.51	2752.43
544.87	2752.67
545.22	2752.21
545.58	2751.00
545.94	2749.81
546.29	2747.25
546.65	2744.81
547.01	2742.41
547.36	2740.73
547.72	2739.00
548.07	2735.50
548.43	2730.48
548.79	2724.66
549.14	2720.09
549.50	2715.72
549.86	2710.37
550.21	2703.92
550.57	2698.39
550.92	2690.62
551.28	2683.43
551.64	2676.52
551.99	2669.07
552.35	2660.89
552.70	2653.06
553.06	2645.51
553.41	2637.29
553.77	2628.89
554.13	2620.36
554.48	2610.88
554.84	2600.27
555.19	2590.27
555.55	2580.24
555.90	2570.26
556.26	2560.78
556.61	2550.15
556.97	2537.87
557.32	2526.18
557.68	2514.31
558.03	2502.26
558.39	2491.39
558.74	2480.77
559.10	2468.45
559.45	2456.39
559.81	2445.03
560.16	2432.91
560.52	2421.06
560.87	2409.49
561.23	2397.14
561.58	2384.91
561.94	2372.32
562.29	2359.12
562.64	2346.63
563.00	2333.77
563.35	2321.39
563.71	2308.76
564.06	2295.94
564.42	2283.93
564.77	2271.27
565.12	2258.53
565.48	2245.71
565.83	2232.94
566.19	2220.17
566.54	2207.34
566.89	2193.43
567.25	2179.68
567.60	2167.23
567.96	2153.89
568.31	2139.17
568.66	2125.28
569.02	2112.48
569.37	2099.61
569.72	2087.28
570.08	2073.58
570.43	2059.64
570.78	2045.42
571.14	2030.54
571.49	2016.43
571.84	2002.78
572.20	1987.82
572.55	1973.27
572.90	1958.48
573.26	1943.65
573.61	1928.34
573.96	1913.49
574.31	1898.88
574.67	1884.22
575.02	1868.61
575.37	1853.07
575.72	1838.49
576.08	1824.11
576.43	1808.53
576.78	1793.40
577.13	1778.56
577.49	1764.08
577.84	1750.16
578.19	1735.31
578.54	1720.73
578.90	1705.54
579.25	1690.30
579.60	1676.70
579.95	1662.82
580.30	1648.87
580.66	1634.69
581.01	1620.44
581.36	1606.16
581.71	1592.90
582.06	1579.48
582.42	1566.31
582.77	1553.15
583.12	1539.89
583.47	1526.58
583.82	1513.37
584.17	1499.84
584.53	1485.90
584.88	1472.37
585.23	1458.39
585.58	1445.29
585.93	1432.34
586.28	1420.19
586.63	1408.04
586.98	1395.31
587.34	1382.68
587.69	1369.79
588.04	1357.23
588.39	1345.06
588.74	1332.98
589.09	1320.67
589.44	1307.99
589.79	1295.96
590.14	1283.97
590.49	1271.97
590.84	1260.06
591.19	1248.63
591.54	1236.97
591.89	1225.48
592.25	1214.14
592.60	1202.46
592.95	1191.21
593.30	1180.13
593.65	1168.75
594.00	1157.44
594.35	1146.74
594.70	1135.65
595.05	1125.41
595.40	1115.04
595.75	1104.53
596.10	1094.65
596.45	1084.40
596.80	1074.50
597.15	1064.36
597.50	1054.41
597.85	1044.82
598.19	1035.06
598.54	1025.33
598.89	1016.10
599.24	1007.19
599.59	998.11
599.94	989.94
600.29	981.53
600.64	972.81
600.99	963.71
601.34	955.04
601.69	946.06
602.04	937.76
602.39	929.29
602.74	920.82
603.08	912.36
603.43	903.83
603.78	895.53
604.13	887.37
604.48	879.17
604.83	871.19
605.18	863.10
605.53	855.18
605.87	847.05
606.22	839.29
606.57	831.42
606.92	823.45
607.27	815.42
607.62	807.72
607.96	800.47
608.31	793.65
608.66	786.64
609.01	779.91
609.36	773.29
609.70	766.38
610.05	759.51
610.40	752.89
610.75	746.23
611.10	739.90
611.44	733.45
611.79	727.09
612.14	720.63
612.49	714.29
612.83	708.26
613.18	702.37
613.53	696.33
613.88	690.38
614.22	684.86
614.57	679.23
614.92	673.43
615.27	667.78
615.61	662.19
615.96	656.63
616.31	651.09
616.65	645.59
617.00	640.35
617.35	635.22
617.70	630.12
618.04	625.05
618.39	619.95
618.74	615.12
619.08	610.32
619.43	605.63
619.78	600.97
620.12	596.22
620.47	591.68
620.82	587.25
621.16	582.80
621.51	578.22
621.85	573.74
622.20	569.44
622.55	565.13
622.89	560.91
623.24	556.67
623.59	552.51
623.93	548.51
624.28	544.60
624.62	540.77
624.97	536.97
625.32	533.20
625.66	529.33
626.01	525.41
626.35	521.58
626.70	517.83
627.04	514.23
627.39	510.61
627.73	507.16
628.08	503.77
628.43	500.38
628.77	497.10
629.12	493.91
629.46	490.73
629.81	487.46
630.15	484.23
630.50	481.08
630.84	477.97
631.19	474.93
631.53	471.99
631.88	469.02
632.22	466.08
632.57	463.41
632.91	460.80
633.26	458.28
633.60	455.76
633.95	453.31
634.29	450.76
634.64	448.27
634.98	445.57
635.32	443.06
635.67	440.76
636.01	438.35
636.36	436.02
636.70	433.83
637.05	431.64
637.39	429.47
637.73	427.32
638.08	425.30
638.42	423.22
638.77	421.02
639.11	418.78
639.45	416.62
639.80	414.39
640.14	412.26
640.49	410.11
640.83	407.95
641.17	405.89
641.52	403.88
641.86	401.88
642.20	400.11
642.55	398.15
642.89	396.23
643.23	394.42
643.58	392.75
643.92	390.93
644.26	389.19
644.61	387.51
644.95	385.78
645.29	383.99
645.64	382.22
645.98	380.54
646.32	378.99
646.66	377.42
647.01	375.87
647.35	374.37
647.69	372.85
648.04	371.47
648.38	370.00
648.72	368.56
649.06	367.12
649.41	365.69
649.75	364.31
650.09	362.93
650.43	361.57
650.78	360.16
651.12	358.78
651.46	357.45
651.80	356.15
652.14	354.90
652.49	353.68
652.83	352.45
653.17	351.26
653.51	350.10
653.85	349.00
654.20	347.83
654.54	346.61
654.88	345.48
655.22	344.36
655.56	343.21
655.90	342.14
656.25	341.10
656.59	340.06
656.93	339.06
657.27	338.09
657.61	337.05
657.95	336.05
658.29	335.06
658.64	334.12
658.98	333.18
659.32	332.25
659.66	331.36
660.00	330.50
660.34	329.62
660.68	328.71
661.02	327.74
661.36	326.84
661.70	325.97
662.05	325.10
662.39	324.26
662.73	323.50
663.07	322.74
663.41	321.93
663.75	321.13
664.09	320.33
664.43	319.49
664.77	318.72
665.11	317.91
665.45	317.17
665.79	316.44
666.13	315.65
666.47	314.85
666.81	314.06
667.15	313.23
667.49	312.51
667.83	311.86
668.17	311.19
668.51	310.55
668.85	309.95
669.19	309.36
669.53	308.67
669.87	307.99
670.21	307.32
670.55	306.69
670.89	306.12
671.23	305.52
671.57	304.93
671.91	304.39
672.25	303.86
672.58	303.33
672.92	302.72
673.26	302.22
673.60	301.71
673.94	301.22
674.28	300.77
674.62	300.26
674.96	299.69
675.30	299.18
675.64	298.64
675.97	298.09
676.31	297.52
676.65	297.01
676.99	296.54
677.33	296.01
677.67	295.51
678.01	294.93
678.34	294.44
678.68	293.96
679.02	293.43
679.36	292.92
679.70	292.40
680.04	291.93
680.37	291.44
680.71	290.97
681.05	290.51
681.39	290.01
681.73	289.49
682.06	288.98
682.40	288.50
682.74	288.08
683.08	287.69
683.42	287.25
683.75	286.83
684.09	286.35
684.43	285.94
684.77	285.51
685.10	285.12
685.44	284.71
685.78	284.30
686.12	283.92
686.45	283.49
686.79	283.07
687.13	282.66
687.46	282.22
687.80	281.81
688.14	281.35
688.48	280.96
688.81	280.56
689.15	280.20
689.49	279.78
689.82	279.36
690.16	278.87
690.50	278.48
690.83	278.07
691.17	277.66
691.51	277.24
691.84	276.86
692.18	276.44
692.52	276.01
692.85	275.60
693.19	275.23
693.52	274.83
693.86	274.44
694.20	274.06
694.53	273.69
694.87	273.28
695.21	272.88
695.54	272.48
695.88	272.09
696.21	271.67
696.55	271.30
696.88	270.93
697.22	270.57
697.56	270.19
697.89	269.78
698.23	269.40
698.56	269.00
698.90	268.63
699.23	268.24
699.57	267.87
699.90	267.48
700.24	267.08
700.58	266.75
700.91	266.43
701.25	266.19
701.58	265.89
701.92	265.58
702.25	265.26
702.59	264.92
702.92	264.59
703.26	264.24
703.59	263.88
703.93	263.64
704.26	263.33
704.60	262.99
704.93	262.66
705.26	262.33
705.60	262.05
705.93	261.69
706.27	261.42
706.60	261.14
706.94	260.87
707.27	260.53
707.61	260.19
707.94	259.85
708.27	259.42
708.61	259.05
708.94	258.71
709.28	258.41
709.61	258.10
709.94	257.83
710.28	257.57
710.61	257.32
710.95	256.95
711.28	256.73
711.61	256.44
711.95	256.20
712.28	255.92
712.61	255.62
712.95	255.44
713.28	255.22
713.61	254.92
713.95	254.62
714.28	254.38
714.61	254.11
714.95	253.85
715.28	253.60
715.61	253.36
715.95	253.14
716.28	252.91
716.61	252.69
716.95	252.44
717.28	252.19
717.61	251.93
717.94	251.68
718.28	251.37
718.61	251.13
718.94	250.88
719.27	250.65
719.61	250.46
719.94	250.20
720.27	249.90
720.60	249.68
720.94	249.48
721.27	249.26
721.60	249.08
721.93	248.86
722.27	248.69
722.60	248.50
722.93	248.28
723.26	248.07
723.59	247.83
723.93	247.64
724.26	247.45
724.59	247.26
724.92	247.08
725.25	246.94
725.59	246.76
725.92	246.61
726.25	246.43
726.58	246.24
726.91	246.05
727.24	245.89
727.57	245.72
727.91	245.53
728.24	245.39
728.57	245.21
728.90	245.06
729.23	244.85
729.56	244.74
729.89	244.56
730.22	244.39
730.55	244.22
730.89	244.06
731.22	243.90
731.55	243.73
731.88	243.57
732.21	243.38
732.54	243.22
732.87	243.06
733.20	242.92
733.53	242.77
733.86	242.63
734.19	242.46
734.52	242.34
734.85	242.27
735.18	242.09
735.51	241.98
735.84	241.84
736.17	241.74
736.50	241.53
736.83	241.54
737.16	241.41
737.49	241.29
737.82	241.15
738.15	241.04
738.48	240.91
738.81	240.78
739.14	240.63
739.47	240.49
739.80	240.34
740.13	240.22
740.46	240.06
740.79	239.91
741.12	239.79
741.45	239.63
741.78	239.44
742.11	239.35
742.44	239.19
742.77	239.08
743.10	238.94
743.43	238.81
743.75	238.57
744.08	238.64
744.41	238.52
744.74	238.39
745.07	238.24
745.40	238.15
745.73	238.09
746.06	237.99
746.39	237.90
746.71	237.80
747.04	237.68
747.37	237.58
747.70	237.50
748.03	237.40
748.36	237.33
748.68	237.22
749.01	237.09
749.34	236.99
749.67	236.88
750.00	236.81
750.33	236.81
750.65	236.72
750.98	236.44
751.31	236.34
751.64	236.27
751.97	236.24
752.29	236.14
752.62	235.99
752.95	235.89
753.28	235.77
753.60	235.68
753.93	235.63
754.26	235.55
754.59	235.41
754.91	235.32
755.24	235.22
755.57	235.19
755.90	235.11
756.22	235.02
756.55	234.92
756.88	234.81
757.20	234.64
757.53	234.52
757.86	234.43
758.19	234.36
758.51	234.27
758.84	234.13
759.17	234.05
759.49	233.98
759.82	233.98
760.15	233.93
760.47	233.86
760.80	233.75
761.13	233.69
761.45	233.63
761.78	233.56
762.11	233.50
762.43	233.37
762.76	233.30
763.08	233.25
763.41	233.19
763.74	233.14
764.06	233.08
764.39	233.04
764.71	232.98
765.04	232.90
765.37	232.84
765.69	232.78
766.02	232.72
766.34	232.65
766.67	232.54
767.00	232.50
767.32	232.52
767.65	232.55
767.97	232.48
768.30	232.45
768.62	232.41
768.95	232.34
769.27	232.30
769.60	232.26
769.92	232.19
770.25	232.12
770.57	232.05
770.90	232.00
771.22	231.93
771.55	231.88
771.87	231.86
772.20	231.80
772.52	231.86
772.85	231.96
773.17	231.93
773.50	231.88
773.82	231.81
774.15	231.70
774.47	231.58
774.80	231.52
775.12	231.47
775.45	231.42
775.77	231.39
776.09	231.35
776.42	231.32
776.74	231.32
777.07	231.29
777.39	231.26
777.72	231.21
778.04	231.21
778.36	231.16
778.69	231.13
779.01	231.12
779.33	230.97
779.66	230.80
779.98	230.75
780.31	230.72
780.63	230.75
780.95	230.74
781.28	230.71
781.60	230.68
781.92	230.65
782.25	230.62
782.57	230.59
782.89	230.56
783.22	230.52
783.54	230.46
783.86	230.45
784.19	230.42
784.51	230.44
784.83	230.39
785.16	230.36
785.48	230.33
785.80	230.30
786.12	230.29
786.45	230.26
786.77	230.26
787.09	230.22
787.42	230.16
787.74	230.14
788.06	230.13
788.38	230.09
788.71	230.06
789.03	230.05
789.35	230.05
789.67	230.01
789.99	230.00
790.32	229.96
790.64	229.95
790.96	230.04
791.28	229.98
791.61	229.95
791.93	229.95
792.25	229.92
792.57	229.98
792.89	229.93
793.21	229.93
793.54	229.90
793.86	229.87
794.18	229.85
794.50	229.81
794.82	229.78
795.14	229.78
795.47	229.78
795.79	229.75
796.11	229.69
796.43	229.67
796.75	229.65
797.07	229.64
797.39	229.61
797.71	229.50
798.04	229.48
798.36	229.47
798.68	229.45
799.00	229.44
799.32	229.36
799.64	229.38
799.96	229.35
800.28	229.35
800.60	229.33
800.92	229.32
801.24	229.29
801.56	229.28
801.89	229.25
802.21	229.25
802.53	229.21
802.85	229.23
803.17	229.28
803.49	229.24
803.81	229.21
804.13	229.20
804.45	229.17
804.77	229.17
805.09	229.15
805.41	229.12
805.73	229.09
806.05	229.05
806.37	229.02
806.69	229.00
807.01	228.97
807.33	228.97
807.65	228.92
807.97	228.97
808.28	228.96
808.60	228.94
808.92	228.91
809.24	228.98
809.56	228.95
809.88	228.89
810.20	228.89
810.52	228.90
810.84	228.87
811.16	228.84
811.48	228.81
811.80	228.85
812.12	228.84
812.43	228.85
812.75	228.85
813.07	228.84
813.39	228.83
813.71	228.81
814.03	228.79
814.35	228.79
814.67	228.73
814.98	228.70
815.30	228.69
815.62	228.67
815.94	228.58
816.26	228.58
816.58	228.55
816.89	228.55
817.21	228.51
817.53	228.52
817.85	228.52
818.17	228.53
818.48	228.48
