SpectraSuite Data File
++++++++++++++++++++++++++++++++++++
Date: Sun Oct 04 17:05:09 EDT 2015
User: lab3
Dark Spectrum Present: No
Reference Spectrum Present: No
Number of Sampled Component Spectra: 1
Spectrometers: USB2E7196
Integration Time (usec): 46000 (USB2E7196)
Spectra Averaged: 24000 (USB2E7196)
Boxcar Smoothing: 10 (USB2E7196)
Correct for Electrical Dark: No (USB2E7196)
Strobe/Lamp Enabled: No (USB2E7196)
Correct for Detector Non-linearity: No (USB2E7196)
Correct for Stray Light: No (USB2E7196)
Number of Pixels in Processed Spectrum: 2048
>>>>>Begin Processed Spectral Data<<<<<
339.09	0.00
339.48	213.15
339.86	214.62
340.24	216.00
340.63	217.43
341.01	220.72
341.39	220.13
341.78	221.52
342.16	222.75
342.54	223.16
342.93	211.64
343.31	222.34
343.69	222.87
344.07	223.34
344.46	223.77
344.84	224.16
345.22	224.39
345.60	224.65
345.99	224.85
346.37	224.98
346.75	225.09
347.13	225.17
347.52	225.25
347.90	225.35
348.28	225.39
348.66	225.46
349.05	225.45
349.43	225.51
349.81	225.58
350.19	225.63
350.57	225.71
350.96	225.80
351.34	225.90
351.72	226.00
352.10	226.11
352.48	226.18
352.87	226.24
353.25	226.30
353.63	226.36
354.01	226.43
354.39	226.51
354.77	226.59
355.15	226.70
355.54	226.74
355.92	226.77
356.30	226.85
356.68	227.00
357.06	227.08
357.44	227.12
357.82	227.18
358.20	227.30
358.58	227.36
358.97	227.43
359.35	227.51
359.73	227.60
360.11	227.65
360.49	227.71
360.87	227.76
361.25	227.83
361.63	227.91
362.01	227.97
362.39	227.99
362.77	228.05
363.15	228.07
363.53	228.11
363.91	228.14
364.29	228.17
364.67	228.07
365.05	228.09
365.43	228.12
365.81	228.16
366.19	228.17
366.57	228.23
366.95	228.23
367.33	228.20
367.71	228.20
368.09	228.22
368.47	228.21
368.85	228.20
369.23	228.21
369.61	228.15
369.99	228.17
370.37	228.17
370.75	228.25
371.13	228.22
371.51	228.17
371.89	228.16
372.27	228.13
372.65	228.12
373.03	228.08
373.41	228.03
373.78	227.98
374.16	227.88
374.54	227.80
374.92	227.75
375.30	227.71
375.68	227.64
376.06	227.59
376.44	227.54
376.82	227.50
377.19	227.45
377.57	227.40
377.95	227.31
378.33	227.25
378.71	227.09
379.09	227.04
379.47	227.01
379.84	226.94
380.22	226.88
380.60	226.81
380.98	226.76
381.36	226.71
381.73	226.65
382.11	226.63
382.49	226.59
382.87	226.53
383.25	226.48
383.62	226.59
384.00	226.52
384.38	226.48
384.76	226.47
385.13	226.47
385.51	226.43
385.89	226.38
386.27	226.34
386.64	226.33
387.02	226.28
387.40	226.24
387.78	226.22
388.15	226.20
388.53	226.17
388.91	226.14
389.29	226.10
389.66	226.10
390.04	226.06
390.42	226.06
390.79	226.06
391.17	226.04
391.55	225.88
391.92	225.87
392.30	225.87
392.68	225.84
393.05	225.82
393.43	225.82
393.81	225.83
394.18	225.81
394.56	225.82
394.94	225.86
395.31	225.86
395.69	225.91
396.06	225.94
396.44	225.97
396.82	225.98
397.19	226.08
397.57	226.09
397.95	226.15
398.32	226.15
398.70	226.20
399.07	226.27
399.45	226.32
399.82	226.37
400.20	226.41
400.58	226.48
400.95	226.51
401.33	226.60
401.70	226.77
402.08	226.88
402.45	226.98
402.83	227.11
403.20	227.24
403.58	227.35
403.95	227.50
404.33	227.67
404.71	227.84
405.08	228.07
405.46	228.26
405.83	228.47
406.21	228.69
406.58	228.94
406.96	229.19
407.33	229.48
407.70	229.80
408.08	230.22
408.45	230.60
408.83	231.01
409.20	231.39
409.58	231.74
409.95	232.20
410.33	232.71
410.70	233.18
411.08	233.74
411.45	234.33
411.82	234.94
412.20	235.62
412.57	236.44
412.95	237.09
413.32	237.93
413.69	238.79
414.07	239.71
414.44	240.70
414.82	241.71
415.19	242.90
415.56	244.11
415.94	245.36
416.31	246.77
416.68	248.17
417.06	249.79
417.43	251.31
417.81	253.07
418.18	254.86
418.55	256.81
418.93	258.84
419.30	260.97
419.67	263.22
420.04	265.54
420.42	267.95
420.79	270.73
421.16	273.54
421.54	276.40
421.91	279.39
422.28	282.49
422.66	285.84
423.03	289.02
423.40	292.37
423.77	295.97
424.15	299.64
424.52	303.47
424.89	307.62
425.26	311.75
425.64	315.58
426.01	319.90
426.38	324.31
426.75	328.84
427.13	333.50
427.50	338.38
427.87	343.44
428.24	348.56
428.61	353.50
428.99	358.82
429.36	364.67
429.73	370.24
430.10	375.82
430.47	381.52
430.85	387.39
431.22	393.69
431.59	400.15
431.96	406.46
432.33	413.48
432.70	420.14
433.08	428.01
433.45	435.45
433.82	442.80
434.19	450.98
434.56	459.05
434.93	466.86
435.30	474.56
435.68	483.28
436.05	491.82
436.42	500.34
436.79	508.11
437.16	516.49
437.53	525.47
437.90	534.48
438.27	543.27
438.64	552.80
439.01	561.41
439.38	569.31
439.75	576.90
440.13	585.48
440.50	593.64
440.87	600.12
441.24	607.20
441.61	614.92
441.98	620.55
442.35	627.24
442.72	634.06
443.09	640.57
443.46	644.68
443.83	647.67
444.20	650.15
444.57	653.90
444.94	655.99
445.31	658.17
445.68	659.99
446.05	661.34
446.42	660.88
446.79	660.19
447.16	659.57
447.53	659.00
447.90	656.20
448.27	653.52
448.64	649.46
449.01	646.62
449.37	641.03
449.74	635.99
450.11	629.48
450.48	622.37
450.85	615.27
451.22	609.22
451.59	603.32
451.96	597.98
452.33	590.20
452.70	583.32
453.07	574.91
453.43	566.55
453.80	558.42
454.17	550.63
454.54	543.49
454.91	535.40
455.28	527.84
455.65	520.70
456.02	513.13
456.38	507.08
456.75	499.28
457.12	493.01
457.49	486.67
457.86	480.73
458.23	475.51
458.59	469.70
458.96	463.74
459.33	458.50
459.70	453.16
460.07	449.12
460.43	444.36
460.80	439.91
461.17	436.06
461.54	431.85
461.91	427.91
462.27	423.90
462.64	420.68
463.01	416.96
463.38	413.21
463.74	409.86
464.11	406.87
464.48	404.19
464.85	401.26
465.21	399.05
465.58	396.56
465.95	393.72
466.32	391.46
466.68	389.24
467.05	387.01
467.42	384.83
467.78	382.46
468.15	380.28
468.52	378.68
468.88	376.53
469.25	374.57
469.62	373.00
469.98	371.28
470.35	369.75
470.72	368.36
471.08	366.95
471.45	365.75
471.82	364.42
472.18	363.01
472.55	362.09
472.92	360.93
473.28	360.01
473.65	359.02
474.02	358.08
474.38	357.27
474.75	356.77
475.11	356.09
475.48	355.75
475.85	355.37
476.21	355.14
476.58	354.96
476.94	355.04
477.31	355.05
477.67	355.10
478.04	355.26
478.41	355.52
478.77	355.92
479.14	356.15
479.50	356.66
479.87	357.35
480.23	358.04
480.60	358.72
480.96	359.40
481.33	360.45
481.69	361.49
482.06	362.53
482.42	363.47
482.79	364.66
483.15	366.04
483.52	367.63
483.88	369.15
484.25	370.78
484.61	372.46
484.98	374.29
485.34	376.35
485.71	378.51
486.07	380.83
486.44	383.16
486.80	385.74
487.17	388.42
487.53	391.36
487.90	394.42
488.26	397.77
488.62	401.31
488.99	404.85
489.35	408.57
489.72	412.63
490.08	416.90
490.44	421.30
490.81	425.87
491.17	430.55
491.54	435.57
491.90	440.74
492.26	446.29
492.63	452.10
492.99	458.16
493.36	464.45
493.72	471.04
494.08	477.79
494.45	484.98
494.81	492.44
495.17	500.10
495.54	508.21
495.90	516.63
496.26	525.23
496.63	534.07
496.99	543.26
497.35	552.85
497.72	562.79
498.08	572.92
498.44	583.40
498.80	594.52
499.17	605.92
499.53	617.69
499.89	629.81
500.26	642.20
500.62	654.89
500.98	668.27
501.34	681.85
501.71	695.97
502.07	710.27
502.43	725.12
502.79	740.22
503.16	755.83
503.52	771.61
503.88	787.88
504.24	804.64
504.60	821.60
504.97	839.08
505.33	856.98
505.69	875.85
506.05	895.12
506.41	914.33
506.78	933.70
507.14	953.56
507.50	973.91
507.86	994.60
508.22	1015.55
508.59	1036.26
508.95	1057.82
509.31	1080.15
509.67	1103.31
510.03	1126.49
510.39	1149.64
510.75	1172.89
511.12	1196.44
511.48	1220.17
511.84	1243.88
512.20	1268.04
512.56	1293.16
512.92	1318.31
513.28	1342.94
513.64	1367.78
514.00	1393.14
514.37	1418.86
514.73	1444.51
515.09	1469.99
515.45	1495.77
515.81	1521.77
516.17	1547.84
516.53	1573.43
516.89	1598.86
517.25	1624.44
517.61	1649.80
517.97	1675.66
518.33	1701.06
518.69	1726.38
519.05	1752.10
519.41	1778.10
519.77	1804.38
520.13	1829.74
520.49	1855.04
520.85	1880.71
521.21	1906.04
521.57	1931.65
521.93	1956.63
522.29	1982.21
522.65	2007.14
523.01	2032.09
523.37	2056.53
523.73	2081.76
524.09	2106.57
524.45	2131.18
524.81	2155.37
525.17	2179.41
525.53	2202.77
525.89	2226.62
526.25	2250.52
526.61	2273.41
526.97	2296.45
527.33	2319.31
527.68	2341.95
528.04	2363.66
528.40	2384.44
528.76	2405.18
529.12	2425.47
529.48	2445.61
529.84	2463.65
530.20	2482.46
530.56	2500.55
530.91	2518.76
531.27	2536.64
531.63	2553.59
531.99	2570.00
532.35	2585.63
532.71	2601.53
533.07	2618.15
533.42	2632.74
533.78	2648.30
534.14	2664.17
534.50	2679.08
534.86	2693.71
535.21	2706.18
535.57	2719.27
535.93	2732.16
536.29	2743.97
536.65	2755.51
537.00	2766.09
537.36	2777.87
537.72	2788.21
538.08	2797.96
538.44	2806.95
538.79	2815.42
539.15	2823.20
539.51	2830.70
539.87	2837.57
540.22	2842.17
540.58	2846.88
540.94	2852.84
541.29	2857.25
541.65	2859.73
542.01	2861.33
542.37	2862.23
542.72	2864.71
543.08	2865.31
543.44	2866.45
543.79	2866.57
544.15	2865.82
544.51	2865.54
544.87	2864.01
545.22	2861.66
545.58	2858.62
545.94	2855.60
546.29	2851.35
546.65	2847.04
547.01	2842.53
547.36	2838.85
547.72	2835.50
548.07	2830.22
548.43	2823.54
548.79	2815.69
549.14	2809.16
549.50	2803.12
549.86	2796.05
550.21	2787.74
550.57	2780.48
550.92	2770.81
551.28	2761.62
551.64	2752.96
551.99	2743.96
552.35	2734.28
552.70	2724.86
553.06	2715.84
553.41	2706.22
553.77	2696.33
554.13	2686.38
554.48	2675.58
554.84	2663.40
555.19	2651.54
555.55	2639.90
555.90	2628.33
556.26	2617.43
556.61	2605.35
556.97	2591.58
557.32	2578.21
557.68	2564.93
558.03	2551.28
558.39	2539.06
558.74	2527.20
559.10	2513.46
559.45	2499.79
559.81	2486.80
560.16	2473.25
560.52	2460.05
560.87	2447.24
561.23	2433.65
561.58	2420.02
561.94	2406.16
562.29	2391.69
562.64	2378.04
563.00	2364.08
563.35	2350.44
563.71	2336.66
564.06	2322.83
564.42	2309.79
564.77	2296.32
565.12	2282.70
565.48	2269.07
565.83	2255.29
566.19	2241.67
566.54	2227.97
566.89	2213.15
567.25	2198.56
567.60	2185.40
567.96	2171.22
568.31	2155.64
568.66	2140.68
569.02	2127.04
569.37	2113.39
569.72	2100.28
570.08	2085.89
570.43	2071.07
570.78	2056.19
571.14	2040.55
571.49	2025.54
571.84	2011.08
572.20	1995.38
572.55	1979.83
572.90	1964.34
573.26	1948.94
573.61	1933.04
573.96	1917.60
574.31	1902.45
574.67	1887.35
575.02	1871.08
575.37	1854.94
575.72	1839.71
576.08	1824.83
576.43	1808.89
576.78	1793.29
577.13	1777.97
577.49	1763.05
577.84	1748.79
578.19	1733.58
578.54	1718.49
578.90	1702.89
579.25	1687.20
579.60	1673.16
579.95	1659.06
580.30	1644.72
580.66	1630.09
581.01	1615.40
581.36	1600.68
581.71	1586.96
582.06	1573.16
582.42	1559.58
582.77	1546.10
583.12	1532.60
583.47	1518.95
583.82	1505.43
584.17	1491.60
584.53	1477.46
584.88	1463.66
585.23	1449.51
585.58	1436.10
585.93	1422.91
586.28	1410.48
586.63	1398.00
586.98	1385.09
587.34	1372.24
587.69	1359.12
588.04	1346.33
588.39	1333.90
588.74	1321.65
589.09	1309.19
589.44	1296.32
589.79	1284.11
590.14	1272.00
590.49	1259.77
590.84	1247.72
591.19	1236.02
591.54	1224.12
591.89	1212.36
592.25	1200.84
592.60	1188.90
592.95	1177.42
593.30	1166.21
593.65	1154.72
594.00	1143.37
594.35	1132.55
594.70	1121.30
595.05	1110.94
595.40	1100.50
595.75	1089.88
596.10	1079.77
596.45	1069.45
596.80	1059.48
597.15	1049.19
597.50	1039.09
597.85	1029.42
598.19	1019.60
598.54	1009.81
598.89	1000.54
599.24	991.56
599.59	982.35
599.94	974.06
600.29	965.60
600.64	956.88
600.99	947.80
601.34	939.06
601.69	930.00
602.04	921.64
602.39	913.07
602.74	904.58
603.08	896.05
603.43	887.49
603.78	879.09
604.13	870.83
604.48	862.63
604.83	854.58
605.18	846.47
605.53	838.54
605.87	830.49
606.22	822.65
606.57	814.77
606.92	806.86
607.27	798.88
607.62	791.16
607.96	783.83
608.31	776.97
608.66	769.88
609.01	763.09
609.36	756.38
609.70	749.53
610.05	742.62
610.40	736.00
610.75	729.37
611.10	723.09
611.44	716.63
611.79	710.28
612.14	703.87
612.49	697.52
612.83	691.47
613.18	685.54
613.53	679.57
613.88	673.60
614.22	667.99
614.57	662.36
614.92	656.61
615.27	650.94
615.61	645.33
615.96	639.80
616.31	634.25
616.65	628.76
617.00	623.46
617.35	618.28
617.70	613.12
618.04	608.07
618.39	602.92
618.74	598.00
619.08	593.12
619.43	588.38
619.78	583.64
620.12	578.87
620.47	574.23
620.82	569.70
621.16	565.26
621.51	560.73
621.85	556.21
622.20	551.85
622.55	547.54
622.89	543.31
623.24	539.09
623.59	534.89
623.93	530.86
624.28	526.92
624.62	523.07
624.97	519.28
625.32	515.42
625.66	511.55
626.01	507.65
626.35	503.82
626.70	500.01
627.04	496.41
627.39	492.73
627.73	489.22
628.08	485.80
628.43	482.36
628.77	478.99
629.12	475.75
629.46	472.55
629.81	469.25
630.15	465.94
630.50	462.73
630.84	459.59
631.19	456.50
631.53	453.51
631.88	450.48
632.22	447.47
632.57	444.75
632.91	442.05
633.26	439.44
633.60	436.85
633.95	434.31
634.29	431.69
634.64	429.14
634.98	426.43
635.32	423.83
635.67	421.42
636.01	418.97
636.36	416.54
636.70	414.22
637.05	411.93
637.39	409.68
637.73	407.45
638.08	405.34
638.42	403.21
638.77	400.93
639.11	398.61
639.45	396.37
639.80	394.08
640.14	391.90
640.49	389.71
640.83	387.50
641.17	385.38
641.52	383.31
641.86	381.27
642.20	379.42
642.55	377.43
642.89	375.46
643.23	373.59
643.58	371.86
643.92	370.03
644.26	368.25
644.61	366.52
644.95	364.77
645.29	362.93
645.64	361.12
645.98	359.42
646.32	357.82
646.66	356.22
647.01	354.64
647.35	353.09
647.69	351.53
648.04	350.10
648.38	348.59
648.72	347.11
649.06	345.64
649.41	344.16
649.75	342.74
650.09	341.36
650.43	339.97
650.78	338.54
651.12	337.15
651.46	335.81
651.80	334.50
652.14	333.21
652.49	331.97
652.83	330.71
653.17	329.49
653.51	328.30
653.85	327.17
654.20	326.00
654.54	324.76
654.88	323.60
655.22	322.49
655.56	321.36
655.90	320.29
656.25	319.26
656.59	318.21
656.93	317.23
657.27	316.26
657.61	315.23
657.95	314.26
658.29	313.27
658.64	312.34
658.98	311.40
659.32	310.50
659.66	309.64
660.00	308.82
660.34	307.97
660.68	307.12
661.02	306.24
661.36	305.39
661.70	304.59
662.05	303.80
662.39	303.02
662.73	302.31
663.07	301.62
663.41	300.86
663.75	300.12
664.09	299.39
664.43	298.61
664.77	297.92
665.11	297.19
665.45	296.52
665.79	295.86
666.13	295.17
666.47	294.47
666.81	293.75
667.15	293.01
667.49	292.37
667.83	291.79
668.17	291.17
668.51	290.59
668.85	290.05
669.19	289.55
669.53	288.94
669.87	288.33
670.21	287.73
670.55	287.19
670.89	286.72
671.23	286.20
671.57	285.69
671.91	285.24
672.25	284.80
672.58	284.37
672.92	283.86
673.26	283.42
673.60	282.99
673.94	282.58
674.28	282.20
674.62	281.79
674.96	281.32
675.30	280.92
675.64	280.49
675.97	280.04
676.31	279.56
676.65	279.14
676.99	278.78
677.33	278.35
677.67	277.96
678.01	277.49
678.34	277.10
678.68	276.74
679.02	276.31
679.36	275.90
679.70	275.48
680.04	275.11
680.37	274.74
680.71	274.38
681.05	274.03
681.39	273.65
681.73	273.25
682.06	272.88
682.40	272.51
682.74	272.19
683.08	271.92
683.42	271.59
683.75	271.29
684.09	270.90
684.43	270.60
684.77	270.27
685.10	269.99
685.44	269.68
685.78	269.37
686.12	269.08
686.45	268.77
686.79	268.44
687.13	268.16
687.46	267.83
687.80	267.53
688.14	267.19
688.48	266.90
688.81	266.60
689.15	266.34
689.49	266.03
689.82	265.72
690.16	265.35
690.50	265.06
690.83	264.76
691.17	264.46
691.51	264.17
691.84	263.90
692.18	263.59
692.52	263.27
692.85	262.99
693.19	262.74
693.52	262.45
693.86	262.18
694.20	261.89
694.53	261.63
694.87	261.33
695.21	261.06
695.54	260.78
695.88	260.50
696.21	260.19
696.55	259.92
696.88	259.65
697.22	259.39
697.56	259.12
697.89	258.82
698.23	258.56
698.56	258.26
698.90	258.01
699.23	257.72
699.57	257.45
699.90	257.17
700.24	256.88
700.58	256.64
700.91	256.42
701.25	256.27
701.58	256.07
701.92	255.87
702.25	255.63
702.59	255.38
702.92	255.14
703.26	254.90
703.59	254.64
703.93	254.50
704.26	254.26
704.60	254.02
704.93	253.77
705.26	253.52
705.60	253.32
705.93	253.05
706.27	252.86
706.60	252.67
706.94	252.49
707.27	252.23
707.61	251.98
707.94	251.72
708.27	251.37
708.61	251.08
708.94	250.81
709.28	250.58
709.61	250.35
709.94	250.15
710.28	249.94
710.61	249.75
710.95	249.43
711.28	249.30
711.61	249.09
711.95	248.92
712.28	248.70
712.61	248.46
712.95	248.33
713.28	248.18
713.61	247.95
713.95	247.70
714.28	247.52
714.61	247.31
714.95	247.11
715.28	246.91
715.61	246.73
715.95	246.56
716.28	246.37
716.61	246.22
716.95	246.02
717.28	245.83
717.61	245.63
717.94	245.45
718.28	245.18
718.61	244.99
718.94	244.78
719.27	244.61
719.61	244.45
719.94	244.24
720.27	243.98
720.60	243.80
720.94	243.63
721.27	243.47
721.60	243.32
721.93	243.15
722.27	243.02
722.60	242.87
722.93	242.69
723.26	242.53
723.59	242.32
723.93	242.17
724.26	242.02
724.59	241.85
724.92	241.70
725.25	241.60
725.59	241.45
725.92	241.32
726.25	241.17
726.58	241.02
726.91	240.87
727.24	240.75
727.57	240.60
727.91	240.44
728.24	240.33
728.57	240.17
728.90	240.05
729.23	239.87
729.56	239.78
729.89	239.64
730.22	239.49
730.55	239.36
730.89	239.22
731.22	239.09
731.55	238.96
731.88	238.82
732.21	238.66
732.54	238.52
732.87	238.39
733.20	238.27
733.53	238.15
733.86	238.04
734.19	237.90
734.52	237.80
734.85	237.77
735.18	237.62
735.51	237.54
735.84	237.42
736.17	237.35
736.50	237.17
736.83	237.21
737.16	237.10
737.49	237.00
737.82	236.89
738.15	236.80
738.48	236.70
738.81	236.58
739.14	236.47
739.47	236.36
739.80	236.25
740.13	236.15
740.46	236.02
740.79	235.90
741.12	235.80
741.45	235.67
741.78	235.49
742.11	235.43
742.44	235.29
742.77	235.21
743.10	235.09
743.43	234.98
743.75	234.75
744.08	234.86
744.41	234.75
744.74	234.65
745.07	234.53
745.40	234.46
745.73	234.42
746.06	234.34
746.39	234.27
746.71	234.18
747.04	234.08
747.37	233.99
747.70	233.93
748.03	233.86
748.36	233.80
748.68	233.71
749.01	233.59
749.34	233.51
749.67	233.43
750.00	233.37
750.33	233.39
750.65	233.32
750.98	233.05
751.31	232.98
751.64	232.91
751.97	232.90
752.29	232.82
752.62	232.68
752.95	232.60
753.28	232.50
753.60	232.42
753.93	232.38
754.26	232.32
754.59	232.20
754.91	232.11
755.24	232.03
755.57	232.01
755.90	231.94
756.22	231.86
756.55	231.77
756.88	231.67
757.20	231.51
757.53	231.41
757.86	231.34
758.19	231.27
758.51	231.20
758.84	231.07
759.17	230.99
759.49	230.93
759.82	230.93
760.15	230.88
760.47	230.82
760.80	230.72
761.13	230.68
761.45	230.62
761.78	230.57
762.11	230.52
762.43	230.39
762.76	230.34
763.08	230.30
763.41	230.26
763.74	230.21
764.06	230.16
764.39	230.11
764.71	230.06
765.04	230.00
765.37	229.94
765.69	229.89
766.02	229.84
766.34	229.78
766.67	229.69
767.00	229.66
767.32	229.68
767.65	229.72
767.97	229.66
768.30	229.62
768.62	229.57
768.95	229.51
769.27	229.46
769.60	229.44
769.92	229.37
770.25	229.31
770.57	229.24
770.90	229.20
771.22	229.15
771.55	229.11
771.87	229.08
772.20	229.03
772.52	229.11
772.85	229.23
773.17	229.19
773.50	229.15
773.82	229.09
774.15	228.99
774.47	228.87
774.80	228.83
775.12	228.79
775.45	228.75
775.77	228.73
776.09	228.71
776.42	228.68
776.74	228.69
777.07	228.66
777.39	228.63
777.72	228.59
778.04	228.58
778.36	228.54
778.69	228.52
779.01	228.50
779.33	228.36
779.66	228.18
779.98	228.15
780.31	228.13
780.63	228.15
780.95	228.15
781.28	228.12
781.60	228.09
781.92	228.06
782.25	228.04
782.57	228.02
782.89	227.98
783.22	227.95
783.54	227.90
783.86	227.89
784.19	227.85
784.51	227.87
784.83	227.83
785.16	227.81
785.48	227.79
785.80	227.76
786.12	227.75
786.45	227.73
786.77	227.72
787.09	227.69
787.42	227.62
787.74	227.60
788.06	227.59
788.38	227.57
788.71	227.54
789.03	227.53
789.35	227.52
789.67	227.49
789.99	227.48
790.32	227.44
790.64	227.44
790.96	227.54
791.28	227.48
791.61	227.45
791.93	227.44
792.25	227.42
792.57	227.49
792.89	227.45
793.21	227.45
793.54	227.41
793.86	227.38
794.18	227.37
794.50	227.33
794.82	227.32
795.14	227.32
795.47	227.32
795.79	227.31
796.11	227.26
796.43	227.24
796.75	227.23
797.07	227.22
797.39	227.20
797.71	227.07
798.04	227.07
798.36	227.06
798.68	227.04
799.00	227.04
799.32	226.96
799.64	226.97
799.96	226.95
800.28	226.96
800.60	226.94
800.92	226.94
801.24	226.92
801.56	226.92
801.89	226.89
802.21	226.88
802.53	226.84
802.85	226.86
803.17	226.91
803.49	226.87
803.81	226.85
804.13	226.83
804.45	226.80
804.77	226.80
805.09	226.78
805.41	226.76
805.73	226.73
806.05	226.68
806.37	226.66
806.69	226.63
807.01	226.61
807.33	226.61
807.65	226.55
807.97	226.59
808.28	226.56
808.60	226.55
808.92	226.52
809.24	226.59
809.56	226.56
809.88	226.50
810.20	226.50
810.52	226.51
810.84	226.48
811.16	226.46
811.48	226.44
811.80	226.47
812.12	226.46
812.43	226.48
812.75	226.48
813.07	226.46
813.39	226.45
813.71	226.43
814.03	226.41
814.35	226.41
814.67	226.35
814.98	226.33
815.30	226.32
815.62	226.29
815.94	226.20
816.26	226.20
816.58	226.17
816.89	226.18
817.21	226.14
817.53	226.14
817.85	226.14
818.17	226.13
