SpectraSuite Data File
++++++++++++++++++++++++++++++++++++
Date: Fri Oct 02 17:52:59 EDT 2015
User: lab3
Dark Spectrum Present: No
Reference Spectrum Present: No
Number of Sampled Component Spectra: 1
Spectrometers: USB2E7196
Integration Time (usec): 46000 (USB2E7196)
Spectra Averaged: 1500 (USB2E7196)
Boxcar Smoothing: 10 (USB2E7196)
Correct for Electrical Dark: No (USB2E7196)
Strobe/Lamp Enabled: No (USB2E7196)
Correct for Detector Non-linearity: No (USB2E7196)
Correct for Stray Light: No (USB2E7196)
Number of Pixels in Processed Spectrum: 2048
>>>>>Begin Processed Spectral Data<<<<<
339.09	0.00
339.48	215.59
339.86	217.35
340.24	218.62
340.63	219.98
341.01	223.17
341.39	222.76
341.78	224.07
342.16	225.19
342.54	225.63
342.93	214.05
343.31	224.86
343.69	225.41
344.07	225.86
344.46	226.29
344.84	226.68
345.22	226.91
345.60	227.17
345.99	227.36
346.37	227.50
346.75	227.61
347.13	227.69
347.52	227.76
347.90	227.85
348.28	227.89
348.66	227.95
349.05	227.94
349.43	227.99
349.81	228.05
350.19	228.11
350.57	228.18
350.96	228.25
351.34	228.35
351.72	228.44
352.10	228.55
352.48	228.62
352.87	228.66
353.25	228.72
353.63	228.79
354.01	228.85
354.39	228.94
354.77	229.01
355.15	229.12
355.54	229.17
355.92	229.20
356.30	229.27
356.68	229.42
357.06	229.50
357.44	229.55
357.82	229.61
358.20	229.72
358.58	229.78
358.97	229.84
359.35	229.93
359.73	230.02
360.11	230.06
360.49	230.12
360.87	230.17
361.25	230.23
361.63	230.31
362.01	230.36
362.39	230.38
362.77	230.42
363.15	230.43
363.53	230.46
363.91	230.50
364.29	230.51
364.67	230.41
365.05	230.43
365.43	230.45
365.81	230.48
366.19	230.49
366.57	230.55
366.95	230.55
367.33	230.52
367.71	230.50
368.09	230.53
368.47	230.51
368.85	230.50
369.23	230.50
369.61	230.44
369.99	230.46
370.37	230.47
370.75	230.54
371.13	230.52
371.51	230.48
371.89	230.46
372.27	230.43
372.65	230.41
373.03	230.37
373.41	230.32
373.78	230.27
374.16	230.17
374.54	230.09
374.92	230.03
375.30	229.99
375.68	229.92
376.06	229.88
376.44	229.83
376.82	229.79
377.19	229.75
377.57	229.70
377.95	229.60
378.33	229.53
378.71	229.37
379.09	229.32
379.47	229.29
379.84	229.22
380.22	229.16
380.60	229.09
380.98	229.04
381.36	228.99
381.73	228.94
382.11	228.92
382.49	228.88
382.87	228.82
383.25	228.78
383.62	228.87
384.00	228.80
384.38	228.76
384.76	228.74
385.13	228.74
385.51	228.71
385.89	228.66
386.27	228.62
386.64	228.61
387.02	228.56
387.40	228.51
387.78	228.49
388.15	228.46
388.53	228.44
388.91	228.41
389.29	228.39
389.66	228.38
390.04	228.34
390.42	228.34
390.79	228.33
391.17	228.30
391.55	228.15
391.92	228.13
392.30	228.13
392.68	228.09
393.05	228.07
393.43	228.05
393.81	228.07
394.18	228.05
394.56	228.05
394.94	228.08
395.31	228.08
395.69	228.13
396.06	228.15
396.44	228.17
396.82	228.19
397.19	228.27
397.57	228.28
397.95	228.32
398.32	228.30
398.70	228.35
399.07	228.42
399.45	228.46
399.82	228.51
400.20	228.54
400.58	228.61
400.95	228.61
401.33	228.69
401.70	228.84
402.08	228.94
402.45	229.02
402.83	229.12
403.20	229.22
403.58	229.31
403.95	229.45
404.33	229.60
404.71	229.73
405.08	229.92
405.46	230.08
405.83	230.26
406.21	230.45
406.58	230.66
406.96	230.86
407.33	231.10
407.70	231.37
408.08	231.74
408.45	232.06
408.83	232.41
409.20	232.73
409.58	232.99
409.95	233.38
410.33	233.80
410.70	234.21
411.08	234.68
411.45	235.17
411.82	235.67
412.20	236.24
412.57	236.94
412.95	237.47
413.32	238.17
413.69	238.90
414.07	239.66
414.44	240.50
414.82	241.36
415.19	242.36
415.56	243.37
415.94	244.41
416.31	245.58
416.68	246.74
417.06	248.10
417.43	249.39
417.81	250.86
418.18	252.35
418.55	253.99
418.93	255.68
419.30	257.46
419.67	259.34
420.04	261.27
420.42	263.28
420.79	265.63
421.16	267.97
421.54	270.36
421.91	272.87
422.28	275.45
422.66	278.24
423.03	280.90
423.40	283.69
423.77	286.69
424.15	289.76
424.52	292.96
424.89	296.43
425.26	299.87
425.64	303.08
426.01	306.69
426.38	310.36
426.75	314.16
427.13	318.06
427.50	322.16
427.87	326.42
428.24	330.70
428.61	334.83
428.99	339.30
429.36	344.18
429.73	348.87
430.10	353.57
430.47	358.36
430.85	363.32
431.22	368.64
431.59	374.09
431.96	379.44
432.33	385.37
432.70	391.02
433.08	397.70
433.45	404.01
433.82	410.22
434.19	417.19
434.56	424.04
434.93	430.65
435.30	437.19
435.68	444.58
436.05	451.84
436.42	459.03
436.79	465.61
437.16	472.72
437.53	480.32
437.90	487.91
438.27	495.36
438.64	503.37
439.01	510.61
439.38	517.25
439.75	523.63
440.13	530.82
440.50	537.65
440.87	543.03
441.24	548.92
441.61	555.37
441.98	560.02
442.35	565.56
442.72	571.18
443.09	576.51
443.46	579.84
443.83	582.22
444.20	584.17
444.57	587.15
444.94	588.73
445.31	590.39
445.68	591.72
446.05	592.61
446.42	591.97
446.79	591.18
447.16	590.43
447.53	589.69
447.90	587.11
448.27	584.60
448.64	580.98
449.01	578.38
449.37	573.48
449.74	569.04
450.11	563.36
450.48	557.22
450.85	551.09
451.22	545.80
451.59	540.65
451.96	536.00
452.33	529.37
452.70	523.46
453.07	516.29
453.43	509.20
453.80	502.30
454.17	495.73
454.54	489.66
454.91	482.85
455.28	476.50
455.65	470.50
456.02	464.20
456.38	459.12
456.75	452.61
457.12	447.35
457.49	442.08
457.86	437.12
458.23	432.78
458.59	427.98
458.96	423.08
459.33	418.78
459.70	414.39
460.07	411.05
460.43	407.14
460.80	403.51
461.17	400.36
461.54	396.93
461.91	393.73
462.27	390.49
462.64	387.87
463.01	384.83
463.38	381.78
463.74	379.03
464.11	376.61
464.48	374.45
464.85	372.08
465.21	370.31
465.58	368.32
465.95	366.01
466.32	364.19
466.68	362.39
467.05	360.59
467.42	358.84
467.78	356.94
468.15	355.19
468.52	353.93
468.88	352.20
469.25	350.64
469.62	349.42
469.98	348.07
470.35	346.87
470.72	345.80
471.08	344.70
471.45	343.78
471.82	342.75
472.18	341.63
472.55	340.93
472.92	340.03
473.28	339.33
473.65	338.59
474.02	337.88
474.38	337.29
474.75	336.94
475.11	336.45
475.48	336.23
475.85	336.00
476.21	335.88
476.58	335.80
476.94	335.94
477.31	336.02
477.67	336.11
478.04	336.31
478.41	336.61
478.77	337.02
479.14	337.28
479.50	337.77
479.87	338.43
480.23	339.08
480.60	339.73
480.96	340.37
481.33	341.33
481.69	342.28
482.06	343.23
482.42	344.10
482.79	345.19
483.15	346.43
483.52	347.84
483.88	349.19
484.25	350.65
484.61	352.16
484.98	353.79
485.34	355.63
485.71	357.57
486.07	359.63
486.44	361.69
486.80	364.00
487.17	366.38
487.53	368.99
487.90	371.71
488.26	374.67
488.62	377.82
488.99	380.94
489.35	384.24
489.72	387.82
490.08	391.61
490.44	395.50
490.81	399.55
491.17	403.69
491.54	408.16
491.90	412.79
492.26	417.72
492.63	422.90
492.99	428.30
493.36	433.88
493.72	439.74
494.08	445.76
494.45	452.14
494.81	458.78
495.17	465.62
495.54	472.85
495.90	480.36
496.26	488.02
496.63	495.95
496.99	504.17
497.35	512.79
497.72	521.67
498.08	530.78
498.44	540.22
498.80	550.22
499.17	560.46
499.53	570.97
499.89	581.87
500.26	592.99
500.62	604.41
500.98	616.43
501.34	628.63
501.71	641.34
502.07	654.28
502.43	667.75
502.79	681.40
503.16	695.50
503.52	709.82
503.88	724.58
504.24	739.77
504.60	755.20
504.97	771.08
505.33	787.39
505.69	804.58
506.05	822.05
506.41	839.45
506.78	857.07
507.14	875.26
507.50	893.84
507.86	912.80
508.22	931.96
508.59	951.00
508.95	970.92
509.31	991.53
509.67	1012.76
510.03	1033.98
510.39	1055.29
510.75	1076.87
511.12	1098.69
511.48	1120.62
511.84	1142.68
512.20	1165.20
512.56	1188.47
512.92	1211.78
513.28	1234.78
513.64	1258.06
514.00	1281.75
514.37	1305.72
514.73	1329.74
515.09	1353.68
515.45	1377.96
515.81	1402.36
516.17	1426.94
516.53	1450.94
516.89	1474.91
517.25	1499.10
517.61	1523.24
517.97	1547.87
518.33	1571.91
518.69	1595.91
519.05	1620.55
519.41	1645.41
519.77	1670.26
520.13	1694.57
520.49	1718.83
520.85	1743.46
521.21	1767.46
521.57	1792.05
521.93	1816.12
522.29	1840.60
522.65	1864.71
523.01	1888.78
523.37	1912.46
523.73	1936.84
524.09	1960.99
524.45	1984.90
524.81	2008.39
525.17	2031.80
525.53	2054.57
525.89	2077.79
526.25	2101.07
526.61	2123.32
526.97	2145.75
527.33	2168.26
527.68	2190.31
528.04	2211.65
528.40	2231.93
528.76	2252.83
529.12	2273.03
529.48	2292.86
529.84	2311.08
530.20	2329.87
530.56	2348.05
530.91	2366.46
531.27	2384.42
531.63	2401.64
531.99	2418.52
532.35	2434.72
532.71	2450.88
533.07	2467.74
533.42	2482.93
533.78	2499.02
534.14	2515.30
534.50	2530.46
534.86	2545.55
535.21	2558.74
535.57	2572.43
535.93	2585.94
536.29	2598.22
536.65	2610.45
537.00	2622.15
537.36	2634.62
537.72	2645.48
538.08	2656.04
538.44	2665.91
538.79	2675.41
539.15	2684.06
539.51	2692.22
539.87	2699.70
540.22	2705.51
540.58	2711.44
540.94	2718.54
541.29	2723.86
541.65	2727.39
542.01	2730.55
542.37	2732.87
542.72	2736.61
543.08	2738.63
543.44	2741.16
543.79	2742.65
544.15	2743.29
544.51	2744.27
544.87	2744.18
545.22	2743.40
545.58	2741.91
545.94	2740.48
546.29	2737.76
546.65	2735.06
547.01	2732.35
547.36	2730.40
547.72	2728.18
548.07	2724.36
548.43	2718.95
548.79	2712.89
549.14	2708.09
549.50	2703.28
549.86	2697.67
550.21	2690.94
550.57	2685.12
550.92	2677.13
551.28	2669.84
551.64	2662.68
551.99	2655.00
552.35	2646.72
552.70	2638.77
553.06	2631.11
553.41	2622.74
553.77	2614.11
554.13	2605.32
554.48	2595.71
554.84	2584.94
555.19	2574.94
555.55	2564.77
555.90	2554.68
556.26	2545.03
556.61	2534.27
556.97	2521.98
557.32	2510.23
557.68	2498.28
558.03	2486.24
558.39	2475.24
558.74	2464.47
559.10	2452.04
559.45	2439.97
559.81	2428.53
560.16	2416.35
560.52	2404.31
560.87	2392.60
561.23	2380.08
561.58	2367.91
561.94	2355.15
562.29	2341.91
562.64	2329.33
563.00	2316.43
563.35	2304.09
563.71	2291.45
564.06	2278.69
564.42	2266.62
564.77	2253.83
565.12	2241.08
565.48	2228.21
565.83	2215.45
566.19	2202.59
566.54	2189.81
566.89	2175.83
567.25	2162.03
567.60	2149.44
567.96	2136.11
568.31	2121.50
568.66	2107.71
569.02	2094.78
569.37	2081.97
569.72	2069.66
570.08	2055.98
570.43	2042.04
570.78	2027.70
571.14	2012.85
571.49	1998.72
571.84	1985.13
572.20	1970.28
572.55	1955.77
572.90	1940.96
573.26	1926.13
573.61	1910.86
573.96	1895.97
574.31	1881.47
574.67	1866.78
575.02	1851.33
575.37	1835.85
575.72	1821.25
576.08	1806.86
576.43	1791.40
576.78	1776.35
577.13	1761.59
577.49	1747.20
577.84	1733.34
578.19	1718.57
578.54	1703.99
578.90	1688.96
579.25	1673.80
579.60	1660.27
579.95	1646.44
580.30	1632.56
580.66	1618.45
581.01	1604.25
581.36	1590.11
581.71	1576.92
582.06	1563.56
582.42	1550.41
582.77	1537.28
583.12	1524.04
583.47	1510.78
583.82	1497.60
584.17	1484.11
584.53	1470.20
584.88	1456.66
585.23	1442.71
585.58	1429.72
585.93	1416.95
586.28	1404.84
586.63	1392.76
586.98	1380.09
587.34	1367.53
587.69	1354.73
588.04	1342.26
588.39	1330.22
588.74	1318.24
589.09	1306.03
589.44	1293.49
589.79	1281.64
590.14	1269.81
590.49	1257.98
590.84	1246.24
591.19	1234.96
591.54	1223.46
591.89	1212.12
592.25	1200.93
592.60	1189.46
592.95	1178.28
593.30	1167.26
593.65	1155.96
594.00	1144.72
594.35	1134.20
594.70	1123.28
595.05	1113.25
595.40	1103.11
595.75	1092.76
596.10	1082.95
596.45	1072.82
596.80	1062.99
597.15	1052.95
597.50	1043.11
597.85	1033.56
598.19	1023.93
598.54	1014.31
598.89	1005.13
599.24	996.28
599.59	987.35
599.94	979.30
600.29	971.00
600.64	962.41
600.99	953.49
601.34	944.96
601.69	936.06
602.04	927.85
602.39	919.45
602.74	911.04
603.08	902.67
603.43	894.26
603.78	886.01
604.13	878.01
604.48	869.94
604.83	862.04
605.18	854.08
605.53	846.24
605.87	838.21
606.22	830.59
606.57	822.84
606.92	814.92
607.27	806.93
607.62	799.42
607.96	792.27
608.31	785.53
608.66	778.61
609.01	771.94
609.36	765.39
609.70	758.56
610.05	751.77
610.40	745.23
610.75	738.68
611.10	732.46
611.44	726.09
611.79	719.82
612.14	713.46
612.49	707.26
612.83	701.32
613.18	695.52
613.53	689.57
613.88	683.72
614.22	678.32
614.57	672.78
614.92	667.04
615.27	661.46
615.61	655.91
615.96	650.45
616.31	644.98
616.65	639.59
617.00	634.46
617.35	629.39
617.70	624.40
618.04	619.40
618.39	614.37
618.74	609.60
619.08	604.86
619.43	600.24
619.78	595.66
620.12	590.99
620.47	586.52
620.82	582.15
621.16	577.74
621.51	573.20
621.85	568.78
622.20	564.55
622.55	560.34
622.89	556.16
623.24	551.99
623.59	547.91
623.93	543.98
624.28	540.07
624.62	536.30
624.97	532.56
625.32	528.85
625.66	525.04
626.01	521.18
626.35	517.43
626.70	513.73
627.04	510.19
627.39	506.63
627.73	503.21
628.08	499.87
628.43	496.56
628.77	493.34
629.12	490.22
629.46	487.06
629.81	483.83
630.15	480.67
630.50	477.56
630.84	474.51
631.19	471.51
631.53	468.63
631.88	465.72
632.22	462.83
632.57	460.20
632.91	457.64
633.26	455.17
633.60	452.67
633.95	450.26
634.29	447.73
634.64	445.30
634.98	442.65
635.32	440.20
635.67	437.92
636.01	435.55
636.36	433.24
636.70	431.11
637.05	428.95
637.39	426.80
637.73	424.70
638.08	422.70
638.42	420.65
638.77	418.50
639.11	416.29
639.45	414.17
639.80	412.00
640.14	409.93
640.49	407.82
640.83	405.73
641.17	403.69
641.52	401.70
641.86	399.73
642.20	398.00
642.55	396.07
642.89	394.19
643.23	392.40
643.58	390.78
643.92	389.00
644.26	387.29
644.61	385.64
644.95	383.93
645.29	382.18
645.64	380.44
645.98	378.79
646.32	377.27
646.66	375.72
647.01	374.18
647.35	372.69
647.69	371.21
648.04	369.86
648.38	368.42
648.72	367.03
649.06	365.63
649.41	364.22
649.75	362.87
650.09	361.53
650.43	360.22
650.78	358.83
651.12	357.48
651.46	356.18
651.80	354.93
652.14	353.71
652.49	352.52
652.83	351.33
653.17	350.17
653.51	349.03
653.85	347.95
654.20	346.81
654.54	345.60
654.88	344.48
655.22	343.39
655.56	342.28
655.90	341.23
656.25	340.21
656.59	339.17
656.93	338.21
657.27	337.26
657.61	336.22
657.95	335.24
658.29	334.27
658.64	333.35
658.98	332.42
659.32	331.49
659.66	330.61
660.00	329.75
660.34	328.88
660.68	327.98
661.02	327.04
661.36	326.15
661.70	325.30
662.05	324.47
662.39	323.64
662.73	322.89
663.07	322.13
663.41	321.34
663.75	320.54
664.09	319.73
664.43	318.90
664.77	318.16
665.11	317.38
665.45	316.66
665.79	315.93
666.13	315.15
666.47	314.37
666.81	313.60
667.15	312.79
667.49	312.09
667.83	311.45
668.17	310.80
668.51	310.19
668.85	309.58
669.19	308.98
669.53	308.31
669.87	307.62
670.21	306.96
670.55	306.34
670.89	305.79
671.23	305.20
671.57	304.63
671.91	304.08
672.25	303.56
672.58	303.03
672.92	302.44
673.26	301.94
673.60	301.43
673.94	300.94
674.28	300.50
674.62	299.99
674.96	299.44
675.30	298.93
675.64	298.39
675.97	297.84
676.31	297.28
676.65	296.76
676.99	296.32
677.33	295.78
677.67	295.30
678.01	294.73
678.34	294.24
678.68	293.77
679.02	293.24
679.36	292.73
679.70	292.22
680.04	291.74
680.37	291.25
680.71	290.80
681.05	290.35
681.39	289.84
681.73	289.33
682.06	288.83
682.40	288.37
682.74	287.96
683.08	287.60
683.42	287.16
683.75	286.77
684.09	286.28
684.43	285.86
684.77	285.41
685.10	285.03
685.44	284.62
685.78	284.19
686.12	283.81
686.45	283.40
686.79	282.98
687.13	282.58
687.46	282.15
687.80	281.74
688.14	281.28
688.48	280.89
688.81	280.49
689.15	280.13
689.49	279.71
689.82	279.29
690.16	278.80
690.50	278.40
690.83	277.98
691.17	277.58
691.51	277.18
691.84	276.80
692.18	276.37
692.52	275.93
692.85	275.52
693.19	275.14
693.52	274.75
693.86	274.35
694.20	273.97
694.53	273.60
694.87	273.19
695.21	272.80
695.54	272.41
695.88	272.02
696.21	271.60
696.55	271.22
696.88	270.85
697.22	270.48
697.56	270.11
697.89	269.68
698.23	269.30
698.56	268.90
698.90	268.54
699.23	268.14
699.57	267.77
699.90	267.40
700.24	267.01
700.58	266.67
700.91	266.37
701.25	266.12
701.58	265.83
701.92	265.53
702.25	265.20
702.59	264.86
702.92	264.52
703.26	264.17
703.59	263.82
703.93	263.57
704.26	263.25
704.60	262.91
704.93	262.59
705.26	262.26
705.60	261.99
705.93	261.65
706.27	261.38
706.60	261.12
706.94	260.85
707.27	260.52
707.61	260.19
707.94	259.85
708.27	259.40
708.61	259.04
708.94	258.71
709.28	258.41
709.61	258.10
709.94	257.83
710.28	257.57
710.61	257.33
710.95	256.94
711.28	256.74
711.61	256.48
711.95	256.23
712.28	255.95
712.61	255.65
712.95	255.45
713.28	255.25
713.61	254.93
713.95	254.64
714.28	254.39
714.61	254.12
714.95	253.87
715.28	253.63
715.61	253.38
715.95	253.16
716.28	252.93
716.61	252.72
716.95	252.46
717.28	252.23
717.61	251.98
717.94	251.75
718.28	251.43
718.61	251.19
718.94	250.94
719.27	250.72
719.61	250.52
719.94	250.27
720.27	249.98
720.60	249.78
720.94	249.55
721.27	249.34
721.60	249.15
721.93	248.93
722.27	248.76
722.60	248.56
722.93	248.33
723.26	248.13
723.59	247.89
723.93	247.70
724.26	247.50
724.59	247.30
724.92	247.12
725.25	246.98
725.59	246.80
725.92	246.64
726.25	246.46
726.58	246.28
726.91	246.09
727.24	245.92
727.57	245.75
727.91	245.57
728.24	245.42
728.57	245.24
728.90	245.08
729.23	244.87
729.56	244.76
729.89	244.59
730.22	244.42
730.55	244.26
730.89	244.10
731.22	243.93
731.55	243.77
731.88	243.61
732.21	243.43
732.54	243.27
732.87	243.13
733.20	242.98
733.53	242.83
733.86	242.69
734.19	242.53
734.52	242.40
734.85	242.33
735.18	242.15
735.51	242.04
735.84	241.90
736.17	241.80
736.50	241.60
736.83	241.62
737.16	241.49
737.49	241.37
737.82	241.24
738.15	241.13
738.48	241.00
738.81	240.87
739.14	240.72
739.47	240.58
739.80	240.44
740.13	240.31
740.46	240.18
740.79	240.04
741.12	239.91
741.45	239.77
741.78	239.58
742.11	239.50
742.44	239.35
742.77	239.24
743.10	239.10
743.43	238.98
743.75	238.73
744.08	238.80
744.41	238.67
744.74	238.55
745.07	238.41
745.40	238.32
745.73	238.27
746.06	238.18
746.39	238.09
746.71	237.97
747.04	237.86
747.37	237.75
747.70	237.67
748.03	237.57
748.36	237.50
748.68	237.40
749.01	237.26
749.34	237.17
749.67	237.09
750.00	237.01
750.33	237.01
750.65	236.93
750.98	236.65
751.31	236.57
751.64	236.49
751.97	236.46
752.29	236.35
752.62	236.20
752.95	236.10
753.28	236.00
753.60	235.90
753.93	235.85
754.26	235.77
754.59	235.64
754.91	235.53
755.24	235.43
755.57	235.40
755.90	235.32
756.22	235.22
756.55	235.11
756.88	235.00
757.20	234.84
757.53	234.72
757.86	234.64
758.19	234.57
758.51	234.48
758.84	234.35
759.17	234.26
759.49	234.18
759.82	234.18
760.15	234.12
760.47	234.05
760.80	233.94
761.13	233.90
761.45	233.83
761.78	233.77
762.11	233.71
762.43	233.57
762.76	233.51
763.08	233.46
763.41	233.40
763.74	233.35
764.06	233.28
764.39	233.23
764.71	233.17
765.04	233.08
765.37	233.02
765.69	232.96
766.02	232.91
766.34	232.84
766.67	232.74
767.00	232.70
767.32	232.72
767.65	232.74
767.97	232.68
768.30	232.64
768.62	232.58
768.95	232.50
769.27	232.44
769.60	232.41
769.92	232.34
770.25	232.27
770.57	232.19
770.90	232.15
771.22	232.08
771.55	232.03
771.87	232.00
772.20	231.95
772.52	232.01
772.85	232.11
773.17	232.07
773.50	232.02
773.82	231.95
774.15	231.84
774.47	231.72
774.80	231.67
775.12	231.62
775.45	231.58
775.77	231.56
776.09	231.53
776.42	231.49
776.74	231.49
777.07	231.45
777.39	231.43
777.72	231.38
778.04	231.37
778.36	231.33
778.69	231.28
779.01	231.26
779.33	231.13
779.66	230.95
779.98	230.92
780.31	230.89
780.63	230.91
780.95	230.90
781.28	230.86
781.60	230.83
781.92	230.81
782.25	230.79
782.57	230.76
782.89	230.73
783.22	230.70
783.54	230.65
783.86	230.64
784.19	230.61
784.51	230.63
784.83	230.58
785.16	230.55
785.48	230.53
785.80	230.51
786.12	230.49
786.45	230.47
786.77	230.46
787.09	230.43
787.42	230.37
787.74	230.35
788.06	230.33
788.38	230.29
788.71	230.26
789.03	230.24
789.35	230.23
789.67	230.19
789.99	230.17
790.32	230.15
790.64	230.13
790.96	230.23
791.28	230.16
791.61	230.14
791.93	230.13
792.25	230.11
792.57	230.17
792.89	230.13
793.21	230.12
793.54	230.10
793.86	230.07
794.18	230.06
794.50	230.01
794.82	230.00
795.14	230.00
795.47	230.00
795.79	229.99
796.11	229.95
796.43	229.93
796.75	229.90
797.07	229.89
797.39	229.86
797.71	229.74
798.04	229.74
798.36	229.73
798.68	229.71
799.00	229.71
799.32	229.64
799.64	229.65
799.96	229.63
800.28	229.63
800.60	229.61
800.92	229.60
801.24	229.59
801.56	229.58
801.89	229.56
802.21	229.55
802.53	229.50
802.85	229.53
803.17	229.57
803.49	229.54
803.81	229.52
804.13	229.50
804.45	229.47
804.77	229.46
805.09	229.44
805.41	229.41
805.73	229.37
806.05	229.32
806.37	229.29
806.69	229.26
807.01	229.23
807.33	229.22
807.65	229.16
807.97	229.20
808.28	229.17
808.60	229.15
808.92	229.12
809.24	229.19
809.56	229.15
809.88	229.09
810.20	229.08
810.52	229.10
810.84	229.07
811.16	229.04
811.48	229.02
811.80	229.05
812.12	229.04
812.43	229.05
812.75	229.05
813.07	229.03
813.39	229.04
813.71	229.02
814.03	229.00
814.35	229.00
814.67	228.94
814.98	228.91
815.30	228.91
815.62	228.89
815.94	228.80
816.26	228.80
816.58	228.77
816.89	228.78
817.21	228.74
817.53	228.73
817.85	228.73
818.17	228.72
818.48	228.66
