SpectraSuite Data File
++++++++++++++++++++++++++++++++++++
Date: Fri Oct 02 16:30:48 EDT 2015
User: lab3
Dark Spectrum Present: No
Reference Spectrum Present: No
Number of Sampled Component Spectra: 1
Spectrometers: USB2E7196
Integration Time (usec): 46000 (USB2E7196)
Spectra Averaged: 1200 (USB2E7196)
Boxcar Smoothing: 10 (USB2E7196)
Correct for Electrical Dark: No (USB2E7196)
Strobe/Lamp Enabled: No (USB2E7196)
Correct for Detector Non-linearity: No (USB2E7196)
Correct for Stray Light: No (USB2E7196)
Number of Pixels in Processed Spectrum: 2048
>>>>>Begin Processed Spectral Data<<<<<
339.09	0.00
339.48	214.69
339.86	216.24
340.24	217.48
340.63	218.86
341.01	222.08
341.39	221.73
341.78	223.01
342.16	224.23
342.54	224.66
342.93	213.09
343.31	223.85
343.69	224.39
344.07	224.84
344.46	225.28
344.84	225.68
345.22	225.90
345.60	226.15
345.99	226.35
346.37	226.48
346.75	226.59
347.13	226.67
347.52	226.74
347.90	226.84
348.28	226.87
348.66	226.92
349.05	226.92
349.43	226.98
349.81	227.04
350.19	227.10
350.57	227.18
350.96	227.26
351.34	227.36
351.72	227.46
352.10	227.57
352.48	227.64
352.87	227.69
353.25	227.76
353.63	227.82
354.01	227.89
354.39	227.98
354.77	228.05
355.15	228.16
355.54	228.20
355.92	228.23
356.30	228.31
356.68	228.45
357.06	228.53
357.44	228.58
357.82	228.63
358.20	228.74
358.58	228.80
358.97	228.85
359.35	228.94
359.73	229.02
360.11	229.06
360.49	229.12
360.87	229.17
361.25	229.23
361.63	229.32
362.01	229.37
362.39	229.41
362.77	229.46
363.15	229.48
363.53	229.52
363.91	229.54
364.29	229.57
364.67	229.47
365.05	229.49
365.43	229.51
365.81	229.54
366.19	229.56
366.57	229.62
366.95	229.62
367.33	229.59
367.71	229.59
368.09	229.61
368.47	229.60
368.85	229.59
369.23	229.61
369.61	229.54
369.99	229.56
370.37	229.54
370.75	229.61
371.13	229.57
371.51	229.53
371.89	229.52
372.27	229.49
372.65	229.48
373.03	229.43
373.41	229.39
373.78	229.35
374.16	229.24
374.54	229.15
374.92	229.10
375.30	229.05
375.68	228.98
376.06	228.93
376.44	228.88
376.82	228.83
377.19	228.77
377.57	228.72
377.95	228.63
378.33	228.56
378.71	228.40
379.09	228.36
379.47	228.33
379.84	228.26
380.22	228.19
380.60	228.12
380.98	228.08
381.36	228.03
381.73	227.97
382.11	227.95
382.49	227.91
382.87	227.85
383.25	227.81
383.62	227.92
384.00	227.84
384.38	227.80
384.76	227.79
385.13	227.79
385.51	227.76
385.89	227.70
386.27	227.67
386.64	227.65
387.02	227.59
387.40	227.55
387.78	227.51
388.15	227.50
388.53	227.46
388.91	227.42
389.29	227.39
389.66	227.38
390.04	227.34
390.42	227.33
390.79	227.32
391.17	227.30
391.55	227.14
391.92	227.14
392.30	227.14
392.68	227.10
393.05	227.07
393.43	227.07
393.81	227.08
394.18	227.06
394.56	227.07
394.94	227.11
395.31	227.10
395.69	227.15
396.06	227.18
396.44	227.19
396.82	227.21
397.19	227.29
397.57	227.31
397.95	227.36
398.32	227.35
398.70	227.39
399.07	227.45
399.45	227.48
399.82	227.53
400.20	227.56
400.58	227.63
400.95	227.64
401.33	227.73
401.70	227.89
402.08	228.00
402.45	228.08
402.83	228.20
403.20	228.32
403.58	228.41
403.95	228.55
404.33	228.71
404.71	228.85
405.08	229.06
405.46	229.22
405.83	229.41
406.21	229.62
406.58	229.83
406.96	230.06
407.33	230.31
407.70	230.59
408.08	230.98
408.45	231.30
408.83	231.66
409.20	231.98
409.58	232.27
409.95	232.67
410.33	233.12
410.70	233.53
411.08	234.02
411.45	234.53
411.82	235.06
412.20	235.67
412.57	236.38
412.95	236.95
413.32	237.68
413.69	238.43
414.07	239.23
414.44	240.11
414.82	240.98
415.19	242.01
415.56	243.07
415.94	244.15
416.31	245.38
416.68	246.63
417.06	248.05
417.43	249.37
417.81	250.91
418.18	252.47
418.55	254.18
418.93	255.95
419.30	257.81
419.67	259.77
420.04	261.77
420.42	263.86
420.79	266.29
421.16	268.75
421.54	271.23
421.91	273.85
422.28	276.54
422.66	279.45
423.03	282.24
423.40	285.16
423.77	288.28
424.15	291.48
424.52	294.80
424.89	298.40
425.26	301.99
425.64	305.31
426.01	309.05
426.38	312.86
426.75	316.80
427.13	320.85
427.50	325.10
427.87	329.51
428.24	333.98
428.61	338.27
428.99	342.89
429.36	347.97
429.73	352.82
430.10	357.68
430.47	362.63
430.85	367.75
431.22	373.23
431.59	378.86
431.96	384.36
432.33	390.48
432.70	396.32
433.08	403.22
433.45	409.74
433.82	416.17
434.19	423.36
434.56	430.44
434.93	437.28
435.30	444.02
435.68	451.64
436.05	459.11
436.42	466.55
436.79	473.35
437.16	480.70
437.53	488.55
437.90	496.43
438.27	504.15
438.64	512.46
439.01	520.00
439.38	526.92
439.75	533.56
440.13	541.05
440.50	548.15
440.87	553.80
441.24	560.00
441.61	566.73
441.98	571.62
442.35	577.43
442.72	583.36
443.09	589.02
443.46	592.59
443.83	595.16
444.20	597.31
444.57	600.54
444.94	602.32
445.31	604.20
445.68	605.76
446.05	606.85
446.42	606.38
446.79	605.69
447.16	605.07
447.53	604.49
447.90	601.96
448.27	599.55
448.64	595.92
449.01	593.35
449.37	588.40
449.74	583.92
450.11	578.20
450.48	571.94
450.85	565.67
451.22	560.32
451.59	555.09
451.96	550.36
452.33	543.52
452.70	537.44
453.07	530.04
453.43	522.71
453.80	515.61
454.17	508.80
454.54	502.55
454.91	495.50
455.28	488.91
455.65	482.68
456.02	476.11
456.38	470.83
456.75	464.04
457.12	458.58
457.49	453.07
457.86	447.85
458.23	443.32
458.59	438.30
458.96	433.17
459.33	428.64
459.70	424.05
460.07	420.59
460.43	416.49
460.80	412.69
461.17	409.36
461.54	405.74
461.91	402.38
462.27	398.96
462.64	396.22
463.01	393.05
463.38	389.86
463.74	386.98
464.11	384.44
464.48	382.17
464.85	379.68
465.21	377.84
465.58	375.76
465.95	373.34
466.32	371.43
466.68	369.56
467.05	367.68
467.42	365.83
467.78	363.83
468.15	361.99
468.52	360.66
468.88	358.85
469.25	357.20
469.62	355.90
469.98	354.48
470.35	353.20
470.72	352.05
471.08	350.87
471.45	349.89
471.82	348.81
472.18	347.65
472.55	346.92
472.92	345.96
473.28	345.23
473.65	344.44
474.02	343.70
474.38	343.06
474.75	342.71
475.11	342.20
475.48	341.96
475.85	341.71
476.21	341.58
476.58	341.50
476.94	341.65
477.31	341.71
477.67	341.80
478.04	342.03
478.41	342.32
478.77	342.73
479.14	342.99
479.50	343.50
479.87	344.17
480.23	344.84
480.60	345.50
480.96	346.18
481.33	347.16
481.69	348.13
482.06	349.12
482.42	350.01
482.79	351.13
483.15	352.44
483.52	353.90
483.88	355.31
484.25	356.81
484.61	358.39
484.98	360.10
485.34	362.01
485.71	364.02
486.07	366.15
486.44	368.30
486.80	370.70
487.17	373.20
487.53	375.91
487.90	378.74
488.26	381.82
488.62	385.06
488.99	388.31
489.35	391.73
489.72	395.43
490.08	399.35
490.44	403.38
490.81	407.58
491.17	411.88
491.54	416.49
491.90	421.26
492.26	426.34
492.63	431.67
492.99	437.23
493.36	442.96
493.72	449.01
494.08	455.22
494.45	461.82
494.81	468.64
495.17	475.65
495.54	483.03
495.90	490.75
496.26	498.64
496.63	506.78
496.99	515.24
497.35	524.05
497.72	533.15
498.08	542.47
498.44	552.10
498.80	562.32
499.17	572.81
499.53	583.62
499.89	594.77
500.26	606.14
500.62	617.74
500.98	630.02
501.34	642.47
501.71	655.46
502.07	668.54
502.43	682.18
502.79	696.11
503.16	710.46
503.52	725.00
503.88	739.93
504.24	755.34
504.60	770.92
504.97	786.98
505.33	803.39
505.69	820.71
506.05	838.32
506.41	855.87
506.78	873.61
507.14	891.84
507.50	910.50
507.86	929.49
508.22	948.77
508.59	967.88
508.95	987.79
509.31	1008.34
509.67	1029.65
510.03	1050.90
510.39	1072.10
510.75	1093.56
511.12	1115.25
511.48	1137.06
511.84	1158.95
512.20	1181.18
512.56	1204.25
512.92	1227.34
513.28	1250.06
513.64	1272.92
514.00	1296.19
514.37	1319.76
514.73	1343.35
515.09	1366.81
515.45	1390.56
515.81	1414.52
516.17	1438.40
516.53	1461.88
516.89	1485.27
517.25	1508.82
517.61	1532.30
517.97	1556.18
518.33	1579.32
518.69	1602.43
519.05	1626.11
519.41	1649.94
519.77	1674.03
520.13	1697.36
520.49	1720.59
520.85	1744.00
521.21	1767.16
521.57	1790.70
521.93	1813.65
522.29	1837.09
522.65	1859.88
523.01	1882.64
523.37	1905.01
523.73	1928.20
524.09	1950.94
524.45	1973.53
524.81	1995.49
525.17	2017.18
525.53	2038.47
525.89	2060.40
526.25	2082.33
526.61	2103.10
526.97	2123.88
527.33	2144.46
527.68	2164.83
528.04	2184.58
528.40	2203.38
528.76	2222.20
529.12	2240.42
529.48	2258.56
529.84	2274.72
530.20	2291.56
530.56	2307.85
530.91	2324.18
531.27	2340.13
531.63	2355.28
531.99	2369.90
532.35	2384.13
532.71	2398.52
533.07	2413.23
533.42	2425.97
533.78	2439.68
534.14	2453.73
534.50	2466.99
534.86	2480.07
535.21	2491.28
535.57	2502.90
535.93	2514.30
536.29	2524.49
536.65	2534.66
537.00	2543.96
537.36	2554.40
537.72	2563.50
538.08	2571.94
538.44	2579.84
538.79	2587.31
539.15	2593.98
539.51	2600.26
539.87	2605.74
540.22	2609.45
540.58	2613.23
540.94	2618.44
541.29	2621.97
541.65	2623.83
542.01	2625.05
542.37	2625.61
542.72	2627.28
543.08	2627.45
543.44	2628.18
543.79	2628.12
544.15	2627.20
544.51	2626.49
544.87	2624.66
545.22	2622.12
545.58	2618.90
545.94	2615.64
546.29	2611.16
546.65	2606.84
547.01	2602.48
547.36	2598.81
547.72	2595.05
548.07	2589.96
548.43	2583.49
548.79	2576.10
549.14	2569.82
549.50	2563.74
549.86	2556.61
550.21	2548.78
550.57	2541.45
550.92	2532.07
551.28	2523.34
551.64	2514.84
551.99	2506.10
552.35	2496.77
552.70	2487.72
553.06	2479.32
553.41	2470.27
553.77	2460.97
554.13	2451.33
554.48	2441.07
554.84	2429.61
555.19	2418.77
555.55	2407.77
555.90	2396.79
556.26	2386.28
556.61	2374.84
556.97	2362.07
557.32	2349.95
557.68	2337.38
558.03	2324.76
558.39	2313.36
558.74	2302.04
559.10	2289.34
559.45	2276.67
559.81	2264.57
560.16	2252.12
560.52	2239.62
560.87	2227.39
561.23	2214.52
561.58	2201.88
561.94	2188.86
562.29	2175.42
562.64	2162.51
563.00	2149.39
563.35	2136.72
563.71	2123.93
564.06	2111.03
564.42	2098.59
564.77	2085.71
565.12	2072.97
565.48	2060.29
565.83	2047.43
566.19	2034.83
566.54	2021.98
566.89	2008.39
567.25	1994.99
567.60	1982.59
567.96	1969.50
568.31	1955.07
568.66	1941.36
569.02	1928.82
569.37	1916.15
569.72	1904.10
570.08	1890.92
570.43	1877.33
570.78	1863.41
571.14	1849.09
571.49	1835.35
571.84	1822.21
572.20	1807.95
572.55	1793.84
572.90	1779.65
573.26	1765.50
573.61	1750.76
573.96	1736.52
574.31	1722.33
574.67	1708.28
575.02	1693.30
575.37	1678.33
575.72	1664.37
576.08	1650.73
576.43	1636.00
576.78	1621.74
577.13	1607.64
577.49	1594.07
577.84	1581.05
578.19	1567.38
578.54	1553.68
578.90	1539.61
579.25	1525.41
579.60	1512.59
579.95	1499.73
580.30	1486.66
580.66	1473.36
581.01	1460.08
581.36	1446.86
581.71	1434.59
582.06	1422.07
582.42	1409.84
582.77	1397.74
583.12	1385.62
583.47	1373.24
583.82	1361.13
584.17	1348.65
584.53	1335.82
584.88	1323.28
585.23	1310.46
585.58	1298.36
585.93	1286.47
586.28	1275.11
586.63	1263.75
586.98	1252.10
587.34	1240.49
587.69	1228.77
588.04	1217.37
588.39	1206.37
588.74	1195.46
589.09	1184.40
589.44	1173.00
589.79	1162.06
590.14	1151.28
590.49	1140.38
590.84	1129.62
591.19	1119.10
591.54	1108.52
591.89	1098.17
592.25	1087.95
592.60	1077.42
592.95	1067.18
593.30	1057.20
593.65	1047.11
594.00	1037.03
594.35	1027.47
594.70	1017.50
595.05	1008.26
595.40	999.03
595.75	989.60
596.10	980.61
596.45	971.47
596.80	962.59
597.15	953.63
597.50	944.74
597.85	936.27
598.19	927.65
598.54	919.07
598.89	910.84
599.24	902.86
599.59	894.77
599.94	887.51
600.29	880.10
600.64	872.37
600.99	864.31
601.34	856.64
601.69	848.66
602.04	841.32
602.39	833.87
602.74	826.42
603.08	818.99
603.43	811.53
603.78	804.18
604.13	797.02
604.48	789.76
604.83	782.69
605.18	775.52
605.53	768.60
605.87	761.60
606.22	754.86
606.57	748.03
606.92	741.08
607.27	734.11
607.62	727.46
607.96	721.16
608.31	715.23
608.66	709.12
609.01	703.24
609.36	697.50
609.70	691.53
610.05	685.55
610.40	679.81
610.75	674.08
611.10	668.62
611.44	663.05
611.79	657.60
612.14	652.09
612.49	646.63
612.83	641.41
613.18	636.25
613.53	631.06
613.88	625.95
614.22	621.23
614.57	616.39
614.92	611.38
615.27	606.47
615.61	601.64
615.96	596.88
616.31	592.09
616.65	587.41
617.00	582.90
617.35	578.45
617.70	574.07
618.04	569.77
618.39	565.43
618.74	561.27
619.08	557.19
619.43	553.15
619.78	549.18
620.12	545.18
620.47	541.31
620.82	537.52
621.16	533.77
621.51	529.93
621.85	526.16
622.20	522.56
622.55	518.96
622.89	515.38
623.24	511.88
623.59	508.39
623.93	504.97
624.28	501.64
624.62	498.45
624.97	495.29
625.32	492.07
625.66	488.79
626.01	485.50
626.35	482.26
626.70	479.06
627.04	476.07
627.39	473.01
627.73	470.07
628.08	467.21
628.43	464.31
628.77	461.52
629.12	458.81
629.46	456.11
629.81	453.39
630.15	450.68
630.50	448.01
630.84	445.42
631.19	442.90
631.53	440.46
631.88	437.95
632.22	435.46
632.57	433.25
632.91	431.07
633.26	428.94
633.60	426.83
633.95	424.81
634.29	422.66
634.64	420.58
634.98	418.35
635.32	416.27
635.67	414.34
636.01	412.33
636.36	410.36
636.70	408.52
637.05	406.67
637.39	404.88
637.73	403.11
638.08	401.42
638.42	399.70
638.77	397.89
639.11	396.02
639.45	394.24
639.80	392.40
640.14	390.64
640.49	388.87
640.83	387.09
641.17	385.36
641.52	383.69
641.86	382.03
642.20	380.57
642.55	378.95
642.89	377.38
643.23	375.85
643.58	374.47
643.92	372.98
644.26	371.52
644.61	370.09
644.95	368.64
645.29	367.14
645.64	365.64
645.98	364.23
646.32	362.93
646.66	361.59
647.01	360.25
647.35	358.99
647.69	357.70
648.04	356.53
648.38	355.28
648.72	354.07
649.06	352.84
649.41	351.61
649.75	350.43
650.09	349.26
650.43	348.11
650.78	346.90
651.12	345.73
651.46	344.62
651.80	343.51
652.14	342.44
652.49	341.41
652.83	340.37
653.17	339.34
653.51	338.36
653.85	337.42
654.20	336.44
654.54	335.39
654.88	334.42
655.22	333.46
655.56	332.51
655.90	331.58
656.25	330.71
656.59	329.82
656.93	328.97
657.27	328.12
657.61	327.22
657.95	326.38
658.29	325.50
658.64	324.68
658.98	323.85
659.32	323.03
659.66	322.27
660.00	321.51
660.34	320.76
660.68	319.98
661.02	319.16
661.36	318.40
661.70	317.66
662.05	316.91
662.39	316.17
662.73	315.52
663.07	314.87
663.41	314.17
663.75	313.46
664.09	312.76
664.43	312.01
664.77	311.35
665.11	310.65
665.45	310.02
665.79	309.39
666.13	308.72
666.47	308.05
666.81	307.34
667.15	306.61
667.49	305.98
667.83	305.38
668.17	304.76
668.51	304.17
668.85	303.60
669.19	303.10
669.53	302.49
669.87	301.83
670.21	301.22
670.55	300.64
670.89	300.15
671.23	299.60
671.57	299.08
671.91	298.59
672.25	298.13
672.58	297.65
672.92	297.10
673.26	296.62
673.60	296.14
673.94	295.68
674.28	295.27
674.62	294.79
674.96	294.30
675.30	293.86
675.64	293.39
675.97	292.89
676.31	292.38
676.65	291.90
676.99	291.50
677.33	291.01
677.67	290.55
678.01	290.01
678.34	289.55
678.68	289.11
679.02	288.62
679.36	288.13
679.70	287.65
680.04	287.21
680.37	286.77
680.71	286.35
681.05	285.93
681.39	285.46
681.73	284.99
682.06	284.54
682.40	284.08
682.74	283.68
683.08	283.33
683.42	282.89
683.75	282.52
684.09	282.05
684.43	281.64
684.77	281.23
685.10	280.85
685.44	280.47
685.78	280.07
686.12	279.70
686.45	279.30
686.79	278.88
687.13	278.49
687.46	278.05
687.80	277.66
688.14	277.21
688.48	276.83
688.81	276.43
689.15	276.06
689.49	275.67
689.82	275.25
690.16	274.79
690.50	274.41
690.83	274.01
691.17	273.62
691.51	273.24
691.84	272.88
692.18	272.47
692.52	272.06
692.85	271.68
693.19	271.33
693.52	270.97
693.86	270.60
694.20	270.22
694.53	269.87
694.87	269.48
695.21	269.10
695.54	268.73
695.88	268.35
696.21	267.95
696.55	267.58
696.88	267.23
697.22	266.89
697.56	266.54
697.89	266.14
698.23	265.79
698.56	265.42
698.90	265.07
699.23	264.70
699.57	264.35
699.90	263.99
700.24	263.60
700.58	263.27
700.91	262.97
701.25	262.75
701.58	262.49
701.92	262.21
702.25	261.91
702.59	261.59
702.92	261.29
703.26	260.98
703.59	260.66
703.93	260.44
704.26	260.13
704.60	259.81
704.93	259.50
705.26	259.19
705.60	258.91
705.93	258.58
706.27	258.32
706.60	258.06
706.94	257.81
707.27	257.49
707.61	257.18
707.94	256.86
708.27	256.44
708.61	256.08
708.94	255.77
709.28	255.48
709.61	255.19
709.94	254.92
710.28	254.66
710.61	254.41
710.95	254.04
711.28	253.85
711.61	253.57
711.95	253.35
712.28	253.08
712.61	252.81
712.95	252.63
713.28	252.43
713.61	252.16
713.95	251.87
714.28	251.64
714.61	251.38
714.95	251.14
715.28	250.90
715.61	250.68
715.95	250.45
716.28	250.22
716.61	250.03
716.95	249.79
717.28	249.55
717.61	249.32
717.94	249.10
718.28	248.79
718.61	248.56
718.94	248.31
719.27	248.09
719.61	247.90
719.94	247.65
720.27	247.36
720.60	247.15
720.94	246.95
721.27	246.76
721.60	246.59
721.93	246.38
722.27	246.23
722.60	246.04
722.93	245.84
723.26	245.65
723.59	245.42
723.93	245.24
724.26	245.06
724.59	244.87
724.92	244.71
725.25	244.58
725.59	244.42
725.92	244.28
726.25	244.12
726.58	243.95
726.91	243.77
727.24	243.62
727.57	243.47
727.91	243.29
728.24	243.15
728.57	242.98
728.90	242.84
729.23	242.65
729.56	242.56
729.89	242.40
730.22	242.23
730.55	242.08
730.89	241.93
731.22	241.77
731.55	241.63
731.88	241.48
732.21	241.31
732.54	241.17
732.87	241.03
733.20	240.89
733.53	240.75
733.86	240.63
734.19	240.47
734.52	240.35
734.85	240.29
735.18	240.13
735.51	240.03
735.84	239.90
736.17	239.81
736.50	239.61
736.83	239.63
737.16	239.52
737.49	239.41
737.82	239.28
738.15	239.19
738.48	239.07
738.81	238.94
739.14	238.81
739.47	238.68
739.80	238.55
740.13	238.44
740.46	238.31
740.79	238.16
741.12	238.06
741.45	237.92
741.78	237.74
742.11	237.67
742.44	237.52
742.77	237.41
743.10	237.27
743.43	237.16
743.75	236.92
744.08	236.99
744.41	236.88
744.74	236.77
745.07	236.62
745.40	236.54
745.73	236.49
746.06	236.40
746.39	236.32
746.71	236.21
747.04	236.09
747.37	236.00
747.70	235.95
748.03	235.86
748.36	235.78
748.68	235.69
749.01	235.55
749.34	235.47
749.67	235.39
750.00	235.32
750.33	235.32
750.65	235.24
750.98	234.98
751.31	234.90
751.64	234.82
751.97	234.81
752.29	234.71
752.62	234.56
752.95	234.47
753.28	234.36
753.60	234.28
753.93	234.23
754.26	234.16
754.59	234.04
754.91	233.94
755.24	233.84
755.57	233.82
755.90	233.74
756.22	233.65
756.55	233.56
756.88	233.46
757.20	233.31
757.53	233.20
757.86	233.11
758.19	233.05
758.51	232.97
758.84	232.84
759.17	232.76
759.49	232.71
759.82	232.69
760.15	232.65
760.47	232.58
760.80	232.48
761.13	232.43
761.45	232.37
761.78	232.31
762.11	232.26
762.43	232.13
762.76	232.08
763.08	232.04
763.41	231.98
763.74	231.94
764.06	231.88
764.39	231.82
764.71	231.78
765.04	231.71
765.37	231.65
765.69	231.60
766.02	231.56
766.34	231.50
766.67	231.41
767.00	231.38
767.32	231.40
767.65	231.42
767.97	231.36
768.30	231.32
768.62	231.27
768.95	231.22
769.27	231.17
769.60	231.14
769.92	231.06
770.25	231.00
770.57	230.93
770.90	230.89
771.22	230.84
771.55	230.79
771.87	230.76
772.20	230.72
772.52	230.78
772.85	230.89
773.17	230.85
773.50	230.80
773.82	230.74
774.15	230.64
774.47	230.53
774.80	230.49
775.12	230.45
775.45	230.41
775.77	230.40
776.09	230.37
776.42	230.33
776.74	230.34
777.07	230.31
777.39	230.29
777.72	230.25
778.04	230.25
778.36	230.22
778.69	230.19
779.01	230.17
779.33	230.02
779.66	229.86
779.98	229.83
780.31	229.81
780.63	229.84
780.95	229.84
781.28	229.81
781.60	229.77
781.92	229.75
782.25	229.73
782.57	229.70
782.89	229.68
783.22	229.65
783.54	229.60
783.86	229.59
784.19	229.56
784.51	229.57
784.83	229.53
785.16	229.50
785.48	229.47
785.80	229.45
786.12	229.44
786.45	229.41
786.77	229.38
787.09	229.35
787.42	229.28
787.74	229.27
788.06	229.26
788.38	229.24
788.71	229.20
789.03	229.19
789.35	229.17
789.67	229.13
789.99	229.12
790.32	229.09
790.64	229.08
790.96	229.17
791.28	229.10
791.61	229.06
791.93	229.06
792.25	229.03
792.57	229.09
792.89	229.05
793.21	229.05
793.54	229.02
793.86	228.99
794.18	228.98
794.50	228.92
794.82	228.90
795.14	228.90
795.47	228.90
795.79	228.89
796.11	228.84
796.43	228.82
796.75	228.80
797.07	228.79
797.39	228.76
797.71	228.64
798.04	228.64
798.36	228.63
798.68	228.61
799.00	228.61
799.32	228.53
799.64	228.54
799.96	228.52
800.28	228.53
800.60	228.51
800.92	228.50
801.24	228.48
801.56	228.47
801.89	228.44
802.21	228.43
802.53	228.39
802.85	228.40
803.17	228.45
803.49	228.42
803.81	228.39
804.13	228.37
804.45	228.34
804.77	228.34
805.09	228.33
805.41	228.31
805.73	228.27
806.05	228.21
806.37	228.19
806.69	228.17
807.01	228.15
807.33	228.14
807.65	228.09
807.97	228.14
808.28	228.12
808.60	228.11
808.92	228.08
809.24	228.15
809.56	228.12
809.88	228.06
810.20	228.05
810.52	228.06
810.84	228.05
811.16	228.02
811.48	228.00
811.80	228.03
812.12	228.03
812.43	228.05
812.75	228.05
813.07	228.02
813.39	228.01
813.71	227.98
814.03	227.96
814.35	227.96
814.67	227.89
814.98	227.88
815.30	227.87
815.62	227.84
815.94	227.75
816.26	227.75
816.58	227.73
816.89	227.74
817.21	227.70
817.53	227.69
817.85	227.70
818.17	227.68
818.48	227.62
818.80	227.63
