SpectraSuite Data File
++++++++++++++++++++++++++++++++++++
Date: Fri Oct 02 17:26:53 EDT 2015
User: lab3
Dark Spectrum Present: No
Reference Spectrum Present: No
Number of Sampled Component Spectra: 1
Spectrometers: USB2E7196
Integration Time (usec): 46000 (USB2E7196)
Spectra Averaged: 600 (USB2E7196)
Boxcar Smoothing: 10 (USB2E7196)
Correct for Electrical Dark: No (USB2E7196)
Strobe/Lamp Enabled: No (USB2E7196)
Correct for Detector Non-linearity: No (USB2E7196)
Correct for Stray Light: No (USB2E7196)
Number of Pixels in Processed Spectrum: 2048
>>>>>Begin Processed Spectral Data<<<<<
339.09	0.00
339.48	215.13
339.86	216.56
340.24	217.96
340.63	219.44
341.01	222.61
341.39	222.05
341.78	223.50
342.16	224.57
342.54	224.99
342.93	213.47
343.31	224.26
343.69	224.79
344.07	225.25
344.46	225.70
344.84	226.08
345.22	226.29
345.60	226.55
345.99	226.75
346.37	226.89
346.75	226.99
347.13	227.08
347.52	227.16
347.90	227.25
348.28	227.29
348.66	227.37
349.05	227.36
349.43	227.43
349.81	227.47
350.19	227.53
350.57	227.60
350.96	227.69
351.34	227.79
351.72	227.89
352.10	228.00
352.48	228.05
352.87	228.11
353.25	228.17
353.63	228.24
354.01	228.30
354.39	228.37
354.77	228.46
355.15	228.57
355.54	228.62
355.92	228.65
356.30	228.73
356.68	228.86
357.06	228.94
357.44	228.99
357.82	229.06
358.20	229.16
358.58	229.22
358.97	229.28
359.35	229.35
359.73	229.43
360.11	229.47
360.49	229.54
360.87	229.58
361.25	229.65
361.63	229.74
362.01	229.78
362.39	229.81
362.77	229.85
363.15	229.87
363.53	229.91
363.91	229.93
364.29	229.96
364.67	229.88
365.05	229.90
365.43	229.92
365.81	229.95
366.19	229.97
366.57	230.02
366.95	230.01
367.33	229.98
367.71	229.98
368.09	230.00
368.47	229.99
368.85	229.98
369.23	229.99
369.61	229.93
369.99	229.95
370.37	229.94
370.75	230.01
371.13	229.96
371.51	229.92
371.89	229.90
372.27	229.88
372.65	229.84
373.03	229.80
373.41	229.74
373.78	229.68
374.16	229.59
374.54	229.51
374.92	229.47
375.30	229.44
375.68	229.37
376.06	229.31
376.44	229.25
376.82	229.21
377.19	229.16
377.57	229.11
377.95	229.02
378.33	228.96
378.71	228.81
379.09	228.76
379.47	228.72
379.84	228.66
380.22	228.59
380.60	228.53
380.98	228.47
381.36	228.42
381.73	228.36
382.11	228.34
382.49	228.29
382.87	228.23
383.25	228.17
383.62	228.28
384.00	228.22
384.38	228.19
384.76	228.17
385.13	228.17
385.51	228.12
385.89	228.06
386.27	228.03
386.64	228.02
387.02	227.99
387.40	227.93
387.78	227.88
388.15	227.86
388.53	227.83
388.91	227.80
389.29	227.76
389.66	227.78
390.04	227.73
390.42	227.73
390.79	227.71
391.17	227.70
391.55	227.55
391.92	227.53
392.30	227.54
392.68	227.50
393.05	227.48
393.43	227.48
393.81	227.50
394.18	227.49
394.56	227.48
394.94	227.50
395.31	227.52
395.69	227.59
396.06	227.62
396.44	227.64
396.82	227.65
397.19	227.73
397.57	227.72
397.95	227.76
398.32	227.75
398.70	227.79
399.07	227.86
399.45	227.90
399.82	227.94
400.20	227.99
400.58	228.06
400.95	228.07
401.33	228.16
401.70	228.31
402.08	228.39
402.45	228.49
402.83	228.61
403.20	228.72
403.58	228.80
403.95	228.94
404.33	229.10
404.71	229.24
405.08	229.45
405.46	229.62
405.83	229.81
406.21	229.99
406.58	230.21
406.96	230.42
407.33	230.66
407.70	230.94
408.08	231.31
408.45	231.63
408.83	231.98
409.20	232.29
409.58	232.59
409.95	232.99
410.33	233.41
410.70	233.81
411.08	234.28
411.45	234.80
411.82	235.30
412.20	235.89
412.57	236.58
412.95	237.13
413.32	237.85
413.69	238.59
414.07	239.37
414.44	240.22
414.82	241.08
415.19	242.10
415.56	243.12
415.94	244.17
416.31	245.36
416.68	246.55
417.06	247.93
417.43	249.22
417.81	250.72
418.18	252.25
418.55	253.91
418.93	255.65
419.30	257.43
419.67	259.36
420.04	261.33
420.42	263.38
420.79	265.75
421.16	268.14
421.54	270.56
421.91	273.11
422.28	275.74
422.66	278.58
423.03	281.29
423.40	284.13
423.77	287.19
424.15	290.32
424.52	293.57
424.89	297.10
425.26	300.62
425.64	303.88
426.01	307.53
426.38	311.30
426.75	315.16
427.13	319.13
427.50	323.28
427.87	327.58
428.24	331.96
428.61	336.17
428.99	340.69
429.36	345.68
429.73	350.45
430.10	355.23
430.47	360.11
430.85	365.14
431.22	370.54
431.59	376.10
431.96	381.50
432.33	387.53
432.70	393.29
433.08	400.04
433.45	406.46
433.82	412.76
434.19	419.81
434.56	426.77
434.93	433.49
435.30	440.15
435.68	447.67
436.05	455.02
436.42	462.34
436.79	469.06
437.16	476.26
437.53	483.98
437.90	491.72
438.27	499.30
438.64	507.45
439.01	514.87
439.38	521.64
439.75	528.17
440.13	535.48
440.50	542.43
440.87	547.96
441.24	553.98
441.61	560.56
441.98	565.32
442.35	570.96
442.72	576.74
443.09	582.21
443.46	585.63
443.83	588.09
444.20	590.11
444.57	593.16
444.94	594.83
445.31	596.53
445.68	597.92
446.05	598.87
446.42	598.28
446.79	597.49
447.16	596.75
447.53	596.05
447.90	593.45
448.27	590.94
448.64	587.29
449.01	584.66
449.37	579.72
449.74	575.23
450.11	569.50
450.48	563.26
450.85	557.04
451.22	551.69
451.59	546.49
451.96	541.78
452.33	535.03
452.70	529.05
453.07	521.80
453.43	514.59
453.80	507.58
454.17	500.88
454.54	494.71
454.91	487.78
455.28	481.31
455.65	475.21
456.02	468.81
456.38	463.62
456.75	456.98
457.12	451.63
457.49	446.27
457.86	441.21
458.23	436.80
458.59	431.90
458.96	426.91
459.33	422.51
459.70	418.03
460.07	414.65
460.43	410.66
460.80	406.93
461.17	403.71
461.54	400.21
461.91	396.97
462.27	393.67
462.64	391.02
463.01	387.90
463.38	384.81
463.74	382.01
464.11	379.57
464.48	377.36
464.85	374.95
465.21	373.14
465.58	371.10
465.95	368.75
466.32	366.90
466.68	365.08
467.05	363.23
467.42	361.46
467.78	359.51
468.15	357.74
468.52	356.45
468.88	354.70
469.25	353.11
469.62	351.83
469.98	350.45
470.35	349.24
470.72	348.14
471.08	346.99
471.45	346.05
471.82	344.99
472.18	343.86
472.55	343.14
472.92	342.22
473.28	341.52
473.65	340.75
474.02	340.02
474.38	339.38
474.75	339.00
475.11	338.49
475.48	338.26
475.85	338.02
476.21	337.89
476.58	337.81
476.94	337.95
477.31	338.03
477.67	338.14
478.04	338.33
478.41	338.64
478.77	339.08
479.14	339.36
479.50	339.85
479.87	340.50
480.23	341.17
480.60	341.81
480.96	342.45
481.33	343.42
481.69	344.40
482.06	345.37
482.42	346.28
482.79	347.37
483.15	348.64
483.52	350.08
483.88	351.46
484.25	352.94
484.61	354.49
484.98	356.15
485.34	357.99
485.71	359.96
486.07	362.03
486.44	364.12
486.80	366.45
487.17	368.88
487.53	371.53
487.90	374.30
488.26	377.32
488.62	380.53
488.99	383.74
489.35	387.11
489.72	390.75
490.08	394.59
490.44	398.53
490.81	402.66
491.17	406.88
491.54	411.40
491.90	416.08
492.26	421.06
492.63	426.32
492.99	431.81
493.36	437.46
493.72	443.45
494.08	449.56
494.45	456.04
494.81	462.77
495.17	469.71
495.54	477.02
495.90	484.65
496.26	492.42
496.63	500.43
496.99	508.76
497.35	517.52
497.72	526.50
498.08	535.71
498.44	545.25
498.80	555.34
499.17	565.70
499.53	576.35
499.89	587.42
500.26	598.65
500.62	610.20
500.98	622.35
501.34	634.66
501.71	647.50
502.07	660.51
502.43	674.07
502.79	687.87
503.16	702.12
503.52	716.56
503.88	731.43
504.24	746.73
504.60	762.22
504.97	778.20
505.33	794.62
505.69	811.93
506.05	829.52
506.41	847.01
506.78	864.72
507.14	882.99
507.50	901.67
507.86	920.68
508.22	939.92
508.59	959.03
508.95	978.97
509.31	999.57
509.67	1020.88
510.03	1042.17
510.39	1063.48
510.75	1085.06
511.12	1106.86
511.48	1128.85
511.84	1150.92
512.20	1173.33
512.56	1196.57
512.92	1219.89
513.28	1242.81
513.64	1265.96
514.00	1289.61
514.37	1313.51
514.73	1337.39
515.09	1361.20
515.45	1385.37
515.81	1409.62
516.17	1434.06
516.53	1457.94
516.89	1481.77
517.25	1505.70
517.61	1529.61
517.97	1553.95
518.33	1577.72
518.69	1601.45
519.05	1625.71
519.41	1650.23
519.77	1674.92
520.13	1698.91
520.49	1722.78
520.85	1747.05
521.21	1770.80
521.57	1794.97
521.93	1818.67
522.29	1842.85
522.65	1866.48
523.01	1890.12
523.37	1913.38
523.73	1937.25
524.09	1960.91
524.45	1984.34
524.81	2007.39
525.17	2030.27
525.53	2052.59
525.89	2075.34
526.25	2098.05
526.61	2119.71
526.97	2141.61
527.33	2163.49
527.68	2185.01
528.04	2205.74
528.40	2225.52
528.76	2245.77
529.12	2265.38
529.48	2284.51
529.84	2302.03
530.20	2320.17
530.56	2337.66
530.91	2355.32
531.27	2372.68
531.63	2389.19
531.99	2405.37
532.35	2420.91
532.71	2436.41
533.07	2452.55
533.42	2466.98
533.78	2482.32
534.14	2497.92
534.50	2512.42
534.86	2526.77
535.21	2539.29
535.57	2552.23
535.93	2565.01
536.29	2576.58
536.65	2588.10
537.00	2599.03
537.36	2610.70
537.72	2620.93
538.08	2630.69
538.44	2639.81
538.79	2648.57
539.15	2656.46
539.51	2663.89
539.87	2670.75
540.22	2675.81
540.58	2680.86
540.94	2687.12
541.29	2691.85
541.65	2694.74
542.01	2697.09
542.37	2698.71
542.72	2701.62
543.08	2702.94
543.44	2704.81
543.79	2705.59
544.15	2705.54
544.51	2705.91
544.87	2705.27
545.22	2703.78
545.58	2701.73
545.94	2699.70
546.29	2696.30
546.65	2692.97
547.01	2689.58
547.36	2686.87
547.72	2684.22
548.07	2679.91
548.43	2674.12
548.79	2667.47
549.14	2662.10
549.50	2656.92
549.86	2650.84
550.21	2643.64
550.57	2637.39
550.92	2628.84
551.28	2620.88
551.64	2613.19
551.99	2605.04
552.35	2596.33
552.70	2587.90
553.06	2579.72
553.41	2570.92
553.77	2561.92
554.13	2552.85
554.48	2542.90
554.84	2531.80
555.19	2521.25
555.55	2510.73
555.90	2500.32
556.26	2490.38
556.61	2479.35
556.97	2466.68
557.32	2454.58
557.68	2442.42
558.03	2430.09
558.39	2418.85
558.74	2407.91
559.10	2395.33
559.45	2383.02
559.81	2371.26
560.16	2358.86
560.52	2346.68
560.87	2334.78
561.23	2322.11
561.58	2309.64
561.94	2296.90
562.29	2283.55
562.64	2270.86
563.00	2257.89
563.35	2245.29
563.71	2232.46
564.06	2219.55
564.42	2207.38
564.77	2194.55
565.12	2181.73
565.48	2168.83
565.83	2156.00
566.19	2143.24
566.54	2130.44
566.89	2116.50
567.25	2102.69
567.60	2090.13
567.96	2076.90
568.31	2062.31
568.66	2048.52
569.02	2035.72
569.37	2022.86
569.72	2010.50
570.08	1996.93
570.43	1982.98
570.78	1968.89
571.14	1954.20
571.49	1940.16
571.84	1926.69
572.20	1912.02
572.55	1897.47
572.90	1882.88
573.26	1868.27
573.61	1853.18
573.96	1838.54
574.31	1824.18
574.67	1809.84
575.02	1794.70
575.37	1779.39
575.72	1765.04
576.08	1750.90
576.43	1735.66
576.78	1720.88
577.13	1706.40
577.49	1692.26
577.84	1678.70
578.19	1664.17
578.54	1649.87
578.90	1635.14
579.25	1620.23
579.60	1606.93
579.95	1593.53
580.30	1579.90
580.66	1566.09
581.01	1552.14
581.36	1538.22
581.71	1525.30
582.06	1512.24
582.42	1499.37
582.77	1486.65
583.12	1473.81
583.47	1460.92
583.82	1448.11
584.17	1434.94
584.53	1421.47
584.88	1408.35
585.23	1394.85
585.58	1382.20
585.93	1369.76
586.28	1357.95
586.63	1346.25
586.98	1333.99
587.34	1321.80
587.69	1309.34
588.04	1297.22
588.39	1285.51
588.74	1273.89
589.09	1262.05
589.44	1249.85
589.79	1238.28
590.14	1226.78
590.49	1215.24
590.84	1203.80
591.19	1192.81
591.54	1181.59
591.89	1170.55
592.25	1159.69
592.60	1148.50
592.95	1137.64
593.30	1126.98
593.65	1116.02
594.00	1105.12
594.35	1094.90
594.70	1084.29
595.05	1074.55
595.40	1064.66
595.75	1054.69
596.10	1045.22
596.45	1035.40
596.80	1025.95
597.15	1016.22
597.50	1006.70
597.85	997.53
598.19	988.24
598.54	978.98
598.89	970.20
599.24	961.66
599.59	952.95
599.94	945.18
600.29	937.27
600.64	929.07
600.99	920.51
601.34	912.36
601.69	903.76
602.04	895.85
602.39	887.79
602.74	879.74
603.08	871.70
603.43	863.60
603.78	855.74
604.13	848.02
604.48	840.26
604.83	832.70
605.18	825.08
605.53	817.57
605.87	809.86
606.22	802.50
606.57	795.09
606.92	787.58
607.27	779.97
607.62	772.63
607.96	765.69
608.31	759.22
608.66	752.54
609.01	746.15
609.36	739.89
609.70	733.39
610.05	726.87
610.40	720.61
610.75	714.36
611.10	708.43
611.44	702.32
611.79	696.33
612.14	690.25
612.49	684.25
612.83	678.57
613.18	673.04
613.53	667.35
613.88	661.73
614.22	656.53
614.57	651.24
614.92	645.80
615.27	640.52
615.61	635.25
615.96	630.06
616.31	624.86
616.65	619.68
617.00	614.74
617.35	609.93
617.70	605.16
618.04	600.40
618.39	595.58
618.74	591.06
619.08	586.55
619.43	582.12
619.78	577.76
620.12	573.33
620.47	569.06
620.82	564.91
621.16	560.75
621.51	556.45
621.85	552.26
622.20	548.23
622.55	544.17
622.89	540.22
623.24	536.27
623.59	532.42
623.93	528.71
624.28	525.04
624.62	521.46
624.97	517.92
625.32	514.37
625.66	510.79
626.01	507.12
626.35	503.57
626.70	500.07
627.04	496.70
627.39	493.29
627.73	490.05
628.08	486.90
628.43	483.77
628.77	480.74
629.12	477.75
629.46	474.79
629.81	471.77
630.15	468.77
630.50	465.82
630.84	462.90
631.19	460.05
631.53	457.35
631.88	454.58
632.22	451.83
632.57	449.35
632.91	446.91
633.26	444.57
633.60	442.23
633.95	439.94
634.29	437.58
634.64	435.29
634.98	432.76
635.32	430.42
635.67	428.27
636.01	426.02
636.36	423.85
636.70	421.84
637.05	419.79
637.39	417.77
637.73	415.76
638.08	413.88
638.42	411.97
638.77	409.91
639.11	407.84
639.45	405.84
639.80	403.79
640.14	401.84
640.49	399.85
640.83	397.83
641.17	395.92
641.52	394.06
641.86	392.21
642.20	390.59
642.55	388.77
642.89	386.98
643.23	385.29
643.58	383.74
643.92	382.04
644.26	380.42
644.61	378.86
644.95	377.26
645.29	375.61
645.64	373.97
645.98	372.40
646.32	370.95
646.66	369.49
647.01	368.04
647.35	366.63
647.69	365.20
648.04	363.92
648.38	362.55
648.72	361.19
649.06	359.86
649.41	358.52
649.75	357.24
650.09	355.95
650.43	354.68
650.78	353.37
651.12	352.12
651.46	350.88
651.80	349.66
652.14	348.50
652.49	347.36
652.83	346.21
653.17	345.09
653.51	344.01
653.85	342.98
654.20	341.91
654.54	340.74
654.88	339.69
655.22	338.63
655.56	337.56
655.90	336.57
656.25	335.58
656.59	334.60
656.93	333.68
657.27	332.77
657.61	331.79
657.95	330.84
658.29	329.89
658.64	329.02
658.98	328.12
659.32	327.23
659.66	326.40
660.00	325.57
660.34	324.76
660.68	323.90
661.02	323.00
661.36	322.14
661.70	321.33
662.05	320.51
662.39	319.73
662.73	319.03
663.07	318.30
663.41	317.57
663.75	316.80
664.09	316.03
664.43	315.23
664.77	314.51
665.11	313.76
665.45	313.05
665.79	312.35
666.13	311.61
666.47	310.86
666.81	310.10
667.15	309.31
667.49	308.63
667.83	308.01
668.17	307.39
668.51	306.80
668.85	306.22
669.19	305.67
669.53	305.03
669.87	304.36
670.21	303.74
670.55	303.13
670.89	302.61
671.23	302.05
671.57	301.51
671.91	301.01
672.25	300.53
672.58	300.04
672.92	299.47
673.26	298.99
673.60	298.52
673.94	298.06
674.28	297.63
674.62	297.16
674.96	296.64
675.30	296.13
675.64	295.60
675.97	295.09
676.31	294.55
676.65	294.06
676.99	293.63
677.33	293.11
677.67	292.64
678.01	292.10
678.34	291.63
678.68	291.18
679.02	290.67
679.36	290.18
679.70	289.69
680.04	289.24
680.37	288.76
680.71	288.31
681.05	287.87
681.39	287.41
681.73	286.91
682.06	286.41
682.40	285.95
682.74	285.55
683.08	285.17
683.42	284.72
683.75	284.32
684.09	283.84
684.43	283.45
684.77	283.01
685.10	282.64
685.44	282.24
685.78	281.84
686.12	281.47
686.45	281.06
686.79	280.63
687.13	280.24
687.46	279.83
687.80	279.45
688.14	279.03
688.48	278.63
688.81	278.23
689.15	277.91
689.49	277.52
689.82	277.14
690.16	276.68
690.50	276.30
690.83	275.92
691.17	275.53
691.51	275.13
691.84	274.78
692.18	274.36
692.52	273.95
692.85	273.55
693.19	273.18
693.52	272.81
693.86	272.43
694.20	272.07
694.53	271.71
694.87	271.31
695.21	270.92
695.54	270.56
695.88	270.19
696.21	269.78
696.55	269.41
696.88	269.02
697.22	268.67
697.56	268.30
697.89	267.90
698.23	267.55
698.56	267.17
698.90	266.80
699.23	266.40
699.57	266.04
699.90	265.67
700.24	265.31
700.58	264.98
700.91	264.69
701.25	264.44
701.58	264.16
701.92	263.87
702.25	263.56
702.59	263.23
702.92	262.90
703.26	262.57
703.59	262.24
703.93	262.01
704.26	261.70
704.60	261.38
704.93	261.05
705.26	260.73
705.60	260.46
705.93	260.12
706.27	259.86
706.60	259.61
706.94	259.35
707.27	259.02
707.61	258.69
707.94	258.35
708.27	257.93
708.61	257.57
708.94	257.22
709.28	256.94
709.61	256.65
709.94	256.38
710.28	256.11
710.61	255.86
710.95	255.51
711.28	255.32
711.61	255.05
711.95	254.83
712.28	254.55
712.61	254.26
712.95	254.09
713.28	253.89
713.61	253.58
713.95	253.26
714.28	253.03
714.61	252.78
714.95	252.53
715.28	252.30
715.61	252.07
715.95	251.85
716.28	251.63
716.61	251.42
716.95	251.18
717.28	250.96
717.61	250.73
717.94	250.50
718.28	250.18
718.61	249.95
718.94	249.70
719.27	249.49
719.61	249.28
719.94	249.02
720.27	248.74
720.60	248.54
720.94	248.34
721.27	248.14
721.60	247.96
721.93	247.76
722.27	247.59
722.60	247.40
722.93	247.19
723.26	246.97
723.59	246.74
723.93	246.55
724.26	246.35
724.59	246.15
724.92	245.99
725.25	245.86
725.59	245.68
725.92	245.54
726.25	245.36
726.58	245.19
726.91	245.01
727.24	244.87
727.57	244.71
727.91	244.53
728.24	244.38
728.57	244.20
728.90	244.05
729.23	243.84
729.56	243.74
729.89	243.56
730.22	243.39
730.55	243.24
730.89	243.09
731.22	242.92
731.55	242.77
731.88	242.59
732.21	242.42
732.54	242.27
732.87	242.11
733.20	241.99
733.53	241.85
733.86	241.71
734.19	241.54
734.52	241.42
734.85	241.36
735.18	241.19
735.51	241.07
735.84	240.95
736.17	240.85
736.50	240.65
736.83	240.66
737.16	240.55
737.49	240.42
737.82	240.28
738.15	240.18
738.48	240.06
738.81	239.94
739.14	239.80
739.47	239.67
739.80	239.53
740.13	239.40
740.46	239.26
740.79	239.12
741.12	238.99
741.45	238.84
741.78	238.66
742.11	238.57
742.44	238.42
742.77	238.33
743.10	238.19
743.43	238.07
743.75	237.84
744.08	237.92
744.41	237.81
744.74	237.71
745.07	237.56
745.40	237.46
745.73	237.40
746.06	237.30
746.39	237.22
746.71	237.12
747.04	237.02
747.37	236.93
747.70	236.87
748.03	236.79
748.36	236.72
748.68	236.62
749.01	236.49
749.34	236.41
749.67	236.31
750.00	236.23
750.33	236.24
750.65	236.16
750.98	235.89
751.31	235.80
751.64	235.70
751.97	235.70
752.29	235.61
752.62	235.46
752.95	235.37
753.28	235.27
753.60	235.16
753.93	235.10
754.26	235.01
754.59	234.88
754.91	234.78
755.24	234.68
755.57	234.65
755.90	234.57
756.22	234.47
756.55	234.37
756.88	234.27
757.20	234.10
757.53	233.98
757.86	233.90
758.19	233.82
758.51	233.76
758.84	233.60
759.17	233.52
759.49	233.47
759.82	233.45
760.15	233.40
760.47	233.33
760.80	233.22
761.13	233.20
761.45	233.14
761.78	233.07
762.11	233.02
762.43	232.88
762.76	232.82
763.08	232.78
763.41	232.73
763.74	232.67
764.06	232.61
764.39	232.57
764.71	232.50
765.04	232.45
765.37	232.38
765.69	232.33
766.02	232.27
766.34	232.20
766.67	232.09
767.00	232.06
767.32	232.08
767.65	232.09
767.97	232.01
768.30	231.96
768.62	231.91
768.95	231.84
769.27	231.79
769.60	231.75
769.92	231.68
770.25	231.59
770.57	231.53
770.90	231.49
771.22	231.44
771.55	231.39
771.87	231.35
772.20	231.31
772.52	231.37
772.85	231.47
773.17	231.44
773.50	231.38
773.82	231.31
774.15	231.21
774.47	231.10
774.80	231.05
775.12	231.00
775.45	230.96
775.77	230.93
776.09	230.90
776.42	230.87
776.74	230.89
777.07	230.86
777.39	230.82
777.72	230.78
778.04	230.74
778.36	230.69
778.69	230.66
779.01	230.62
779.33	230.48
779.66	230.32
779.98	230.26
780.31	230.25
780.63	230.26
780.95	230.24
781.28	230.22
781.60	230.18
781.92	230.16
782.25	230.13
782.57	230.10
782.89	230.07
783.22	230.02
783.54	229.96
783.86	229.96
784.19	229.93
784.51	229.94
784.83	229.91
785.16	229.88
785.48	229.86
785.80	229.84
786.12	229.83
786.45	229.79
786.77	229.79
787.09	229.76
787.42	229.70
787.74	229.69
788.06	229.68
788.38	229.65
788.71	229.61
789.03	229.61
789.35	229.60
789.67	229.56
789.99	229.55
790.32	229.51
790.64	229.48
790.96	229.57
791.28	229.52
791.61	229.49
791.93	229.48
792.25	229.45
792.57	229.52
792.89	229.48
793.21	229.46
793.54	229.43
793.86	229.40
794.18	229.39
794.50	229.34
794.82	229.30
795.14	229.30
795.47	229.31
795.79	229.29
796.11	229.25
796.43	229.24
796.75	229.22
797.07	229.21
797.39	229.19
797.71	229.06
798.04	229.06
798.36	229.06
798.68	229.03
799.00	229.02
799.32	228.94
799.64	228.94
799.96	228.93
800.28	228.94
800.60	228.91
800.92	228.90
801.24	228.88
801.56	228.89
801.89	228.86
802.21	228.86
802.53	228.83
802.85	228.85
803.17	228.89
803.49	228.85
803.81	228.83
804.13	228.81
804.45	228.79
804.77	228.77
805.09	228.76
805.41	228.74
805.73	228.71
806.05	228.65
806.37	228.63
806.69	228.61
807.01	228.59
807.33	228.58
807.65	228.52
807.97	228.56
808.28	228.52
808.60	228.50
808.92	228.47
809.24	228.53
809.56	228.50
809.88	228.45
810.20	228.44
810.52	228.46
810.84	228.43
811.16	228.41
811.48	228.40
811.80	228.43
812.12	228.42
812.43	228.44
812.75	228.44
813.07	228.42
813.39	228.42
813.71	228.39
814.03	228.37
814.35	228.38
814.67	228.32
814.98	228.31
815.30	228.30
815.62	228.26
815.94	228.17
816.26	228.18
816.58	228.14
816.89	228.14
817.21	228.11
817.53	228.12
817.85	228.11
818.17	228.09
818.48	228.04
