SpectraSuite Data File
++++++++++++++++++++++++++++++++++++
Date: Fri Oct 02 18:58:57 EDT 2015
User: lab3
Dark Spectrum Present: No
Reference Spectrum Present: No
Number of Sampled Component Spectra: 1
Spectrometers: USB2E7196
Integration Time (usec): 46000 (USB2E7196)
Spectra Averaged: 1500 (USB2E7196)
Boxcar Smoothing: 10 (USB2E7196)
Correct for Electrical Dark: No (USB2E7196)
Strobe/Lamp Enabled: No (USB2E7196)
Correct for Detector Non-linearity: No (USB2E7196)
Correct for Stray Light: No (USB2E7196)
Number of Pixels in Processed Spectrum: 2048
>>>>>Begin Processed Spectral Data<<<<<
339.09	0.00
339.48	215.69
339.86	217.11
340.24	218.55
340.63	219.89
341.01	223.18
341.39	222.77
341.78	223.92
342.16	225.15
342.54	225.68
342.93	214.00
343.31	224.81
343.69	225.35
344.07	225.81
344.46	226.25
344.84	226.65
345.22	226.87
345.60	227.12
345.99	227.31
346.37	227.45
346.75	227.56
347.13	227.65
347.52	227.71
347.90	227.79
348.28	227.82
348.66	227.88
349.05	227.88
349.43	227.94
349.81	228.00
350.19	228.06
350.57	228.13
350.96	228.22
351.34	228.31
351.72	228.41
352.10	228.51
352.48	228.59
352.87	228.62
353.25	228.69
353.63	228.75
354.01	228.81
354.39	228.90
354.77	228.98
355.15	229.08
355.54	229.14
355.92	229.18
356.30	229.26
356.68	229.41
357.06	229.50
357.44	229.54
357.82	229.60
358.20	229.72
358.58	229.78
358.97	229.84
359.35	229.92
359.73	230.00
360.11	230.05
360.49	230.11
360.87	230.18
361.25	230.24
361.63	230.33
362.01	230.38
362.39	230.41
362.77	230.45
363.15	230.49
363.53	230.51
363.91	230.54
364.29	230.56
364.67	230.47
365.05	230.49
365.43	230.53
365.81	230.56
366.19	230.57
366.57	230.65
366.95	230.65
367.33	230.62
367.71	230.61
368.09	230.63
368.47	230.62
368.85	230.60
369.23	230.62
369.61	230.56
369.99	230.58
370.37	230.57
370.75	230.65
371.13	230.60
371.51	230.56
371.89	230.55
372.27	230.53
372.65	230.51
373.03	230.47
373.41	230.41
373.78	230.37
374.16	230.27
374.54	230.17
374.92	230.13
375.30	230.09
375.68	230.02
376.06	229.98
376.44	229.93
376.82	229.89
377.19	229.84
377.57	229.78
377.95	229.69
378.33	229.63
378.71	229.46
379.09	229.42
379.47	229.39
379.84	229.32
380.22	229.24
380.60	229.17
380.98	229.13
381.36	229.08
381.73	229.01
382.11	228.98
382.49	228.95
382.87	228.88
383.25	228.83
383.62	228.94
384.00	228.87
384.38	228.83
384.76	228.80
385.13	228.79
385.51	228.75
385.89	228.70
386.27	228.67
386.64	228.65
387.02	228.60
387.40	228.55
387.78	228.53
388.15	228.52
388.53	228.49
388.91	228.46
389.29	228.42
389.66	228.42
390.04	228.38
390.42	228.38
390.79	228.36
391.17	228.34
391.55	228.18
391.92	228.17
392.30	228.17
392.68	228.13
393.05	228.12
393.43	228.12
393.81	228.12
394.18	228.10
394.56	228.10
394.94	228.14
395.31	228.13
395.69	228.16
396.06	228.19
396.44	228.22
396.82	228.23
397.19	228.32
397.57	228.32
397.95	228.36
398.32	228.35
398.70	228.39
399.07	228.46
399.45	228.49
399.82	228.55
400.20	228.58
400.58	228.64
400.95	228.64
401.33	228.73
401.70	228.88
402.08	228.98
402.45	229.07
402.83	229.18
403.20	229.30
403.58	229.39
403.95	229.52
404.33	229.67
404.71	229.81
405.08	230.02
405.46	230.18
405.83	230.35
406.21	230.55
406.58	230.76
406.96	230.97
407.33	231.21
407.70	231.47
408.08	231.85
408.45	232.17
408.83	232.52
409.20	232.83
409.58	233.11
409.95	233.51
410.33	233.94
410.70	234.32
411.08	234.79
411.45	235.28
411.82	235.78
412.20	236.35
412.57	237.03
412.95	237.56
413.32	238.27
413.69	238.99
414.07	239.76
414.44	240.59
414.82	241.43
415.19	242.42
415.56	243.42
415.94	244.45
416.31	245.62
416.68	246.78
417.06	248.14
417.43	249.41
417.81	250.87
418.18	252.35
418.55	253.97
418.93	255.66
419.30	257.43
419.67	259.30
420.04	261.22
420.42	263.22
420.79	265.56
421.16	267.88
421.54	270.26
421.91	272.74
422.28	275.33
422.66	278.11
423.03	280.77
423.40	283.55
423.77	286.53
424.15	289.57
424.52	292.76
424.89	296.19
425.26	299.62
425.64	302.80
426.01	306.37
426.38	310.03
426.75	313.80
427.13	317.66
427.50	321.72
427.87	325.93
428.24	330.17
428.61	334.25
428.99	338.67
429.36	343.51
429.73	348.14
430.10	352.77
430.47	357.50
430.85	362.38
431.22	367.62
431.59	373.01
431.96	378.27
432.33	384.11
432.70	389.65
433.08	396.22
433.45	402.44
433.82	408.55
434.19	415.39
434.56	422.13
434.93	428.63
435.30	435.05
435.68	442.31
436.05	449.42
436.42	456.48
436.79	462.94
437.16	469.91
437.53	477.35
437.90	484.82
438.27	492.12
438.64	499.98
439.01	507.11
439.38	513.62
439.75	519.89
440.13	526.97
440.50	533.68
440.87	538.98
441.24	544.81
441.61	551.15
441.98	555.74
442.35	561.20
442.72	566.77
443.09	572.07
443.46	575.38
443.83	577.77
444.20	579.75
444.57	582.75
444.94	584.38
445.31	586.08
445.68	587.49
446.05	588.47
446.42	587.94
446.79	587.24
447.16	586.59
447.53	585.99
447.90	583.55
448.27	581.21
448.64	577.76
449.01	575.29
449.37	570.56
449.74	566.29
450.11	560.81
450.48	554.83
450.85	548.87
451.22	543.76
451.59	538.79
451.96	534.28
452.33	527.77
452.70	522.01
453.07	515.00
453.43	508.01
453.80	501.24
454.17	494.79
454.54	488.84
454.91	482.14
455.28	475.88
455.65	469.98
456.02	463.75
456.38	458.72
456.75	452.26
457.12	447.07
457.49	441.84
457.86	436.92
458.23	432.62
458.59	427.86
458.96	422.98
459.33	418.70
459.70	414.34
460.07	411.05
460.43	407.16
460.80	403.53
461.17	400.40
461.54	396.98
461.91	393.80
462.27	390.56
462.64	387.96
463.01	384.91
463.38	381.86
463.74	379.10
464.11	376.69
464.48	374.54
464.85	372.19
465.21	370.41
465.58	368.42
465.95	366.12
466.32	364.29
466.68	362.50
467.05	360.70
467.42	358.94
467.78	357.03
468.15	355.29
468.52	354.03
468.88	352.32
469.25	350.75
469.62	349.52
469.98	348.17
470.35	346.96
470.72	345.88
471.08	344.78
471.45	343.85
471.82	342.82
472.18	341.71
472.55	341.00
472.92	340.09
473.28	339.40
473.65	338.64
474.02	337.94
474.38	337.34
474.75	336.99
475.11	336.49
475.48	336.27
475.85	336.03
476.21	335.89
476.58	335.80
476.94	335.93
477.31	335.99
477.67	336.08
478.04	336.28
478.41	336.57
478.77	336.98
479.14	337.24
479.50	337.73
479.87	338.37
480.23	339.01
480.60	339.65
480.96	340.28
481.33	341.23
481.69	342.17
482.06	343.11
482.42	343.98
482.79	345.05
483.15	346.28
483.52	347.69
483.88	349.02
484.25	350.47
484.61	351.98
484.98	353.60
485.34	355.42
485.71	357.34
486.07	359.38
486.44	361.40
486.80	363.68
487.17	366.04
487.53	368.62
487.90	371.31
488.26	374.25
488.62	377.35
488.99	380.45
489.35	383.70
489.72	387.25
490.08	390.98
490.44	394.85
490.81	398.87
491.17	402.98
491.54	407.40
491.90	411.97
492.26	416.84
492.63	421.96
492.99	427.31
493.36	432.81
493.72	438.62
494.08	444.58
494.45	450.90
494.81	457.49
495.17	464.26
495.54	471.39
495.90	478.82
496.26	486.42
496.63	494.27
496.99	502.44
497.35	510.99
497.72	519.78
498.08	528.80
498.44	538.14
498.80	548.02
499.17	558.17
499.53	568.60
499.89	579.41
500.26	590.44
500.62	601.78
500.98	613.75
501.34	625.88
501.71	638.53
502.07	651.37
502.43	664.73
502.79	678.28
503.16	692.32
503.52	706.56
503.88	721.23
504.24	736.33
504.60	751.66
504.97	767.45
505.33	783.67
505.69	800.77
506.05	818.20
506.41	835.52
506.78	853.10
507.14	871.19
507.50	889.75
507.86	908.68
508.22	927.80
508.59	946.77
508.95	966.60
509.31	987.16
509.67	1008.35
510.03	1029.54
510.39	1050.89
510.75	1072.42
511.12	1094.20
511.48	1116.12
511.84	1138.19
512.20	1160.71
512.56	1183.99
512.92	1207.34
513.28	1230.34
513.64	1253.65
514.00	1277.43
514.37	1301.42
514.73	1325.53
515.09	1349.51
515.45	1373.83
515.81	1398.29
516.17	1422.96
516.53	1447.07
516.89	1471.16
517.25	1495.46
517.61	1519.70
517.97	1544.39
518.33	1568.61
518.69	1592.75
519.05	1617.50
519.41	1642.53
519.77	1667.59
520.13	1692.07
520.49	1716.47
520.85	1741.32
521.21	1765.54
521.57	1790.26
521.93	1814.57
522.29	1839.28
522.65	1863.59
523.01	1887.85
523.37	1911.74
523.73	1936.30
524.09	1960.73
524.45	1984.87
524.81	2008.62
525.17	2032.28
525.53	2055.36
525.89	2078.86
526.25	2102.45
526.61	2124.96
526.97	2147.62
527.33	2170.40
527.68	2192.78
528.04	2214.40
528.40	2235.01
528.76	2256.20
529.12	2276.77
529.48	2296.94
529.84	2315.48
530.20	2334.60
530.56	2353.10
530.91	2371.89
531.27	2390.25
531.63	2407.77
531.99	2424.94
532.35	2441.48
532.71	2458.03
533.07	2475.25
533.42	2490.74
533.78	2507.24
534.14	2523.95
534.50	2539.54
534.86	2554.93
535.21	2568.53
535.57	2582.63
535.93	2596.52
536.29	2609.17
536.65	2621.82
537.00	2633.86
537.36	2646.71
537.72	2657.99
538.08	2669.04
538.44	2679.34
538.79	2689.25
539.15	2698.29
539.51	2706.90
539.87	2714.78
540.22	2720.91
540.58	2727.14
540.94	2734.62
541.29	2740.33
541.65	2744.28
542.01	2747.77
542.37	2750.55
542.72	2754.63
543.08	2756.99
543.44	2759.90
543.79	2761.71
544.15	2762.66
544.51	2764.02
544.87	2764.23
545.22	2763.78
545.58	2762.52
545.94	2761.31
546.29	2758.80
546.65	2756.36
547.01	2753.96
547.36	2752.29
547.72	2750.42
548.07	2746.95
548.43	2741.86
548.79	2736.06
549.14	2731.54
549.50	2727.02
549.86	2721.67
550.21	2715.19
550.57	2709.68
550.92	2701.89
551.28	2694.85
551.64	2687.90
551.99	2680.44
552.35	2672.36
552.70	2664.62
553.06	2657.15
553.41	2648.99
553.77	2640.62
554.13	2632.13
554.48	2622.69
554.84	2612.17
555.19	2602.32
555.55	2592.32
555.90	2582.35
556.26	2572.83
556.61	2562.25
556.97	2550.10
557.32	2538.45
557.68	2526.64
558.03	2514.69
558.39	2503.85
558.74	2493.21
559.10	2480.91
559.45	2468.94
559.81	2457.61
560.16	2445.50
560.52	2433.63
560.87	2422.10
561.23	2409.72
561.58	2397.54
561.94	2384.93
562.29	2371.69
562.64	2359.15
563.00	2346.28
563.35	2334.02
563.71	2321.45
564.06	2308.65
564.42	2296.65
564.77	2283.93
565.12	2271.21
565.48	2258.34
565.83	2245.60
566.19	2232.81
566.54	2220.03
566.89	2206.02
567.25	2192.27
567.60	2179.78
567.96	2166.43
568.31	2151.72
568.66	2137.84
569.02	2125.04
569.37	2112.16
569.72	2099.86
570.08	2086.18
570.43	2072.24
570.78	2057.90
571.14	2042.97
571.49	2028.83
571.84	2015.17
572.20	2000.21
572.55	1985.62
572.90	1970.78
573.26	1955.89
573.61	1940.55
573.96	1925.64
574.31	1911.04
574.67	1896.33
575.02	1880.68
575.37	1865.08
575.72	1850.42
576.08	1835.94
576.43	1820.27
576.78	1805.08
577.13	1790.19
577.49	1775.65
577.84	1761.67
578.19	1746.79
578.54	1732.11
578.90	1716.91
579.25	1701.54
579.60	1687.88
579.95	1673.93
580.30	1659.95
580.66	1645.65
581.01	1631.26
581.36	1616.90
581.71	1603.55
582.06	1590.02
582.42	1576.78
582.77	1563.51
583.12	1550.13
583.47	1536.69
583.82	1523.35
584.17	1509.68
584.53	1495.63
584.88	1481.96
585.23	1467.79
585.58	1454.55
585.93	1441.55
586.28	1429.26
586.63	1417.02
586.98	1404.18
587.34	1391.42
587.69	1378.39
588.04	1365.75
588.39	1353.51
588.74	1341.32
589.09	1328.93
589.44	1316.17
589.79	1304.06
590.14	1292.07
590.49	1280.02
590.84	1268.04
591.19	1256.54
591.54	1244.78
591.89	1233.19
592.25	1221.74
592.60	1210.04
592.95	1198.67
593.30	1187.48
593.65	1175.99
594.00	1164.55
594.35	1153.78
594.70	1142.63
595.05	1132.36
595.40	1121.96
595.75	1111.37
596.10	1101.40
596.45	1091.03
596.80	1081.00
597.15	1070.76
597.50	1060.69
597.85	1050.98
598.19	1041.17
598.54	1031.42
598.89	1022.12
599.24	1013.12
599.59	1004.00
599.94	995.80
600.29	987.35
600.64	978.57
600.99	969.41
601.34	960.71
601.69	951.65
602.04	943.24
602.39	934.70
602.74	926.14
603.08	917.60
603.43	909.00
603.78	900.63
604.13	892.44
604.48	884.18
604.83	876.13
605.18	867.98
605.53	859.97
605.87	851.74
606.22	843.92
606.57	836.00
606.92	827.93
607.27	819.77
607.62	812.04
607.96	804.73
608.31	797.88
608.66	790.80
609.01	784.03
609.36	777.35
609.70	770.36
610.05	763.43
610.40	756.75
610.75	750.06
611.10	743.71
611.44	737.21
611.79	730.81
612.14	724.30
612.49	717.96
612.83	711.92
613.18	706.00
613.53	699.91
613.88	693.92
614.22	688.39
614.57	682.76
614.92	676.92
615.27	671.23
615.61	665.57
615.96	659.99
616.31	654.39
616.65	648.87
617.00	643.63
617.35	638.46
617.70	633.36
618.04	628.25
618.39	623.13
618.74	618.26
619.08	613.41
619.43	608.67
619.78	603.97
620.12	599.21
620.47	594.63
620.82	590.19
621.16	585.70
621.51	581.08
621.85	576.56
622.20	572.25
622.55	567.92
622.89	563.67
623.24	559.41
623.59	555.23
623.93	551.19
624.28	547.23
624.62	543.38
624.97	539.53
625.32	535.74
625.66	531.84
626.01	527.91
626.35	524.09
626.70	520.31
627.04	516.70
627.39	513.06
627.73	509.58
628.08	506.17
628.43	502.78
628.77	499.48
629.12	496.28
629.46	493.04
629.81	489.77
630.15	486.51
630.50	483.35
630.84	480.21
631.19	477.17
631.53	474.23
631.88	471.24
632.22	468.28
632.57	465.60
632.91	462.95
633.26	460.40
633.60	457.84
633.95	455.38
634.29	452.79
634.64	450.28
634.98	447.57
635.32	445.04
635.67	442.69
636.01	440.26
636.36	437.90
636.70	435.70
637.05	433.47
637.39	431.26
637.73	429.09
638.08	427.04
638.42	424.92
638.77	422.69
639.11	420.41
639.45	418.24
639.80	416.00
640.14	413.90
640.49	411.74
640.83	409.57
641.17	407.49
641.52	405.45
641.86	403.43
642.20	401.63
642.55	399.66
642.89	397.74
643.23	395.88
643.58	394.21
643.92	392.38
644.26	390.62
644.61	388.93
644.95	387.18
645.29	385.37
645.64	383.58
645.98	381.89
646.32	380.31
646.66	378.72
647.01	377.15
647.35	375.61
647.69	374.08
648.04	372.68
648.38	371.19
648.72	369.71
649.06	368.26
649.41	366.81
649.75	365.41
650.09	364.01
650.43	362.65
650.78	361.21
651.12	359.82
651.46	358.47
651.80	357.16
652.14	355.90
652.49	354.67
652.83	353.44
653.17	352.22
653.51	351.05
653.85	349.92
654.20	348.74
654.54	347.51
654.88	346.36
655.22	345.22
655.56	344.07
655.90	343.01
656.25	341.97
656.59	340.89
656.93	339.89
657.27	338.91
657.61	337.85
657.95	336.84
658.29	335.84
658.64	334.90
658.98	333.93
659.32	332.98
659.66	332.08
660.00	331.20
660.34	330.32
660.68	329.41
661.02	328.45
661.36	327.55
661.70	326.68
662.05	325.81
662.39	324.94
662.73	324.19
663.07	323.40
663.41	322.59
663.75	321.77
664.09	320.97
664.43	320.12
664.77	319.36
665.11	318.56
665.45	317.80
665.79	317.06
666.13	316.28
666.47	315.50
666.81	314.69
667.15	313.86
667.49	313.13
667.83	312.48
668.17	311.79
668.51	311.15
668.85	310.52
669.19	309.93
669.53	309.27
669.87	308.57
670.21	307.90
670.55	307.27
670.89	306.72
671.23	306.10
671.57	305.51
671.91	304.96
672.25	304.44
672.58	303.90
672.92	303.30
673.26	302.79
673.60	302.27
673.94	301.77
674.28	301.31
674.62	300.80
674.96	300.23
675.30	299.74
675.64	299.19
675.97	298.63
676.31	298.06
676.65	297.52
676.99	297.06
677.33	296.51
677.67	296.00
678.01	295.42
678.34	294.93
678.68	294.46
679.02	293.93
679.36	293.41
679.70	292.89
680.04	292.41
680.37	291.90
680.71	291.43
681.05	290.97
681.39	290.48
681.73	289.96
682.06	289.45
682.40	288.96
682.74	288.54
683.08	288.17
683.42	287.73
683.75	287.31
684.09	286.83
684.43	286.40
684.77	285.95
685.10	285.56
685.44	285.14
685.78	284.71
686.12	284.31
686.45	283.90
686.79	283.47
687.13	283.07
687.46	282.63
687.80	282.22
688.14	281.77
688.48	281.39
688.81	280.97
689.15	280.60
689.49	280.19
689.82	279.76
690.16	279.27
690.50	278.86
690.83	278.45
691.17	278.03
691.51	277.64
691.84	277.25
692.18	276.83
692.52	276.40
692.85	275.99
693.19	275.62
693.52	275.21
693.86	274.81
694.20	274.42
694.53	274.06
694.87	273.64
695.21	273.24
695.54	272.84
695.88	272.46
696.21	272.04
696.55	271.66
696.88	271.28
697.22	270.91
697.56	270.54
697.89	270.12
698.23	269.74
698.56	269.35
698.90	268.99
699.23	268.60
699.57	268.22
699.90	267.84
700.24	267.45
700.58	267.12
700.91	266.80
701.25	266.56
701.58	266.26
701.92	265.96
702.25	265.63
702.59	265.28
702.92	264.94
703.26	264.59
703.59	264.24
703.93	264.00
704.26	263.68
704.60	263.34
704.93	263.01
705.26	262.68
705.60	262.40
705.93	262.06
706.27	261.78
706.60	261.52
706.94	261.25
707.27	260.90
707.61	260.57
707.94	260.23
708.27	259.79
708.61	259.42
708.94	259.09
709.28	258.78
709.61	258.47
709.94	258.20
710.28	257.93
710.61	257.68
710.95	257.29
711.28	257.09
711.61	256.80
711.95	256.55
712.28	256.27
712.61	255.96
712.95	255.76
713.28	255.55
713.61	255.25
713.95	254.94
714.28	254.71
714.61	254.43
714.95	254.18
715.28	253.94
715.61	253.71
715.95	253.48
716.28	253.26
716.61	253.05
716.95	252.79
717.28	252.55
717.61	252.29
717.94	252.06
718.28	251.74
718.61	251.50
718.94	251.25
719.27	251.02
719.61	250.82
719.94	250.56
720.27	250.26
720.60	250.04
720.94	249.82
721.27	249.61
721.60	249.42
721.93	249.21
722.27	249.03
722.60	248.83
722.93	248.60
723.26	248.39
723.59	248.15
723.93	247.96
724.26	247.78
724.59	247.58
724.92	247.41
725.25	247.25
725.59	247.07
725.92	246.91
726.25	246.73
726.58	246.55
726.91	246.36
727.24	246.20
727.57	246.01
727.91	245.83
728.24	245.68
728.57	245.50
728.90	245.34
729.23	245.12
729.56	245.00
729.89	244.82
730.22	244.64
730.55	244.49
730.89	244.32
731.22	244.13
731.55	243.97
731.88	243.80
732.21	243.62
732.54	243.46
732.87	243.31
733.20	243.17
733.53	243.01
733.86	242.87
734.19	242.71
734.52	242.58
734.85	242.52
735.18	242.34
735.51	242.22
735.84	242.09
736.17	241.98
736.50	241.77
736.83	241.79
737.16	241.67
737.49	241.54
737.82	241.41
738.15	241.30
738.48	241.17
738.81	241.03
739.14	240.89
739.47	240.76
739.80	240.62
740.13	240.50
740.46	240.36
740.79	240.22
741.12	240.09
741.45	239.94
741.78	239.73
742.11	239.65
742.44	239.50
742.77	239.39
743.10	239.25
743.43	239.14
743.75	238.89
744.08	238.96
744.41	238.83
744.74	238.71
745.07	238.57
745.40	238.49
745.73	238.44
746.06	238.33
746.39	238.24
746.71	238.12
747.04	238.00
747.37	237.89
747.70	237.81
748.03	237.72
748.36	237.64
748.68	237.55
749.01	237.40
749.34	237.31
749.67	237.21
750.00	237.13
750.33	237.13
750.65	237.05
750.98	236.77
751.31	236.68
751.64	236.60
751.97	236.58
752.29	236.47
752.62	236.32
752.95	236.22
753.28	236.10
753.60	236.01
753.93	235.96
754.26	235.89
754.59	235.75
754.91	235.64
755.24	235.55
755.57	235.52
755.90	235.44
756.22	235.34
756.55	235.24
756.88	235.13
757.20	234.96
757.53	234.84
757.86	234.75
758.19	234.68
758.51	234.60
758.84	234.45
759.17	234.36
759.49	234.29
759.82	234.28
760.15	234.23
760.47	234.15
760.80	234.04
761.13	233.98
761.45	233.93
761.78	233.86
762.11	233.80
762.43	233.67
762.76	233.60
763.08	233.55
763.41	233.50
763.74	233.44
764.06	233.38
764.39	233.33
764.71	233.28
765.04	233.20
765.37	233.13
765.69	233.07
766.02	233.00
766.34	232.94
766.67	232.84
767.00	232.80
767.32	232.81
767.65	232.83
767.97	232.76
768.30	232.71
768.62	232.65
768.95	232.58
769.27	232.52
769.60	232.48
769.92	232.41
770.25	232.34
770.57	232.28
770.90	232.23
771.22	232.16
771.55	232.11
771.87	232.07
772.20	232.02
772.52	232.09
772.85	232.20
773.17	232.16
773.50	232.12
773.82	232.05
774.15	231.96
774.47	231.84
774.80	231.79
775.12	231.74
775.45	231.70
775.77	231.68
776.09	231.65
776.42	231.62
776.74	231.62
777.07	231.58
777.39	231.55
777.72	231.52
778.04	231.50
778.36	231.45
778.69	231.42
779.01	231.40
779.33	231.25
779.66	231.08
779.98	231.03
780.31	231.01
780.63	231.03
780.95	231.02
781.28	230.99
781.60	230.95
781.92	230.92
782.25	230.89
782.57	230.85
782.89	230.82
783.22	230.77
783.54	230.72
783.86	230.70
784.19	230.67
784.51	230.68
784.83	230.64
785.16	230.62
785.48	230.59
785.80	230.57
786.12	230.56
786.45	230.53
786.77	230.53
787.09	230.49
787.42	230.42
787.74	230.40
788.06	230.38
788.38	230.36
788.71	230.33
789.03	230.31
789.35	230.32
789.67	230.28
789.99	230.27
790.32	230.23
790.64	230.22
790.96	230.30
791.28	230.24
791.61	230.22
791.93	230.21
792.25	230.18
792.57	230.25
792.89	230.20
793.21	230.19
793.54	230.15
793.86	230.13
794.18	230.12
794.50	230.08
794.82	230.05
795.14	230.05
795.47	230.05
795.79	230.04
796.11	229.99
796.43	229.98
796.75	229.96
797.07	229.94
797.39	229.93
797.71	229.82
798.04	229.81
798.36	229.80
798.68	229.77
799.00	229.77
799.32	229.69
799.64	229.69
799.96	229.68
800.28	229.68
800.60	229.66
800.92	229.65
801.24	229.61
801.56	229.61
801.89	229.59
802.21	229.58
802.53	229.54
802.85	229.56
803.17	229.60
803.49	229.56
803.81	229.54
804.13	229.51
804.45	229.48
804.77	229.48
805.09	229.46
805.41	229.44
805.73	229.40
806.05	229.36
806.37	229.34
806.69	229.31
807.01	229.28
807.33	229.28
807.65	229.22
807.97	229.27
808.28	229.24
808.60	229.22
808.92	229.19
809.24	229.25
809.56	229.21
809.88	229.15
810.20	229.15
810.52	229.16
810.84	229.13
811.16	229.11
811.48	229.09
811.80	229.12
812.12	229.09
812.43	229.11
812.75	229.10
813.07	229.08
813.39	229.09
813.71	229.07
814.03	229.04
814.35	229.03
814.67	228.96
814.98	228.95
815.30	228.94
815.62	228.92
815.94	228.83
816.26	228.84
816.58	228.81
816.89	228.82
817.21	228.78
817.53	228.78
817.85	228.78
818.17	228.77
818.48	228.71
