SpectraSuite Data File
++++++++++++++++++++++++++++++++++++
Date: Fri Oct 02 20:26:07 EDT 2015
User: lab3
Dark Spectrum Present: No
Reference Spectrum Present: No
Number of Sampled Component Spectra: 1
Spectrometers: USB2E7196
Integration Time (usec): 46000 (USB2E7196)
Spectra Averaged: 4500 (USB2E7196)
Boxcar Smoothing: 10 (USB2E7196)
Correct for Electrical Dark: No (USB2E7196)
Strobe/Lamp Enabled: No (USB2E7196)
Correct for Detector Non-linearity: No (USB2E7196)
Correct for Stray Light: No (USB2E7196)
Number of Pixels in Processed Spectrum: 2048
>>>>>Begin Processed Spectral Data<<<<<
339.09	0.00
339.48	215.32
339.86	216.74
340.24	218.10
340.63	219.51
341.01	222.68
341.39	222.14
341.78	223.59
342.16	224.77
342.54	225.14
342.93	213.62
343.31	224.41
343.69	224.94
344.07	225.40
344.46	225.84
344.84	226.22
345.22	226.45
345.60	226.71
345.99	226.90
346.37	227.03
346.75	227.14
347.13	227.23
347.52	227.29
347.90	227.39
348.28	227.42
348.66	227.48
349.05	227.48
349.43	227.53
349.81	227.58
350.19	227.63
350.57	227.70
350.96	227.78
351.34	227.87
351.72	227.96
352.10	228.07
352.48	228.13
352.87	228.18
353.25	228.25
353.63	228.30
354.01	228.37
354.39	228.44
354.77	228.51
355.15	228.62
355.54	228.66
355.92	228.69
356.30	228.77
356.68	228.91
357.06	228.99
357.44	229.03
357.82	229.09
358.20	229.20
358.58	229.26
358.97	229.33
359.35	229.41
359.73	229.49
360.11	229.54
360.49	229.60
360.87	229.65
361.25	229.71
361.63	229.80
362.01	229.86
362.39	229.88
362.77	229.93
363.15	229.95
363.53	229.99
363.91	230.02
364.29	230.04
364.67	229.94
365.05	229.95
365.43	229.99
365.81	230.02
366.19	230.04
366.57	230.09
366.95	230.10
367.33	230.07
367.71	230.06
368.09	230.09
368.47	230.08
368.85	230.07
369.23	230.07
369.61	230.02
369.99	230.04
370.37	230.04
370.75	230.12
371.13	230.08
371.51	230.04
371.89	230.02
372.27	230.00
372.65	229.99
373.03	229.95
373.41	229.90
373.78	229.85
374.16	229.75
374.54	229.67
374.92	229.61
375.30	229.57
375.68	229.50
376.06	229.46
376.44	229.41
376.82	229.37
377.19	229.32
377.57	229.26
377.95	229.17
378.33	229.11
378.71	228.95
379.09	228.91
379.47	228.88
379.84	228.82
380.22	228.75
380.60	228.67
380.98	228.63
381.36	228.58
381.73	228.52
382.11	228.50
382.49	228.45
382.87	228.39
383.25	228.35
383.62	228.45
384.00	228.38
384.38	228.33
384.76	228.31
385.13	228.31
385.51	228.28
385.89	228.23
386.27	228.20
386.64	228.18
387.02	228.14
387.40	228.09
387.78	228.07
388.15	228.04
388.53	228.02
388.91	227.99
389.29	227.95
389.66	227.95
390.04	227.91
390.42	227.91
390.79	227.90
391.17	227.88
391.55	227.74
391.92	227.73
392.30	227.73
392.68	227.69
393.05	227.67
393.43	227.67
393.81	227.67
394.18	227.65
394.56	227.65
394.94	227.68
395.31	227.68
395.69	227.72
396.06	227.75
396.44	227.77
396.82	227.78
397.19	227.86
397.57	227.87
397.95	227.92
398.32	227.91
398.70	227.95
399.07	228.01
399.45	228.05
399.82	228.09
400.20	228.13
400.58	228.19
400.95	228.19
401.33	228.28
401.70	228.44
402.08	228.54
402.45	228.63
402.83	228.74
403.20	228.86
403.58	228.95
403.95	229.09
404.33	229.23
404.71	229.38
405.08	229.59
405.46	229.75
405.83	229.93
406.21	230.12
406.58	230.34
406.96	230.55
407.33	230.79
407.70	231.07
408.08	231.44
408.45	231.77
408.83	232.12
409.20	232.43
409.58	232.71
409.95	233.10
410.33	233.53
410.70	233.93
411.08	234.40
411.45	234.89
411.82	235.40
412.20	235.98
412.57	236.67
412.95	237.21
413.32	237.92
413.69	238.65
414.07	239.42
414.44	240.26
414.82	241.11
415.19	242.11
415.56	243.13
415.94	244.17
416.31	245.35
416.68	246.53
417.06	247.91
417.43	249.19
417.81	250.67
418.18	252.18
418.55	253.81
418.93	255.51
419.30	257.29
419.67	259.18
420.04	261.11
420.42	263.12
420.79	265.47
421.16	267.82
421.54	270.21
421.91	272.72
422.28	275.31
422.66	278.11
423.03	280.78
423.40	283.57
423.77	286.57
424.15	289.64
424.52	292.84
424.89	296.30
425.26	299.74
425.64	302.93
426.01	306.53
426.38	310.21
426.75	314.00
427.13	317.89
427.50	321.96
427.87	326.19
428.24	330.47
428.61	334.56
428.99	339.00
429.36	343.88
429.73	348.52
430.10	353.18
430.47	357.95
430.85	362.85
431.22	368.13
431.59	373.55
431.96	378.83
432.33	384.69
432.70	390.28
433.08	396.88
433.45	403.13
433.82	409.29
434.19	416.16
434.56	422.94
434.93	429.48
435.30	435.95
435.68	443.26
436.05	450.43
436.42	457.55
436.79	464.06
437.16	471.07
437.53	478.60
437.90	486.11
438.27	493.46
438.64	501.40
439.01	508.59
439.38	515.17
439.75	521.49
440.13	528.61
440.50	535.39
440.87	540.75
441.24	546.63
441.61	553.04
441.98	557.69
442.35	563.21
442.72	568.85
443.09	574.22
443.46	577.59
443.83	580.04
444.20	582.05
444.57	585.11
444.94	586.79
445.31	588.54
445.68	590.00
446.05	591.03
446.42	590.53
446.79	589.87
447.16	589.26
447.53	588.70
447.90	586.30
448.27	583.97
448.64	580.53
449.01	578.10
449.37	573.38
449.74	569.09
450.11	563.60
450.48	557.61
450.85	551.62
451.22	546.49
451.59	541.49
451.96	536.97
452.33	530.43
452.70	524.65
453.07	517.58
453.43	510.56
453.80	503.75
454.17	497.25
454.54	491.26
454.91	484.50
455.28	478.19
455.65	472.23
456.02	465.96
456.38	460.90
456.75	454.38
457.12	449.15
457.49	443.87
457.86	438.91
458.23	434.57
458.59	429.76
458.96	424.84
459.33	420.51
459.70	416.11
460.07	412.78
460.43	408.84
460.80	405.18
461.17	402.01
461.54	398.56
461.91	395.34
462.27	392.07
462.64	389.44
463.01	386.38
463.38	383.31
463.74	380.54
464.11	378.10
464.48	375.93
464.85	373.53
465.21	371.74
465.58	369.74
465.95	367.43
466.32	365.59
466.68	363.80
467.05	361.98
467.42	360.21
467.78	358.29
468.15	356.53
468.52	355.26
468.88	353.53
469.25	351.94
469.62	350.69
469.98	349.32
470.35	348.10
470.72	347.01
471.08	345.88
471.45	344.94
471.82	343.90
472.18	342.77
472.55	342.05
472.92	341.14
473.28	340.43
473.65	339.65
474.02	338.92
474.38	338.31
474.75	337.95
475.11	337.45
475.48	337.22
475.85	336.96
476.21	336.83
476.58	336.74
476.94	336.88
477.31	336.94
477.67	337.03
478.04	337.23
478.41	337.51
478.77	337.93
479.14	338.17
479.50	338.65
479.87	339.30
480.23	339.94
480.60	340.58
480.96	341.21
481.33	342.16
481.69	343.11
482.06	344.05
482.42	344.91
482.79	345.97
483.15	347.21
483.52	348.62
483.88	349.96
484.25	351.42
484.61	352.92
484.98	354.54
485.34	356.38
485.71	358.30
486.07	360.35
486.44	362.39
486.80	364.69
487.17	367.08
487.53	369.67
487.90	372.39
488.26	375.35
488.62	378.48
488.99	381.61
489.35	384.90
489.72	388.46
490.08	392.22
490.44	396.10
490.81	400.13
491.17	404.27
491.54	408.72
491.90	413.33
492.26	418.24
492.63	423.40
492.99	428.78
493.36	434.33
493.72	440.18
494.08	446.17
494.45	452.54
494.81	459.16
495.17	465.96
495.54	473.14
495.90	480.61
496.26	488.25
496.63	496.13
496.99	504.34
497.35	512.93
497.72	521.79
498.08	530.87
498.44	540.26
498.80	550.20
499.17	560.39
499.53	570.87
499.89	581.75
500.26	592.83
500.62	604.22
500.98	616.21
501.34	628.39
501.71	641.08
502.07	653.96
502.43	667.38
502.79	681.01
503.16	695.07
503.52	709.36
503.88	724.07
504.24	739.21
504.60	754.56
504.97	770.40
505.33	786.66
505.69	803.79
506.05	821.23
506.41	838.62
506.78	856.23
507.14	874.35
507.50	892.91
507.86	911.83
508.22	930.95
508.59	949.94
508.95	969.74
509.31	990.29
509.67	1011.47
510.03	1032.65
510.39	1053.94
510.75	1075.44
511.12	1097.20
511.48	1119.11
511.84	1141.12
512.20	1163.57
512.56	1186.81
512.92	1210.07
513.28	1233.01
513.64	1256.26
514.00	1279.92
514.37	1303.83
514.73	1327.82
515.09	1351.71
515.45	1375.96
515.81	1400.33
516.17	1424.89
516.53	1448.94
516.89	1472.88
517.25	1497.04
517.61	1521.15
517.97	1545.70
518.33	1569.75
518.69	1593.74
519.05	1618.27
519.41	1643.10
519.77	1668.04
520.13	1692.34
520.49	1716.57
520.85	1741.17
521.21	1765.23
521.57	1789.80
521.93	1813.89
522.29	1838.43
522.65	1862.50
523.01	1886.51
523.37	1910.19
523.73	1934.55
524.09	1958.70
524.45	1982.66
524.81	2006.23
525.17	2029.67
525.53	2052.53
525.89	2075.86
526.25	2099.21
526.61	2121.56
526.97	2144.05
527.33	2166.53
527.68	2188.68
528.04	2210.09
528.40	2230.54
528.76	2251.47
529.12	2271.78
529.48	2291.70
529.84	2309.95
530.20	2328.84
530.56	2347.13
530.91	2365.61
531.27	2383.71
531.63	2400.98
531.99	2417.84
532.35	2434.08
532.71	2450.34
533.07	2467.28
533.42	2482.47
533.78	2498.67
534.14	2515.03
534.50	2530.34
534.86	2545.50
535.21	2558.80
535.57	2572.61
535.93	2586.20
536.29	2598.54
536.65	2610.88
537.00	2622.60
537.36	2635.17
537.72	2646.20
538.08	2656.84
538.44	2666.83
538.79	2676.42
539.15	2685.17
539.51	2693.52
539.87	2701.19
540.22	2707.04
540.58	2712.97
540.94	2720.14
541.29	2725.56
541.65	2729.27
542.01	2732.36
542.37	2734.80
542.72	2738.56
543.08	2740.63
543.44	2743.25
543.79	2744.84
544.15	2745.53
544.51	2746.68
544.87	2746.67
545.22	2745.96
545.58	2744.58
545.94	2743.22
546.29	2740.51
546.65	2737.84
547.01	2735.18
547.36	2733.22
547.72	2731.17
548.07	2727.45
548.43	2722.21
548.79	2716.19
549.14	2711.44
549.50	2706.89
549.86	2701.37
550.21	2694.72
550.57	2689.00
550.92	2681.05
551.28	2673.72
551.64	2666.63
551.99	2658.99
552.35	2650.74
552.70	2642.82
553.06	2635.14
553.41	2626.79
553.77	2618.25
554.13	2609.64
554.48	2600.07
554.84	2589.38
555.19	2579.33
555.55	2569.23
555.90	2559.11
556.26	2549.49
556.61	2538.81
556.97	2526.48
557.32	2514.74
557.68	2502.84
558.03	2490.82
558.39	2479.89
558.74	2469.23
559.10	2456.86
559.45	2444.80
559.81	2433.36
560.16	2421.21
560.52	2409.27
560.87	2397.65
561.23	2385.21
561.58	2372.95
561.94	2360.32
562.29	2347.09
562.64	2334.56
563.00	2321.68
563.35	2309.36
563.71	2296.79
564.06	2284.01
564.42	2272.00
564.77	2259.32
565.12	2246.60
565.48	2233.79
565.83	2221.00
566.19	2208.25
566.54	2195.49
566.89	2181.54
567.25	2167.80
567.60	2155.35
567.96	2142.05
568.31	2127.43
568.66	2113.59
569.02	2100.78
569.37	2087.92
569.72	2075.61
570.08	2061.99
570.43	2048.09
570.78	2033.89
571.14	2019.03
571.49	2004.91
571.84	1991.33
572.20	1976.46
572.55	1961.93
572.90	1947.17
573.26	1932.42
573.61	1917.20
573.96	1902.41
574.31	1887.88
574.67	1873.32
575.02	1857.80
575.37	1842.34
575.72	1827.76
576.08	1813.43
576.43	1797.95
576.78	1782.93
577.13	1768.18
577.49	1753.76
577.84	1739.93
578.19	1725.16
578.54	1710.60
578.90	1695.56
579.25	1680.38
579.60	1666.83
579.95	1653.05
580.30	1639.17
580.66	1625.05
581.01	1610.80
581.36	1596.58
581.71	1583.39
582.06	1570.04
582.42	1556.91
582.77	1543.81
583.12	1530.63
583.47	1517.37
583.82	1504.23
584.17	1490.75
584.53	1476.88
584.88	1463.40
585.23	1449.45
585.58	1436.41
585.93	1423.57
586.28	1411.46
586.63	1399.37
586.98	1386.74
587.34	1374.18
587.69	1361.35
588.04	1348.86
588.39	1336.77
588.74	1324.76
589.09	1312.54
589.44	1299.92
589.79	1287.97
590.14	1276.11
590.49	1264.21
590.84	1252.41
591.19	1241.04
591.54	1229.45
591.89	1218.05
592.25	1206.80
592.60	1195.23
592.95	1184.03
593.30	1173.03
593.65	1161.69
594.00	1150.43
594.35	1139.83
594.70	1128.83
595.05	1118.73
595.40	1108.49
595.75	1098.08
596.10	1088.24
596.45	1078.05
596.80	1068.21
597.15	1058.14
597.50	1048.23
597.85	1038.69
598.19	1029.02
598.54	1019.41
598.89	1010.25
599.24	1001.38
599.59	992.37
599.94	984.29
600.29	975.95
600.64	967.30
600.99	958.30
601.34	949.72
601.69	940.78
602.04	932.49
602.39	924.05
602.74	915.62
603.08	907.19
603.43	898.71
603.78	890.43
604.13	882.34
604.48	874.21
604.83	866.25
605.18	858.21
605.53	850.32
605.87	842.21
606.22	834.47
606.57	826.64
606.92	818.71
607.27	810.68
607.62	803.05
607.96	795.83
608.31	789.06
608.66	782.06
609.01	775.35
609.36	768.75
609.70	761.87
610.05	755.03
610.40	748.44
610.75	741.84
611.10	735.59
611.44	729.17
611.79	722.85
612.14	716.47
612.49	710.20
612.83	704.21
613.18	698.37
613.53	692.37
613.88	686.48
614.22	681.01
614.57	675.43
614.92	669.66
615.27	664.04
615.61	658.47
615.96	652.96
616.31	647.46
616.65	642.01
617.00	636.83
617.35	631.72
617.70	626.67
618.04	621.63
618.39	616.53
618.74	611.72
619.08	606.92
619.43	602.25
619.78	597.60
620.12	592.89
620.47	588.37
620.82	583.97
621.16	579.52
621.51	574.96
621.85	570.49
622.20	566.22
622.55	561.94
622.89	557.74
623.24	553.53
623.59	549.38
623.93	545.40
624.28	541.49
624.62	537.68
624.97	533.90
625.32	530.12
625.66	526.27
626.01	522.37
626.35	518.57
626.70	514.82
627.04	511.22
627.39	507.61
627.73	504.14
628.08	500.76
628.43	497.39
628.77	494.10
629.12	490.93
629.46	487.74
629.81	484.48
630.15	481.24
630.50	478.10
630.84	475.01
631.19	471.98
631.53	469.06
631.88	466.10
632.22	463.16
632.57	460.50
632.91	457.89
633.26	455.37
633.60	452.85
633.95	450.40
634.29	447.87
634.64	445.39
634.98	442.71
635.32	440.21
635.67	437.89
636.01	435.50
636.36	433.15
636.70	430.98
637.05	428.78
637.39	426.60
637.73	424.47
638.08	422.43
638.42	420.34
638.77	418.14
639.11	415.88
639.45	413.73
639.80	411.51
640.14	409.40
640.49	407.28
640.83	405.13
641.17	403.07
641.52	401.04
641.86	399.05
642.20	397.27
642.55	395.33
642.89	393.42
643.23	391.58
643.58	389.92
643.92	388.11
644.26	386.37
644.61	384.69
644.95	382.97
645.29	381.18
645.64	379.42
645.98	377.74
646.32	376.20
646.66	374.62
647.01	373.07
647.35	371.56
647.69	370.04
648.04	368.67
648.38	367.19
648.72	365.76
649.06	364.31
649.41	362.89
649.75	361.52
650.09	360.16
650.43	358.80
650.78	357.40
651.12	356.03
651.46	354.71
651.80	353.42
652.14	352.16
652.49	350.93
652.83	349.70
653.17	348.52
653.51	347.35
653.85	346.25
654.20	345.09
654.54	343.86
654.88	342.72
655.22	341.60
655.56	340.48
655.90	339.41
656.25	338.38
656.59	337.33
656.93	336.34
657.27	335.37
657.61	334.33
657.95	333.33
658.29	332.33
658.64	331.39
658.98	330.44
659.32	329.52
659.66	328.64
660.00	327.78
660.34	326.91
660.68	326.01
661.02	325.07
661.36	324.18
661.70	323.32
662.05	322.48
662.39	321.64
662.73	320.90
663.07	320.14
663.41	319.35
663.75	318.54
664.09	317.75
664.43	316.91
664.77	316.17
665.11	315.38
665.45	314.66
665.79	313.94
666.13	313.18
666.47	312.41
666.81	311.63
667.15	310.82
667.49	310.12
667.83	309.47
668.17	308.81
668.51	308.19
668.85	307.59
669.19	307.01
669.53	306.35
669.87	305.66
670.21	305.00
670.55	304.39
670.89	303.85
671.23	303.26
671.57	302.69
671.91	302.16
672.25	301.66
672.58	301.13
672.92	300.54
673.26	300.04
673.60	299.54
673.94	299.05
674.28	298.60
674.62	298.10
674.96	297.56
675.30	297.06
675.64	296.53
675.97	295.99
676.31	295.43
676.65	294.92
676.99	294.48
677.33	293.96
677.67	293.47
678.01	292.92
678.34	292.44
678.68	291.98
679.02	291.46
679.36	290.96
679.70	290.47
680.04	290.01
680.37	289.53
680.71	289.08
681.05	288.64
681.39	288.15
681.73	287.65
682.06	287.16
682.40	286.70
682.74	286.30
683.08	285.94
683.42	285.51
683.75	285.13
684.09	284.65
684.43	284.24
684.77	283.82
685.10	283.45
685.44	283.05
685.78	282.65
686.12	282.26
686.45	281.86
686.79	281.44
687.13	281.06
687.46	280.63
687.80	280.24
688.14	279.80
688.48	279.43
688.81	279.04
689.15	278.69
689.49	278.29
689.82	277.88
690.16	277.41
690.50	277.01
690.83	276.61
691.17	276.21
691.51	275.82
691.84	275.45
692.18	275.04
692.52	274.62
692.85	274.22
693.19	273.88
693.52	273.50
693.86	273.12
694.20	272.74
694.53	272.38
694.87	271.98
695.21	271.60
695.54	271.21
695.88	270.84
696.21	270.44
696.55	270.07
696.88	269.72
697.22	269.35
697.56	268.99
697.89	268.59
698.23	268.24
698.56	267.85
698.90	267.50
699.23	267.12
699.57	266.75
699.90	266.39
700.24	266.00
700.58	265.67
700.91	265.36
701.25	265.13
701.58	264.85
701.92	264.56
702.25	264.25
702.59	263.91
702.92	263.59
703.26	263.25
703.59	262.91
703.93	262.68
704.26	262.37
704.60	262.05
704.93	261.72
705.26	261.39
705.60	261.12
705.93	260.77
706.27	260.50
706.60	260.25
706.94	259.99
707.27	259.66
707.61	259.34
707.94	259.00
708.27	258.58
708.61	258.23
708.94	257.90
709.28	257.60
709.61	257.30
709.94	257.03
710.28	256.77
710.61	256.53
710.95	256.15
711.28	255.95
711.61	255.69
711.95	255.45
712.28	255.18
712.61	254.89
712.95	254.71
713.28	254.52
713.61	254.22
713.95	253.92
714.28	253.68
714.61	253.41
714.95	253.16
715.28	252.92
715.61	252.68
715.95	252.46
716.28	252.24
716.61	252.04
716.95	251.79
717.28	251.55
717.61	251.30
717.94	251.07
718.28	250.75
718.61	250.52
718.94	250.27
719.27	250.06
719.61	249.86
719.94	249.60
720.27	249.30
720.60	249.09
720.94	248.89
721.27	248.68
721.60	248.50
721.93	248.29
722.27	248.12
722.60	247.93
722.93	247.71
723.26	247.51
723.59	247.27
723.93	247.09
724.26	246.91
724.59	246.71
724.92	246.53
725.25	246.40
725.59	246.22
725.92	246.06
726.25	245.89
726.58	245.71
726.91	245.53
727.24	245.38
727.57	245.21
727.91	245.02
728.24	244.88
728.57	244.69
728.90	244.55
729.23	244.33
729.56	244.22
729.89	244.05
730.22	243.88
730.55	243.72
730.89	243.56
731.22	243.39
731.55	243.23
731.88	243.07
732.21	242.90
732.54	242.74
732.87	242.58
733.20	242.44
733.53	242.29
733.86	242.14
734.19	241.98
734.52	241.85
734.85	241.79
735.18	241.61
735.51	241.50
735.84	241.36
736.17	241.27
736.50	241.07
736.83	241.08
737.16	240.96
737.49	240.83
737.82	240.70
738.15	240.59
738.48	240.47
738.81	240.34
739.14	240.19
739.47	240.05
739.80	239.92
740.13	239.79
740.46	239.65
740.79	239.51
741.12	239.38
741.45	239.24
741.78	239.04
742.11	238.95
742.44	238.80
742.77	238.70
743.10	238.56
743.43	238.43
743.75	238.19
744.08	238.26
744.41	238.14
744.74	238.02
745.07	237.88
745.40	237.79
745.73	237.73
746.06	237.64
746.39	237.55
746.71	237.44
747.04	237.33
747.37	237.23
747.70	237.16
748.03	237.07
748.36	237.00
748.68	236.90
749.01	236.77
749.34	236.68
749.67	236.58
750.00	236.50
750.33	236.51
750.65	236.42
750.98	236.14
751.31	236.05
751.64	235.97
751.97	235.94
752.29	235.84
752.62	235.69
752.95	235.60
753.28	235.49
753.60	235.40
753.93	235.34
754.26	235.27
754.59	235.13
754.91	235.03
755.24	234.93
755.57	234.90
755.90	234.82
756.22	234.72
756.55	234.62
756.88	234.51
757.20	234.34
757.53	234.23
757.86	234.15
758.19	234.08
758.51	234.00
758.84	233.86
759.17	233.77
759.49	233.70
759.82	233.69
760.15	233.63
760.47	233.55
760.80	233.45
761.13	233.39
761.45	233.34
761.78	233.28
762.11	233.21
762.43	233.08
762.76	233.02
763.08	232.97
763.41	232.92
763.74	232.86
764.06	232.80
764.39	232.75
764.71	232.69
765.04	232.62
765.37	232.55
765.69	232.49
766.02	232.44
766.34	232.37
766.67	232.27
767.00	232.23
767.32	232.25
767.65	232.27
767.97	232.20
768.30	232.16
768.62	232.10
768.95	232.03
769.27	231.98
769.60	231.95
769.92	231.88
770.25	231.81
770.57	231.74
770.90	231.69
771.22	231.63
771.55	231.58
771.87	231.55
772.20	231.50
772.52	231.56
772.85	231.67
773.17	231.62
773.50	231.58
773.82	231.52
774.15	231.41
774.47	231.29
774.80	231.24
775.12	231.19
775.45	231.15
775.77	231.12
776.09	231.09
776.42	231.06
776.74	231.07
777.07	231.03
777.39	231.01
777.72	230.96
778.04	230.95
778.36	230.90
778.69	230.87
779.01	230.85
779.33	230.71
779.66	230.54
779.98	230.50
780.31	230.48
780.63	230.49
780.95	230.49
781.28	230.46
781.60	230.42
781.92	230.39
782.25	230.37
782.57	230.34
782.89	230.30
783.22	230.26
783.54	230.20
783.86	230.19
784.19	230.16
784.51	230.17
784.83	230.12
785.16	230.10
785.48	230.07
785.80	230.05
786.12	230.03
786.45	230.01
786.77	230.00
787.09	229.97
787.42	229.90
787.74	229.88
788.06	229.87
788.38	229.84
788.71	229.81
789.03	229.79
789.35	229.79
789.67	229.75
789.99	229.75
790.32	229.71
790.64	229.70
790.96	229.80
791.28	229.74
791.61	229.71
791.93	229.69
792.25	229.66
792.57	229.73
792.89	229.69
793.21	229.68
793.54	229.65
793.86	229.61
794.18	229.60
794.50	229.56
794.82	229.54
795.14	229.53
795.47	229.53
795.79	229.52
796.11	229.47
796.43	229.44
796.75	229.42
797.07	229.41
797.39	229.39
797.71	229.26
798.04	229.25
798.36	229.25
798.68	229.24
799.00	229.23
799.32	229.15
799.64	229.15
799.96	229.13
800.28	229.14
800.60	229.12
800.92	229.11
801.24	229.09
801.56	229.09
801.89	229.06
802.21	229.05
802.53	229.02
802.85	229.03
803.17	229.08
803.49	229.04
803.81	229.01
804.13	228.99
804.45	228.96
804.77	228.96
805.09	228.95
805.41	228.92
805.73	228.89
806.05	228.84
806.37	228.81
806.69	228.79
807.01	228.76
807.33	228.76
807.65	228.70
807.97	228.75
808.28	228.72
808.60	228.70
808.92	228.67
809.24	228.74
809.56	228.70
809.88	228.64
810.20	228.64
810.52	228.66
810.84	228.63
811.16	228.61
811.48	228.58
811.80	228.61
812.12	228.60
812.43	228.61
812.75	228.61
813.07	228.59
813.39	228.59
813.71	228.57
814.03	228.55
814.35	228.55
814.67	228.48
814.98	228.47
815.30	228.46
815.62	228.43
815.94	228.34
816.26	228.34
816.58	228.31
816.89	228.32
817.21	228.29
817.53	228.29
817.85	228.29
818.17	228.28
818.48	228.23
