SpectraSuite Data File
++++++++++++++++++++++++++++++++++++
Date: Fri Oct 02 17:43:33 EDT 2015
User: lab3
Dark Spectrum Present: No
Reference Spectrum Present: No
Number of Sampled Component Spectra: 1
Spectrometers: USB2E7196
Integration Time (usec): 46000 (USB2E7196)
Spectra Averaged: 1500 (USB2E7196)
Boxcar Smoothing: 10 (USB2E7196)
Correct for Electrical Dark: No (USB2E7196)
Strobe/Lamp Enabled: No (USB2E7196)
Correct for Detector Non-linearity: No (USB2E7196)
Correct for Stray Light: No (USB2E7196)
Number of Pixels in Processed Spectrum: 2048
>>>>>Begin Processed Spectral Data<<<<<
339.09	0.00
339.48	215.29
339.86	216.92
340.24	218.20
340.63	219.47
341.01	223.00
341.39	222.33
341.78	223.74
342.16	224.96
342.54	225.28
342.93	213.73
343.31	224.53
343.69	225.07
344.07	225.52
344.46	225.95
344.84	226.35
345.22	226.56
345.60	226.82
345.99	227.02
346.37	227.15
346.75	227.26
347.13	227.34
347.52	227.40
347.90	227.50
348.28	227.54
348.66	227.59
349.05	227.59
349.43	227.64
349.81	227.70
350.19	227.76
350.57	227.82
350.96	227.89
351.34	227.98
351.72	228.07
352.10	228.17
352.48	228.24
352.87	228.28
353.25	228.35
353.63	228.40
354.01	228.45
354.39	228.54
354.77	228.61
355.15	228.72
355.54	228.77
355.92	228.79
356.30	228.87
356.68	229.02
357.06	229.09
357.44	229.15
357.82	229.21
358.20	229.32
358.58	229.38
358.97	229.45
359.35	229.53
359.73	229.62
360.11	229.69
360.49	229.76
360.87	229.81
361.25	229.88
361.63	229.97
362.01	230.03
362.39	230.05
362.77	230.10
363.15	230.12
363.53	230.15
363.91	230.20
364.29	230.22
364.67	230.13
365.05	230.16
365.43	230.18
365.81	230.21
366.19	230.24
366.57	230.30
366.95	230.29
367.33	230.27
367.71	230.25
368.09	230.27
368.47	230.26
368.85	230.24
369.23	230.25
369.61	230.20
369.99	230.22
370.37	230.22
370.75	230.29
371.13	230.27
371.51	230.22
371.89	230.20
372.27	230.17
372.65	230.15
373.03	230.10
373.41	230.07
373.78	230.02
374.16	229.91
374.54	229.82
374.92	229.78
375.30	229.73
375.68	229.67
376.06	229.63
376.44	229.57
376.82	229.54
377.19	229.49
377.57	229.43
377.95	229.35
378.33	229.29
378.71	229.13
379.09	229.07
379.47	229.04
379.84	228.98
380.22	228.92
380.60	228.85
380.98	228.80
381.36	228.75
381.73	228.68
382.11	228.66
382.49	228.62
382.87	228.56
383.25	228.52
383.62	228.62
384.00	228.55
384.38	228.52
384.76	228.50
385.13	228.51
385.51	228.46
385.89	228.41
386.27	228.38
386.64	228.37
387.02	228.33
387.40	228.29
387.78	228.27
388.15	228.23
388.53	228.20
388.91	228.18
389.29	228.14
389.66	228.13
390.04	228.10
390.42	228.10
390.79	228.09
391.17	228.06
391.55	227.90
391.92	227.89
392.30	227.89
392.68	227.85
393.05	227.82
393.43	227.83
393.81	227.83
394.18	227.80
394.56	227.80
394.94	227.82
395.31	227.83
395.69	227.87
396.06	227.90
396.44	227.93
396.82	227.94
397.19	228.03
397.57	228.04
397.95	228.08
398.32	228.08
398.70	228.12
399.07	228.19
399.45	228.23
399.82	228.27
400.20	228.30
400.58	228.36
400.95	228.37
401.33	228.45
401.70	228.60
402.08	228.70
402.45	228.78
402.83	228.90
403.20	228.99
403.58	229.08
403.95	229.22
404.33	229.37
404.71	229.51
405.08	229.70
405.46	229.87
405.83	230.05
406.21	230.24
406.58	230.45
406.96	230.65
407.33	230.90
407.70	231.17
408.08	231.54
408.45	231.86
408.83	232.21
409.20	232.53
409.58	232.81
409.95	233.20
410.33	233.62
410.70	234.00
411.08	234.48
411.45	234.98
411.82	235.48
412.20	236.05
412.57	236.74
412.95	237.28
413.32	238.00
413.69	238.71
414.07	239.48
414.44	240.32
414.82	241.16
415.19	242.16
415.56	243.16
415.94	244.21
416.31	245.37
416.68	246.55
417.06	247.92
417.43	249.21
417.81	250.69
418.18	252.20
418.55	253.85
418.93	255.55
419.30	257.33
419.67	259.23
420.04	261.16
420.42	263.18
420.79	265.52
421.16	267.87
421.54	270.27
421.91	272.78
422.28	275.38
422.66	278.18
423.03	280.88
423.40	283.69
423.77	286.69
424.15	289.79
424.52	292.99
424.89	296.47
425.26	299.93
425.64	303.13
426.01	306.75
426.38	310.45
426.75	314.26
427.13	318.17
427.50	322.26
427.87	326.52
428.24	330.82
428.61	334.98
428.99	339.45
429.36	344.36
429.73	349.08
430.10	353.80
430.47	358.61
430.85	363.56
431.22	368.89
431.59	374.37
431.96	379.71
432.33	385.66
432.70	391.34
433.08	398.03
433.45	404.36
433.82	410.58
434.19	417.56
434.56	424.44
434.93	431.07
435.30	437.65
435.68	445.10
436.05	452.37
436.42	459.59
436.79	466.22
437.16	473.35
437.53	480.96
437.90	488.60
438.27	496.09
438.64	504.13
439.01	511.42
439.38	518.09
439.75	524.51
440.13	531.75
440.50	538.59
440.87	544.00
441.24	549.95
441.61	556.43
441.98	561.11
442.35	566.66
442.72	572.32
443.09	577.68
443.46	581.02
443.83	583.43
444.20	585.39
444.57	588.39
444.94	590.00
445.31	591.67
445.68	593.00
446.05	593.90
446.42	593.29
446.79	592.49
447.16	591.76
447.53	591.06
447.90	588.47
448.27	585.97
448.64	582.37
449.01	579.76
449.37	574.85
449.74	570.39
450.11	564.73
450.48	558.57
450.85	552.42
451.22	547.12
451.59	541.96
451.96	537.30
452.33	530.63
452.70	524.70
453.07	517.52
453.43	510.39
453.80	503.48
454.17	496.87
454.54	490.77
454.91	483.94
455.28	477.53
455.65	471.50
456.02	465.18
456.38	460.07
456.75	453.53
457.12	448.26
457.49	442.97
457.86	437.99
458.23	433.64
458.59	428.82
458.96	423.89
459.33	419.57
459.70	415.16
460.07	411.83
460.43	407.90
460.80	404.25
461.17	401.07
461.54	397.62
461.91	394.42
462.27	391.17
462.64	388.54
463.01	385.51
463.38	382.45
463.74	379.66
464.11	377.23
464.48	375.06
464.85	372.68
465.21	370.89
465.58	368.89
465.95	366.57
466.32	364.74
466.68	362.94
467.05	361.13
467.42	359.36
467.78	357.44
468.15	355.68
468.52	354.40
468.88	352.68
469.25	351.11
469.62	349.86
469.98	348.49
470.35	347.29
470.72	346.19
471.08	345.07
471.45	344.15
471.82	343.10
472.18	341.99
472.55	341.28
472.92	340.38
473.28	339.66
473.65	338.90
474.02	338.18
474.38	337.58
474.75	337.23
475.11	336.74
475.48	336.52
475.85	336.29
476.21	336.17
476.58	336.10
476.94	336.25
477.31	336.33
477.67	336.43
478.04	336.63
478.41	336.92
478.77	337.36
479.14	337.63
479.50	338.13
479.87	338.77
480.23	339.43
480.60	340.07
480.96	340.72
481.33	341.69
481.69	342.63
482.06	343.59
482.42	344.46
482.79	345.55
483.15	346.81
483.52	348.22
483.88	349.58
484.25	351.05
484.61	352.57
484.98	354.22
485.34	356.07
485.71	358.01
486.07	360.08
486.44	362.13
486.80	364.44
487.17	366.84
487.53	369.46
487.90	372.20
488.26	375.19
488.62	378.35
488.99	381.50
489.35	384.83
489.72	388.45
490.08	392.24
490.44	396.16
490.81	400.23
491.17	404.40
491.54	408.89
491.90	413.52
492.26	418.47
492.63	423.65
492.99	429.07
493.36	434.68
493.72	440.58
494.08	446.62
494.45	453.04
494.81	459.71
495.17	466.58
495.54	473.79
495.90	481.32
496.26	489.01
496.63	496.97
496.99	505.23
497.35	513.86
497.72	522.77
498.08	531.90
498.44	541.34
498.80	551.35
499.17	561.62
499.53	572.18
499.89	583.11
500.26	594.28
500.62	605.74
500.98	617.80
501.34	630.05
501.71	642.82
502.07	655.77
502.43	669.24
502.79	682.91
503.16	697.05
503.52	711.38
503.88	726.15
504.24	741.35
504.60	756.78
504.97	772.70
505.33	789.03
505.69	806.23
506.05	823.75
506.41	841.19
506.78	858.82
507.14	876.99
507.50	895.63
507.86	914.59
508.22	933.76
508.59	952.77
508.95	972.65
509.31	993.23
509.67	1014.46
510.03	1035.69
510.39	1057.04
510.75	1078.61
511.12	1100.44
511.48	1122.37
511.84	1144.39
512.20	1166.84
512.56	1190.12
512.92	1213.42
513.28	1236.36
513.64	1259.61
514.00	1283.28
514.37	1307.19
514.73	1331.17
515.09	1355.03
515.45	1379.27
515.81	1403.60
516.17	1428.14
516.53	1452.09
516.89	1475.99
517.25	1500.10
517.61	1524.18
517.97	1548.67
518.33	1572.61
518.69	1596.56
519.05	1621.09
519.41	1645.89
519.77	1670.69
520.13	1694.88
520.49	1719.01
520.85	1743.58
521.21	1767.52
521.57	1791.99
521.93	1815.99
522.29	1840.37
522.65	1864.34
523.01	1888.31
523.37	1911.87
523.73	1936.13
524.09	1960.17
524.45	1983.97
524.81	2007.40
525.17	2030.67
525.53	2053.31
525.89	2076.41
526.25	2099.50
526.61	2121.63
526.97	2143.89
527.33	2166.26
527.68	2188.21
528.04	2209.36
528.40	2229.51
528.76	2250.16
529.12	2270.20
529.48	2289.82
529.84	2307.86
530.20	2326.49
530.56	2344.48
530.91	2362.69
531.27	2380.50
531.63	2397.53
531.99	2414.22
532.35	2430.18
532.71	2446.13
533.07	2462.78
533.42	2477.76
533.78	2493.66
534.14	2509.71
534.50	2524.65
534.86	2539.51
535.21	2552.49
535.57	2566.00
535.93	2579.28
536.29	2591.38
536.65	2603.41
537.00	2614.88
537.36	2627.14
537.72	2637.81
538.08	2648.15
538.44	2657.80
538.79	2667.08
539.15	2675.48
539.51	2683.42
539.87	2690.71
540.22	2696.32
540.58	2702.06
540.94	2708.89
541.29	2714.04
541.65	2717.40
542.01	2720.36
542.37	2722.45
542.72	2725.94
543.08	2727.75
543.44	2730.10
543.79	2731.36
544.15	2731.77
544.51	2732.60
544.87	2732.31
545.22	2731.34
545.58	2729.64
545.94	2728.06
546.29	2725.13
546.65	2722.26
547.01	2719.35
547.36	2717.15
547.72	2714.80
548.07	2710.80
548.43	2705.24
548.79	2698.99
549.14	2694.03
549.50	2689.09
549.86	2683.38
550.21	2676.51
550.57	2670.57
550.92	2662.43
551.28	2654.93
551.64	2647.61
551.99	2639.77
552.35	2631.38
552.70	2623.29
553.06	2615.47
553.41	2606.99
553.77	2598.28
554.13	2589.39
554.48	2579.70
554.84	2568.90
555.19	2558.71
555.55	2548.48
555.90	2538.36
556.26	2528.64
556.61	2517.82
556.97	2505.44
557.32	2493.58
557.68	2481.58
558.03	2469.44
558.39	2458.37
558.74	2447.53
559.10	2435.11
559.45	2423.01
559.81	2411.52
560.16	2399.23
560.52	2387.15
560.87	2375.37
561.23	2362.79
561.58	2350.57
561.94	2337.82
562.29	2324.52
562.64	2311.93
563.00	2299.00
563.35	2286.64
563.71	2273.96
564.06	2261.16
564.42	2249.06
564.77	2236.28
565.12	2223.54
565.48	2210.67
565.83	2197.92
566.19	2185.19
566.54	2172.38
566.89	2158.38
567.25	2144.60
567.60	2132.08
567.96	2118.79
568.31	2104.19
568.66	2090.42
569.02	2077.53
569.37	2064.71
569.72	2052.38
570.08	2038.73
570.43	2024.82
570.78	2010.54
571.14	1995.75
571.49	1981.67
571.84	1968.13
572.20	1953.32
572.55	1938.80
572.90	1924.08
573.26	1909.31
573.61	1894.10
573.96	1879.33
574.31	1864.89
574.67	1850.31
575.02	1834.94
575.37	1819.50
575.72	1805.02
576.08	1790.73
576.43	1775.35
576.78	1760.38
577.13	1745.79
577.49	1731.50
577.84	1717.72
578.19	1703.01
578.54	1688.53
578.90	1673.53
579.25	1658.45
579.60	1644.97
579.95	1631.26
580.30	1617.47
580.66	1603.42
581.01	1589.27
581.36	1575.16
581.71	1562.07
582.06	1548.77
582.42	1535.73
582.77	1522.74
583.12	1509.56
583.47	1496.34
583.82	1483.25
584.17	1469.84
584.53	1456.01
584.88	1442.56
585.23	1428.70
585.58	1415.80
585.93	1403.08
586.28	1391.09
586.63	1379.12
586.98	1366.51
587.34	1354.02
587.69	1341.30
588.04	1328.94
588.39	1316.97
588.74	1305.07
589.09	1292.94
589.44	1280.49
589.79	1268.67
590.14	1256.92
590.49	1245.21
590.84	1233.58
591.19	1222.39
591.54	1210.97
591.89	1199.71
592.25	1188.61
592.60	1177.23
592.95	1166.13
593.30	1155.19
593.65	1143.97
594.00	1132.84
594.35	1122.44
594.70	1111.61
595.05	1101.67
595.40	1091.59
595.75	1081.34
596.10	1071.65
596.45	1061.60
596.80	1051.88
597.15	1041.94
597.50	1032.14
597.85	1022.69
598.19	1013.17
598.54	1003.66
598.89	994.59
599.24	985.83
599.59	976.96
599.94	969.01
600.29	960.86
600.64	952.39
600.99	943.56
601.34	935.13
601.69	926.32
602.04	918.20
602.39	909.89
602.74	901.57
603.08	893.29
603.43	884.98
603.78	876.85
604.13	868.94
604.48	860.97
604.83	853.19
605.18	845.32
605.53	837.58
605.87	829.64
606.22	822.08
606.57	814.46
606.92	806.67
607.27	798.80
607.62	791.31
607.96	784.21
608.31	777.58
608.66	770.73
609.01	764.16
609.36	757.70
609.70	750.95
610.05	744.28
610.40	737.81
610.75	731.35
611.10	725.21
611.44	718.91
611.79	712.71
612.14	706.44
612.49	700.33
612.83	694.47
613.18	688.75
613.53	682.89
613.88	677.09
614.22	671.74
614.57	666.26
614.92	660.61
615.27	655.12
615.61	649.67
615.96	644.27
616.31	638.91
616.65	633.60
617.00	628.55
617.35	623.57
617.70	618.65
618.04	613.74
618.39	608.79
618.74	604.09
619.08	599.43
619.43	594.87
619.78	590.33
620.12	585.74
620.47	581.33
620.82	577.03
621.16	572.70
621.51	568.24
621.85	563.89
622.20	559.71
622.55	555.55
622.89	551.45
623.24	547.35
623.59	543.31
623.93	539.42
624.28	535.61
624.62	531.91
624.97	528.23
625.32	524.57
625.66	520.82
626.01	517.05
626.35	513.36
626.70	509.71
627.04	506.19
627.39	502.67
627.73	499.30
628.08	496.04
628.43	492.76
628.77	489.61
629.12	486.52
629.46	483.42
629.81	480.25
630.15	477.11
630.50	474.07
630.84	471.05
631.19	468.10
631.53	465.26
631.88	462.38
632.22	459.52
632.57	456.93
632.91	454.38
633.26	451.93
633.60	449.47
633.95	447.10
634.29	444.65
634.64	442.25
634.98	439.65
635.32	437.20
635.67	434.96
636.01	432.62
636.36	430.36
636.70	428.27
637.05	426.14
637.39	424.02
637.73	421.95
638.08	420.00
638.42	417.99
638.77	415.85
639.11	413.68
639.45	411.60
639.80	409.46
640.14	407.44
640.49	405.37
640.83	403.31
641.17	401.32
641.52	399.35
641.86	397.42
642.20	395.71
642.55	393.83
642.89	391.97
643.23	390.20
643.58	388.60
643.92	386.84
644.26	385.17
644.61	383.57
644.95	381.89
645.29	380.16
645.64	378.44
645.98	376.82
646.32	375.30
646.66	373.77
647.01	372.26
647.35	370.80
647.69	369.33
648.04	368.00
648.38	366.58
648.72	365.19
649.06	363.80
649.41	362.42
649.75	361.10
650.09	359.78
650.43	358.49
650.78	357.11
651.12	355.79
651.46	354.49
651.80	353.22
652.14	352.01
652.49	350.83
652.83	349.64
653.17	348.48
653.51	347.37
653.85	346.30
654.20	345.18
654.54	343.99
654.88	342.89
655.22	341.81
655.56	340.70
655.90	339.67
656.25	338.66
656.59	337.64
656.93	336.67
657.27	335.73
657.61	334.71
657.95	333.75
658.29	332.79
658.64	331.89
658.98	330.98
659.32	330.08
659.66	329.21
660.00	328.38
660.34	327.55
660.68	326.67
661.02	325.75
661.36	324.88
661.70	324.04
662.05	323.22
662.39	322.39
662.73	321.66
663.07	320.90
663.41	320.12
663.75	319.32
664.09	318.55
664.43	317.72
664.77	316.99
665.11	316.20
665.45	315.48
665.79	314.77
666.13	313.99
666.47	313.23
666.81	312.46
667.15	311.65
667.49	310.95
667.83	310.32
668.17	309.66
668.51	309.05
668.85	308.45
669.19	307.87
669.53	307.21
669.87	306.53
670.21	305.88
670.55	305.27
670.89	304.74
671.23	304.15
671.57	303.58
671.91	303.05
672.25	302.55
672.58	302.02
672.92	301.43
673.26	300.94
673.60	300.45
673.94	299.96
674.28	299.51
674.62	299.02
674.96	298.46
675.30	297.97
675.64	297.43
675.97	296.89
676.31	296.34
676.65	295.84
676.99	295.39
677.33	294.86
677.67	294.37
678.01	293.81
678.34	293.32
678.68	292.87
679.02	292.34
679.36	291.83
679.70	291.34
680.04	290.87
680.37	290.38
680.71	289.92
681.05	289.47
681.39	288.97
681.73	288.46
682.06	287.97
682.40	287.51
682.74	287.10
683.08	286.73
683.42	286.30
683.75	285.90
684.09	285.41
684.43	285.00
684.77	284.57
685.10	284.20
685.44	283.80
685.78	283.38
686.12	283.00
686.45	282.58
686.79	282.15
687.13	281.75
687.46	281.33
687.80	280.93
688.14	280.48
688.48	280.10
688.81	279.70
689.15	279.35
689.49	278.93
689.82	278.51
690.16	278.04
690.50	277.64
690.83	277.22
691.17	276.82
691.51	276.43
691.84	276.05
692.18	275.62
692.52	275.19
692.85	274.78
693.19	274.42
693.52	274.03
693.86	273.63
694.20	273.25
694.53	272.88
694.87	272.48
695.21	272.09
695.54	271.71
695.88	271.32
696.21	270.90
696.55	270.53
696.88	270.16
697.22	269.79
697.56	269.42
697.89	269.01
698.23	268.64
698.56	268.24
698.90	267.87
699.23	267.50
699.57	267.13
699.90	266.75
700.24	266.36
700.58	266.02
700.91	265.73
701.25	265.49
701.58	265.20
701.92	264.89
702.25	264.57
702.59	264.24
702.92	263.90
703.26	263.56
703.59	263.21
703.93	262.97
704.26	262.66
704.60	262.33
704.93	262.01
705.26	261.68
705.60	261.41
705.93	261.07
706.27	260.80
706.60	260.52
706.94	260.26
707.27	259.91
707.61	259.60
707.94	259.25
708.27	258.82
708.61	258.46
708.94	258.13
709.28	257.83
709.61	257.53
709.94	257.26
710.28	257.00
710.61	256.75
710.95	256.37
711.28	256.18
711.61	255.90
711.95	255.66
712.28	255.39
712.61	255.09
712.95	254.90
713.28	254.69
713.61	254.40
713.95	254.11
714.28	253.88
714.61	253.62
714.95	253.36
715.28	253.12
715.61	252.88
715.95	252.66
716.28	252.42
716.61	252.23
716.95	251.97
717.28	251.74
717.61	251.48
717.94	251.26
718.28	250.93
718.61	250.70
718.94	250.45
719.27	250.23
719.61	250.03
719.94	249.77
720.27	249.47
720.60	249.26
720.94	249.04
721.27	248.83
721.60	248.64
721.93	248.43
722.27	248.26
722.60	248.07
722.93	247.85
723.26	247.64
723.59	247.39
723.93	247.20
724.26	247.02
724.59	246.82
724.92	246.65
725.25	246.51
725.59	246.33
725.92	246.18
726.25	246.00
726.58	245.83
726.91	245.65
727.24	245.49
727.57	245.32
727.91	245.13
728.24	244.99
728.57	244.80
728.90	244.65
729.23	244.45
729.56	244.33
729.89	244.18
730.22	244.01
730.55	243.85
730.89	243.69
731.22	243.52
731.55	243.36
731.88	243.20
732.21	243.01
732.54	242.85
732.87	242.70
733.20	242.56
733.53	242.40
733.86	242.26
734.19	242.09
734.52	241.96
734.85	241.91
735.18	241.73
735.51	241.63
735.84	241.49
736.17	241.39
736.50	241.19
736.83	241.20
737.16	241.07
737.49	240.94
737.82	240.81
738.15	240.69
738.48	240.56
738.81	240.42
739.14	240.30
739.47	240.16
739.80	240.02
740.13	239.90
740.46	239.75
740.79	239.61
741.12	239.50
741.45	239.34
741.78	239.15
742.11	239.07
742.44	238.91
742.77	238.81
743.10	238.67
743.43	238.55
743.75	238.30
744.08	238.37
744.41	238.25
744.74	238.13
745.07	237.99
745.40	237.91
745.73	237.85
746.06	237.74
746.39	237.66
746.71	237.55
747.04	237.44
747.37	237.34
747.70	237.27
748.03	237.16
748.36	237.10
748.68	237.00
749.01	236.87
749.34	236.78
749.67	236.68
750.00	236.60
750.33	236.61
750.65	236.53
750.98	236.25
751.31	236.16
751.64	236.08
751.97	236.05
752.29	235.96
752.62	235.81
752.95	235.72
753.28	235.61
753.60	235.50
753.93	235.44
754.26	235.37
754.59	235.23
754.91	235.13
755.24	235.02
755.57	234.99
755.90	234.90
756.22	234.80
756.55	234.70
756.88	234.59
757.20	234.42
757.53	234.29
757.86	234.22
758.19	234.15
758.51	234.07
758.84	233.93
759.17	233.83
759.49	233.76
759.82	233.75
760.15	233.70
760.47	233.64
760.80	233.54
761.13	233.49
761.45	233.44
761.78	233.38
762.11	233.33
762.43	233.20
762.76	233.14
763.08	233.10
763.41	233.04
763.74	232.99
764.06	232.94
764.39	232.90
764.71	232.84
765.04	232.77
765.37	232.70
765.69	232.65
766.02	232.60
766.34	232.53
766.67	232.42
767.00	232.39
767.32	232.40
767.65	232.42
767.97	232.35
768.30	232.31
768.62	232.26
768.95	232.19
769.27	232.14
769.60	232.10
769.92	232.02
770.25	231.96
770.57	231.89
770.90	231.83
771.22	231.77
771.55	231.73
771.87	231.68
772.20	231.63
772.52	231.70
772.85	231.80
773.17	231.76
773.50	231.71
773.82	231.66
774.15	231.55
774.47	231.44
774.80	231.37
775.12	231.32
775.45	231.28
775.77	231.25
776.09	231.23
776.42	231.19
776.74	231.20
777.07	231.15
777.39	231.13
777.72	231.09
778.04	231.07
778.36	231.02
778.69	230.99
779.01	230.97
779.33	230.82
779.66	230.66
779.98	230.62
780.31	230.59
780.63	230.60
780.95	230.60
781.28	230.56
781.60	230.54
781.92	230.51
782.25	230.48
782.57	230.45
782.89	230.41
783.22	230.37
783.54	230.32
783.86	230.31
784.19	230.27
784.51	230.28
784.83	230.24
785.16	230.21
785.48	230.18
785.80	230.16
786.12	230.14
786.45	230.11
786.77	230.09
787.09	230.07
787.42	230.00
787.74	229.98
788.06	229.96
788.38	229.94
788.71	229.91
789.03	229.89
789.35	229.88
789.67	229.85
789.99	229.83
790.32	229.80
790.64	229.79
790.96	229.89
791.28	229.83
791.61	229.80
791.93	229.79
792.25	229.77
792.57	229.84
792.89	229.80
793.21	229.78
793.54	229.76
793.86	229.72
794.18	229.71
794.50	229.67
794.82	229.64
795.14	229.65
795.47	229.65
795.79	229.63
796.11	229.59
796.43	229.57
796.75	229.57
797.07	229.56
797.39	229.54
797.71	229.41
798.04	229.41
798.36	229.40
798.68	229.38
799.00	229.37
799.32	229.31
799.64	229.31
799.96	229.30
800.28	229.31
800.60	229.29
800.92	229.29
801.24	229.27
801.56	229.28
801.89	229.25
802.21	229.24
802.53	229.20
802.85	229.22
803.17	229.26
803.49	229.22
803.81	229.19
804.13	229.17
804.45	229.15
804.77	229.16
805.09	229.15
805.41	229.13
805.73	229.10
806.05	229.05
806.37	229.03
806.69	229.01
807.01	228.98
807.33	228.97
807.65	228.92
807.97	228.97
808.28	228.93
808.60	228.92
808.92	228.89
809.24	228.97
809.56	228.94
809.88	228.88
810.20	228.87
810.52	228.88
810.84	228.86
811.16	228.83
811.48	228.80
811.80	228.83
812.12	228.83
812.43	228.83
812.75	228.84
813.07	228.82
813.39	228.82
813.71	228.81
814.03	228.78
814.35	228.78
814.67	228.71
814.98	228.70
815.30	228.69
815.62	228.66
815.94	228.56
816.26	228.56
816.58	228.53
816.89	228.54
817.21	228.50
817.53	228.50
817.85	228.50
818.17	228.49
818.48	228.43
