SpectraSuite Data File
++++++++++++++++++++++++++++++++++++
Date: Fri Oct 02 20:57:54 EDT 2015
User: lab3
Dark Spectrum Present: No
Reference Spectrum Present: No
Number of Sampled Component Spectra: 1
Spectrometers: USB2E7196
Integration Time (usec): 46000 (USB2E7196)
Spectra Averaged: 6000 (USB2E7196)
Boxcar Smoothing: 10 (USB2E7196)
Correct for Electrical Dark: No (USB2E7196)
Strobe/Lamp Enabled: No (USB2E7196)
Correct for Detector Non-linearity: No (USB2E7196)
Correct for Stray Light: No (USB2E7196)
Number of Pixels in Processed Spectrum: 2048
>>>>>Begin Processed Spectral Data<<<<<
339.09	0.00
339.48	215.62
339.86	217.08
340.24	218.38
340.63	219.84
341.01	223.06
341.39	222.52
341.78	223.92
342.16	225.13
342.54	225.52
342.93	213.94
343.31	224.75
343.69	225.29
344.07	225.75
344.46	226.18
344.84	226.57
345.22	226.79
345.60	227.05
345.99	227.25
346.37	227.38
346.75	227.49
347.13	227.57
347.52	227.64
347.90	227.73
348.28	227.77
348.66	227.83
349.05	227.83
349.43	227.88
349.81	227.93
350.19	227.99
350.57	228.06
350.96	228.14
351.34	228.24
351.72	228.33
352.10	228.43
352.48	228.51
352.87	228.56
353.25	228.63
353.63	228.69
354.01	228.75
354.39	228.84
354.77	228.91
355.15	229.02
355.54	229.08
355.92	229.10
356.30	229.18
356.68	229.33
357.06	229.41
357.44	229.46
357.82	229.51
358.20	229.63
358.58	229.69
358.97	229.75
359.35	229.84
359.73	229.93
360.11	229.98
360.49	230.04
360.87	230.09
361.25	230.15
361.63	230.24
362.01	230.30
362.39	230.32
362.77	230.37
363.15	230.39
363.53	230.43
363.91	230.47
364.29	230.49
364.67	230.40
365.05	230.42
365.43	230.45
365.81	230.48
366.19	230.50
366.57	230.56
366.95	230.57
367.33	230.54
367.71	230.53
368.09	230.56
368.47	230.55
368.85	230.54
369.23	230.55
369.61	230.49
369.99	230.50
370.37	230.51
370.75	230.58
371.13	230.55
371.51	230.50
371.89	230.48
372.27	230.45
372.65	230.44
373.03	230.40
373.41	230.36
373.78	230.30
374.16	230.20
374.54	230.11
374.92	230.06
375.30	230.02
375.68	229.95
376.06	229.90
376.44	229.85
376.82	229.81
377.19	229.75
377.57	229.70
377.95	229.61
378.33	229.55
378.71	229.38
379.09	229.34
379.47	229.31
379.84	229.24
380.22	229.18
380.60	229.11
380.98	229.05
381.36	229.00
381.73	228.94
382.11	228.92
382.49	228.88
382.87	228.82
383.25	228.77
383.62	228.87
384.00	228.80
384.38	228.76
384.76	228.75
385.13	228.74
385.51	228.70
385.89	228.65
386.27	228.61
386.64	228.60
387.02	228.55
387.40	228.50
387.78	228.48
388.15	228.45
388.53	228.42
388.91	228.39
389.29	228.35
389.66	228.34
390.04	228.31
390.42	228.30
390.79	228.29
391.17	228.27
391.55	228.11
391.92	228.11
392.30	228.11
392.68	228.07
393.05	228.05
393.43	228.04
393.81	228.05
394.18	228.03
394.56	228.04
394.94	228.07
395.31	228.07
395.69	228.12
396.06	228.15
396.44	228.17
396.82	228.18
397.19	228.26
397.57	228.27
397.95	228.32
398.32	228.31
398.70	228.35
399.07	228.42
399.45	228.46
399.82	228.50
400.20	228.54
400.58	228.60
400.95	228.60
401.33	228.68
401.70	228.84
402.08	228.94
402.45	229.01
402.83	229.13
403.20	229.24
403.58	229.32
403.95	229.46
404.33	229.61
404.71	229.75
405.08	229.96
405.46	230.12
405.83	230.29
406.21	230.48
406.58	230.69
406.96	230.90
407.33	231.14
407.70	231.41
408.08	231.79
408.45	232.11
408.83	232.46
409.20	232.78
409.58	233.07
409.95	233.46
410.33	233.90
410.70	234.30
411.08	234.77
411.45	235.27
411.82	235.78
412.20	236.36
412.57	237.05
412.95	237.59
413.32	238.30
413.69	239.03
414.07	239.80
414.44	240.64
414.82	241.50
415.19	242.51
415.56	243.53
415.94	244.57
416.31	245.76
416.68	246.94
417.06	248.32
417.43	249.61
417.81	251.08
418.18	252.59
418.55	254.24
418.93	255.95
419.30	257.74
419.67	259.64
420.04	261.58
420.42	263.61
420.79	265.96
421.16	268.34
421.54	270.75
421.91	273.26
422.28	275.87
422.66	278.68
423.03	281.37
423.40	284.19
423.77	287.21
424.15	290.30
424.52	293.52
424.89	297.00
425.26	300.46
425.64	303.68
426.01	307.30
426.38	311.00
426.75	314.82
427.13	318.74
427.50	322.83
427.87	327.10
428.24	331.40
428.61	335.55
428.99	340.03
429.36	344.94
429.73	349.63
430.10	354.33
430.47	359.14
430.85	364.09
431.22	369.42
431.59	374.89
431.96	380.22
432.33	386.15
432.70	391.80
433.08	398.47
433.45	404.79
433.82	411.00
434.19	417.95
434.56	424.79
434.93	431.40
435.30	437.94
435.68	445.34
436.05	452.58
436.42	459.77
436.79	466.34
437.16	473.44
437.53	481.03
437.90	488.63
438.27	496.07
438.64	504.08
439.01	511.34
439.38	517.97
439.75	524.37
440.13	531.56
440.50	538.40
440.87	543.81
441.24	549.73
441.61	556.19
441.98	560.87
442.35	566.43
442.72	572.09
443.09	577.46
443.46	580.82
443.83	583.25
444.20	585.25
444.57	588.29
444.94	589.93
445.31	591.65
445.68	593.06
446.05	594.04
446.42	593.49
446.79	592.78
447.16	592.11
447.53	591.48
447.90	588.98
448.27	586.56
448.64	583.02
449.01	580.51
449.37	575.68
449.74	571.32
450.11	565.74
450.48	559.66
450.85	553.58
451.22	548.37
451.59	543.29
451.96	538.70
452.33	532.08
452.70	526.22
453.07	519.09
453.43	511.99
453.80	505.10
454.17	498.53
454.54	492.47
454.91	485.64
455.28	479.27
455.65	473.26
456.02	466.94
456.38	461.85
456.75	455.29
457.12	450.02
457.49	444.71
457.86	439.72
458.23	435.36
458.59	430.52
458.96	425.57
459.33	421.22
459.70	416.80
460.07	413.46
460.43	409.51
460.80	405.83
461.17	402.65
461.54	399.19
461.91	395.95
462.27	392.68
462.64	390.05
463.01	386.98
463.38	383.91
463.74	381.13
464.11	378.68
464.48	376.49
464.85	374.09
465.21	372.30
465.58	370.28
465.95	367.95
466.32	366.11
466.68	364.31
467.05	362.49
467.42	360.70
467.78	358.78
468.15	357.01
468.52	355.73
468.88	353.98
469.25	352.40
469.62	351.15
469.98	349.77
470.35	348.55
470.72	347.45
471.08	346.31
471.45	345.37
471.82	344.32
472.18	343.19
472.55	342.47
472.92	341.56
473.28	340.85
473.65	340.08
474.02	339.35
474.38	338.73
474.75	338.37
475.11	337.87
475.48	337.64
475.85	337.39
476.21	337.26
476.58	337.18
476.94	337.32
477.31	337.38
477.67	337.47
478.04	337.67
478.41	337.95
478.77	338.37
479.14	338.63
479.50	339.12
479.87	339.75
480.23	340.40
480.60	341.04
480.96	341.68
481.33	342.63
481.69	343.58
482.06	344.51
482.42	345.38
482.79	346.45
483.15	347.69
483.52	349.11
483.88	350.47
484.25	351.93
484.61	353.44
484.98	355.08
485.34	356.93
485.71	358.86
486.07	360.92
486.44	362.97
486.80	365.27
487.17	367.67
487.53	370.28
487.90	373.02
488.26	375.99
488.62	379.14
488.99	382.28
489.35	385.60
489.72	389.19
490.08	392.97
490.44	396.88
490.81	400.94
491.17	405.10
491.54	409.56
491.90	414.19
492.26	419.13
492.63	424.31
492.99	429.71
493.36	435.30
493.72	441.18
494.08	447.22
494.45	453.62
494.81	460.29
495.17	467.13
495.54	474.36
495.90	481.87
496.26	489.56
496.63	497.50
496.99	505.75
497.35	514.39
497.72	523.29
498.08	532.42
498.44	541.87
498.80	551.86
499.17	562.12
499.53	572.67
499.89	583.61
500.26	594.75
500.62	606.20
500.98	618.27
501.34	630.51
501.71	643.26
502.07	656.23
502.43	669.69
502.79	683.38
503.16	697.52
503.52	711.87
503.88	726.64
504.24	741.85
504.60	757.30
504.97	773.20
505.33	789.54
505.69	806.77
506.05	824.30
506.41	841.76
506.78	859.43
507.14	877.65
507.50	896.28
507.86	915.28
508.22	934.49
508.59	953.53
508.95	973.44
509.31	994.09
509.67	1015.36
510.03	1036.63
510.39	1058.00
510.75	1079.62
511.12	1101.49
511.48	1123.48
511.84	1145.59
512.20	1168.12
512.56	1191.48
512.92	1214.85
513.28	1237.86
513.64	1261.19
514.00	1284.94
514.37	1308.96
514.73	1333.03
515.09	1357.03
515.45	1381.38
515.81	1405.83
516.17	1430.52
516.53	1454.61
516.89	1478.63
517.25	1502.87
517.61	1527.08
517.97	1551.74
518.33	1575.86
518.69	1599.94
519.05	1624.60
519.41	1649.53
519.77	1674.52
520.13	1698.89
520.49	1723.19
520.85	1747.90
521.21	1772.03
521.57	1796.66
521.93	1820.84
522.29	1845.41
522.65	1869.56
523.01	1893.65
523.37	1917.41
523.73	1941.83
524.09	1966.08
524.45	1990.08
524.81	2013.70
525.17	2037.18
525.53	2060.06
525.89	2083.41
526.25	2106.77
526.61	2129.12
526.97	2151.64
527.33	2174.20
527.68	2196.37
528.04	2217.79
528.40	2238.22
528.76	2259.18
529.12	2279.51
529.48	2299.42
529.84	2317.70
530.20	2336.60
530.56	2354.88
530.91	2373.36
531.27	2391.47
531.63	2408.76
531.99	2425.66
532.35	2441.91
532.71	2458.19
533.07	2475.16
533.42	2490.37
533.78	2506.58
534.14	2522.95
534.50	2538.21
534.86	2553.36
535.21	2566.66
535.57	2580.45
535.93	2594.06
536.29	2606.41
536.65	2618.72
537.00	2630.44
537.36	2642.99
537.72	2653.97
538.08	2664.64
538.44	2674.63
538.79	2684.18
539.15	2692.86
539.51	2701.15
539.87	2708.71
540.22	2714.53
540.58	2720.42
540.94	2727.59
541.29	2732.93
541.65	2736.57
542.01	2739.70
542.37	2742.09
542.72	2745.81
543.08	2747.85
543.44	2750.42
543.79	2751.92
544.15	2752.59
544.51	2753.65
544.87	2753.59
545.22	2752.80
545.58	2751.33
545.94	2749.91
546.29	2747.15
546.65	2744.44
547.01	2741.72
547.36	2739.76
547.72	2737.62
548.07	2733.85
548.43	2728.49
548.79	2722.45
549.14	2717.67
549.50	2712.97
549.86	2707.39
550.21	2700.68
550.57	2694.90
550.92	2686.87
551.28	2679.55
551.64	2672.40
551.99	2664.73
552.35	2656.43
552.70	2648.47
553.06	2640.76
553.41	2632.41
553.77	2623.82
554.13	2615.09
554.48	2605.49
554.84	2594.74
555.19	2584.70
555.55	2574.50
555.90	2564.36
556.26	2554.69
556.61	2543.93
556.97	2531.60
557.32	2519.82
557.68	2507.88
558.03	2495.82
558.39	2484.86
558.74	2474.11
559.10	2461.68
559.45	2449.60
559.81	2438.14
560.16	2425.95
560.52	2413.95
560.87	2402.25
561.23	2389.76
561.58	2377.52
561.94	2364.81
562.29	2351.54
562.64	2338.94
563.00	2326.03
563.35	2313.69
563.71	2301.09
564.06	2288.28
564.42	2276.23
564.77	2263.48
565.12	2250.71
565.48	2237.85
565.83	2225.06
566.19	2212.28
566.54	2199.49
566.89	2185.52
567.25	2171.77
567.60	2159.27
567.96	2145.92
568.31	2131.25
568.66	2117.43
569.02	2104.59
569.37	2091.73
569.72	2079.40
570.08	2065.76
570.43	2051.87
570.78	2037.60
571.14	2022.72
571.49	2008.61
571.84	1995.00
572.20	1980.09
572.55	1965.57
572.90	1950.77
573.26	1935.95
573.61	1920.67
573.96	1905.80
574.31	1891.26
574.67	1876.60
575.02	1861.07
575.37	1845.59
575.72	1831.01
576.08	1816.63
576.43	1801.15
576.78	1786.09
577.13	1771.33
577.49	1756.91
577.84	1743.04
578.19	1728.24
578.54	1713.65
578.90	1698.58
579.25	1683.36
579.60	1669.79
579.95	1655.94
580.30	1642.05
580.66	1627.90
581.01	1613.64
581.36	1599.44
581.71	1586.24
582.06	1572.87
582.42	1559.71
582.77	1546.58
583.12	1533.33
583.47	1520.02
583.82	1506.82
584.17	1493.30
584.53	1479.38
584.88	1465.83
585.23	1451.83
585.58	1438.77
585.93	1425.92
586.28	1413.79
586.63	1401.69
586.98	1389.01
587.34	1376.44
587.69	1363.59
588.04	1351.07
588.39	1338.97
588.74	1326.92
589.09	1314.64
589.44	1302.00
589.79	1290.04
590.14	1278.15
590.49	1266.25
590.84	1254.45
591.19	1243.09
591.54	1231.53
591.89	1220.12
592.25	1208.84
592.60	1197.27
592.95	1186.04
593.30	1174.98
593.65	1163.63
594.00	1152.35
594.35	1141.75
594.70	1130.73
595.05	1120.62
595.40	1110.40
595.75	1099.98
596.10	1090.14
596.45	1079.94
596.80	1070.06
597.15	1059.99
597.50	1050.06
597.85	1040.49
598.19	1030.78
598.54	1021.13
598.89	1011.90
599.24	1003.00
599.59	993.99
599.94	985.89
600.29	977.54
600.64	968.88
600.99	959.85
601.34	951.25
601.69	942.30
602.04	934.01
602.39	925.54
602.74	917.07
603.08	908.64
603.43	900.15
603.78	891.87
604.13	883.78
604.48	875.61
604.83	867.65
605.18	859.59
605.53	851.68
605.87	843.56
606.22	835.85
606.57	828.02
606.92	820.06
607.27	812.02
607.62	804.39
607.96	797.17
608.31	790.38
608.66	783.38
609.01	776.65
609.36	770.05
609.70	763.14
610.05	756.29
610.40	749.67
610.75	743.05
611.10	736.77
611.44	730.34
611.79	724.01
612.14	717.61
612.49	711.34
612.83	705.35
613.18	699.49
613.53	693.49
613.88	687.57
614.22	682.09
614.57	676.50
614.92	670.72
615.27	665.09
615.61	659.50
615.96	653.96
616.31	648.43
616.65	642.95
617.00	637.77
617.35	632.65
617.70	627.60
618.04	622.55
618.39	617.46
618.74	612.63
619.08	607.82
619.43	603.13
619.78	598.46
620.12	593.74
620.47	589.21
620.82	584.78
621.16	580.31
621.51	575.72
621.85	571.25
622.20	566.96
622.55	562.67
622.89	558.45
623.24	554.23
623.59	550.09
623.93	546.09
624.28	542.15
624.62	538.33
624.97	534.53
625.32	530.74
625.66	526.88
626.01	522.97
626.35	519.17
626.70	515.41
627.04	511.81
627.39	508.19
627.73	504.70
628.08	501.32
628.43	497.94
628.77	494.66
629.12	491.47
629.46	488.27
629.81	485.00
630.15	481.76
630.50	478.61
630.84	475.51
631.19	472.47
631.53	469.55
631.88	466.59
632.22	463.65
632.57	460.98
632.91	458.36
633.26	455.83
633.60	453.29
633.95	450.84
634.29	448.28
634.64	445.81
634.98	443.12
635.32	440.61
635.67	438.28
636.01	435.88
636.36	433.53
636.70	431.36
637.05	429.14
637.39	426.94
637.73	424.79
638.08	422.75
638.42	420.65
638.77	418.44
639.11	416.17
639.45	414.00
639.80	411.78
640.14	409.66
640.49	407.52
640.83	405.37
641.17	403.30
641.52	401.26
641.86	399.25
642.20	397.47
642.55	395.51
642.89	393.60
643.23	391.76
643.58	390.09
643.92	388.27
644.26	386.53
644.61	384.86
644.95	383.12
645.29	381.33
645.64	379.56
645.98	377.88
646.32	376.32
646.66	374.73
647.01	373.17
647.35	371.66
647.69	370.14
648.04	368.75
648.38	367.28
648.72	365.83
649.06	364.38
649.41	362.96
649.75	361.58
650.09	360.21
650.43	358.86
650.78	357.44
651.12	356.06
651.46	354.74
651.80	353.44
652.14	352.17
652.49	350.95
652.83	349.72
653.17	348.52
653.51	347.36
653.85	346.26
654.20	345.10
654.54	343.88
654.88	342.74
655.22	341.62
655.56	340.49
655.90	339.43
656.25	338.39
656.59	337.34
656.93	336.35
657.27	335.38
657.61	334.34
657.95	333.35
658.29	332.36
658.64	331.43
658.98	330.47
659.32	329.55
659.66	328.67
660.00	327.81
660.34	326.95
660.68	326.04
661.02	325.10
661.36	324.20
661.70	323.34
662.05	322.49
662.39	321.65
662.73	320.91
663.07	320.15
663.41	319.36
663.75	318.55
664.09	317.75
664.43	316.92
664.77	316.17
665.11	315.39
665.45	314.66
665.79	313.95
666.13	313.17
666.47	312.40
666.81	311.63
667.15	310.81
667.49	310.12
667.83	309.48
668.17	308.82
668.51	308.20
668.85	307.60
669.19	307.03
669.53	306.37
669.87	305.68
670.21	305.03
670.55	304.40
670.89	303.86
671.23	303.28
671.57	302.71
671.91	302.18
672.25	301.66
672.58	301.14
672.92	300.54
673.26	300.06
673.60	299.56
673.94	299.08
674.28	298.63
674.62	298.13
674.96	297.58
675.30	297.10
675.64	296.57
675.97	296.04
676.31	295.48
676.65	294.97
676.99	294.54
677.33	294.02
677.67	293.54
678.01	292.99
678.34	292.51
678.68	292.06
679.02	291.54
679.36	291.04
679.70	290.55
680.04	290.10
680.37	289.62
680.71	289.17
681.05	288.73
681.39	288.24
681.73	287.74
682.06	287.25
682.40	286.80
682.74	286.39
683.08	286.04
683.42	285.61
683.75	285.22
684.09	284.75
684.43	284.34
684.77	283.92
685.10	283.56
685.44	283.16
685.78	282.76
686.12	282.38
686.45	281.98
686.79	281.57
687.13	281.18
687.46	280.76
687.80	280.36
688.14	279.93
688.48	279.55
688.81	279.17
689.15	278.82
689.49	278.42
689.82	278.01
690.16	277.54
690.50	277.15
690.83	276.76
691.17	276.36
691.51	275.99
691.84	275.62
692.18	275.20
692.52	274.78
692.85	274.38
693.19	274.03
693.52	273.65
693.86	273.27
694.20	272.89
694.53	272.54
694.87	272.15
695.21	271.77
695.54	271.40
695.88	271.03
696.21	270.62
696.55	270.27
696.88	269.91
697.22	269.55
697.56	269.19
697.89	268.79
698.23	268.43
698.56	268.04
698.90	267.69
699.23	267.31
699.57	266.96
699.90	266.60
700.24	266.21
700.58	265.89
700.91	265.59
701.25	265.37
701.58	265.09
701.92	264.79
702.25	264.48
702.59	264.14
702.92	263.82
703.26	263.48
703.59	263.14
703.93	262.91
704.26	262.61
704.60	262.28
704.93	261.96
705.26	261.64
705.60	261.37
705.93	261.03
706.27	260.76
706.60	260.51
706.94	260.25
707.27	259.93
707.61	259.60
707.94	259.27
708.27	258.84
708.61	258.49
708.94	258.16
709.28	257.87
709.61	257.57
709.94	257.31
710.28	257.05
710.61	256.81
710.95	256.44
711.28	256.24
711.61	255.98
711.95	255.74
712.28	255.47
712.61	255.17
712.95	255.00
713.28	254.80
713.61	254.50
713.95	254.19
714.28	253.95
714.61	253.70
714.95	253.45
715.28	253.21
715.61	252.98
715.95	252.76
716.28	252.53
716.61	252.33
716.95	252.08
717.28	251.85
717.61	251.60
717.94	251.37
718.28	251.06
718.61	250.82
718.94	250.58
719.27	250.36
719.61	250.17
719.94	249.92
720.27	249.63
720.60	249.42
720.94	249.21
721.27	249.01
721.60	248.82
721.93	248.61
722.27	248.45
722.60	248.26
722.93	248.04
723.26	247.84
723.59	247.60
723.93	247.42
724.26	247.23
724.59	247.04
724.92	246.87
725.25	246.73
725.59	246.55
725.92	246.40
726.25	246.23
726.58	246.05
726.91	245.86
727.24	245.71
727.57	245.54
727.91	245.36
728.24	245.22
728.57	245.04
728.90	244.89
729.23	244.68
729.56	244.56
729.89	244.39
730.22	244.22
730.55	244.06
730.89	243.90
731.22	243.74
731.55	243.58
731.88	243.42
732.21	243.23
732.54	243.08
732.87	242.93
733.20	242.78
733.53	242.63
733.86	242.49
734.19	242.32
734.52	242.20
734.85	242.14
735.18	241.96
735.51	241.85
735.84	241.72
736.17	241.62
736.50	241.42
736.83	241.43
737.16	241.31
737.49	241.19
737.82	241.05
738.15	240.94
738.48	240.81
738.81	240.68
739.14	240.55
739.47	240.41
739.80	240.27
740.13	240.15
740.46	240.00
740.79	239.86
741.12	239.74
741.45	239.59
741.78	239.39
742.11	239.30
742.44	239.15
742.77	239.04
743.10	238.90
743.43	238.78
743.75	238.54
744.08	238.62
744.41	238.49
744.74	238.38
745.07	238.24
745.40	238.15
745.73	238.10
746.06	237.99
746.39	237.91
746.71	237.80
747.04	237.68
747.37	237.59
747.70	237.51
748.03	237.42
748.36	237.35
748.68	237.25
749.01	237.12
749.34	237.03
749.67	236.94
750.00	236.86
750.33	236.86
750.65	236.77
750.98	236.49
751.31	236.41
751.64	236.32
751.97	236.30
752.29	236.19
752.62	236.05
752.95	235.96
753.28	235.85
753.60	235.76
753.93	235.71
754.26	235.63
754.59	235.50
754.91	235.39
755.24	235.29
755.57	235.27
755.90	235.18
756.22	235.09
756.55	234.98
756.88	234.88
757.20	234.71
757.53	234.59
757.86	234.52
758.19	234.44
758.51	234.36
758.84	234.22
759.17	234.13
759.49	234.06
759.82	234.05
760.15	233.99
760.47	233.91
760.80	233.81
761.13	233.76
761.45	233.71
761.78	233.65
762.11	233.59
762.43	233.46
762.76	233.40
763.08	233.35
763.41	233.29
763.74	233.24
764.06	233.18
764.39	233.13
764.71	233.07
765.04	233.00
765.37	232.94
765.69	232.89
766.02	232.83
766.34	232.77
766.67	232.67
767.00	232.64
767.32	232.65
767.65	232.68
767.97	232.60
768.30	232.56
768.62	232.50
768.95	232.43
769.27	232.38
769.60	232.35
769.92	232.28
770.25	232.21
770.57	232.14
770.90	232.09
771.22	232.03
771.55	231.98
771.87	231.94
772.20	231.90
772.52	231.96
772.85	232.06
773.17	232.02
773.50	231.96
773.82	231.91
774.15	231.80
774.47	231.68
774.80	231.63
775.12	231.59
775.45	231.55
775.77	231.52
776.09	231.49
776.42	231.46
776.74	231.46
777.07	231.43
777.39	231.40
777.72	231.36
778.04	231.35
778.36	231.31
778.69	231.28
779.01	231.25
779.33	231.11
779.66	230.94
779.98	230.90
780.31	230.88
780.63	230.89
780.95	230.89
781.28	230.86
781.60	230.82
781.92	230.79
782.25	230.76
782.57	230.73
782.89	230.70
783.22	230.66
783.54	230.61
783.86	230.59
784.19	230.55
784.51	230.56
784.83	230.51
785.16	230.48
785.48	230.46
785.80	230.43
786.12	230.42
786.45	230.39
786.77	230.38
787.09	230.35
787.42	230.28
787.74	230.26
788.06	230.24
788.38	230.21
788.71	230.19
789.03	230.16
789.35	230.16
789.67	230.13
789.99	230.11
790.32	230.07
790.64	230.07
790.96	230.16
791.28	230.10
791.61	230.08
791.93	230.07
792.25	230.04
792.57	230.11
792.89	230.07
793.21	230.06
793.54	230.02
793.86	229.99
794.18	229.99
794.50	229.94
794.82	229.92
795.14	229.92
795.47	229.92
795.79	229.90
796.11	229.85
796.43	229.83
796.75	229.81
797.07	229.81
797.39	229.78
797.71	229.66
798.04	229.65
798.36	229.64
798.68	229.62
799.00	229.61
799.32	229.54
799.64	229.55
799.96	229.53
800.28	229.54
800.60	229.52
800.92	229.51
801.24	229.50
801.56	229.49
801.89	229.46
802.21	229.45
802.53	229.41
802.85	229.43
803.17	229.47
803.49	229.43
803.81	229.41
804.13	229.39
804.45	229.36
804.77	229.35
805.09	229.34
805.41	229.31
805.73	229.28
806.05	229.23
806.37	229.21
806.69	229.18
807.01	229.15
807.33	229.15
807.65	229.09
807.97	229.14
808.28	229.11
808.60	229.10
808.92	229.07
809.24	229.14
809.56	229.10
809.88	229.04
810.20	229.04
810.52	229.05
810.84	229.02
811.16	228.99
811.48	228.97
811.80	229.00
812.12	228.98
812.43	229.00
812.75	229.00
813.07	228.97
813.39	228.97
813.71	228.94
814.03	228.92
814.35	228.92
814.67	228.86
814.98	228.84
815.30	228.82
815.62	228.79
815.94	228.71
816.26	228.71
816.58	228.68
816.89	228.68
817.21	228.64
817.53	228.64
817.85	228.64
818.17	228.63
818.48	228.57
