SpectraSuite Data File
++++++++++++++++++++++++++++++++++++
Date: Fri Oct 02 17:16:59 EDT 2015
User: lab3
Dark Spectrum Present: No
Reference Spectrum Present: No
Number of Sampled Component Spectra: 1
Spectrometers: USB2E7196
Integration Time (usec): 46000 (USB2E7196)
Spectra Averaged: 600 (USB2E7196)
Boxcar Smoothing: 10 (USB2E7196)
Correct for Electrical Dark: No (USB2E7196)
Strobe/Lamp Enabled: No (USB2E7196)
Correct for Detector Non-linearity: No (USB2E7196)
Correct for Stray Light: No (USB2E7196)
Number of Pixels in Processed Spectrum: 2048
>>>>>Begin Processed Spectral Data<<<<<
339.09	0.00
339.48	215.00
339.86	216.53
340.24	218.02
340.63	219.19
341.01	222.42
341.39	222.26
341.78	223.28
342.16	224.50
342.54	225.13
342.93	213.42
343.31	224.20
343.69	224.74
344.07	225.20
344.46	225.63
344.84	226.02
345.22	226.24
345.60	226.50
345.99	226.70
346.37	226.83
346.75	226.93
347.13	227.01
347.52	227.07
347.90	227.17
348.28	227.19
348.66	227.25
349.05	227.22
349.43	227.28
349.81	227.34
350.19	227.39
350.57	227.46
350.96	227.54
351.34	227.61
351.72	227.70
352.10	227.81
352.48	227.87
352.87	227.92
353.25	227.97
353.63	228.01
354.01	228.07
354.39	228.15
354.77	228.22
355.15	228.32
355.54	228.36
355.92	228.38
356.30	228.47
356.68	228.62
357.06	228.70
357.44	228.76
357.82	228.81
358.20	228.92
358.58	228.97
358.97	229.03
359.35	229.11
359.73	229.19
360.11	229.23
360.49	229.29
360.87	229.34
361.25	229.41
361.63	229.51
362.01	229.55
362.39	229.59
362.77	229.64
363.15	229.66
363.53	229.70
363.91	229.75
364.29	229.77
364.67	229.66
365.05	229.68
365.43	229.69
365.81	229.74
366.19	229.75
366.57	229.83
366.95	229.83
367.33	229.80
367.71	229.80
368.09	229.82
368.47	229.81
368.85	229.80
369.23	229.81
369.61	229.74
369.99	229.77
370.37	229.76
370.75	229.82
371.13	229.79
371.51	229.75
371.89	229.72
372.27	229.69
372.65	229.67
373.03	229.63
373.41	229.59
373.78	229.53
374.16	229.43
374.54	229.34
374.92	229.29
375.30	229.27
375.68	229.20
376.06	229.16
376.44	229.11
376.82	229.06
377.19	229.01
377.57	228.97
377.95	228.89
378.33	228.82
378.71	228.66
379.09	228.62
379.47	228.59
379.84	228.52
380.22	228.45
380.60	228.37
380.98	228.33
381.36	228.28
381.73	228.21
382.11	228.20
382.49	228.17
382.87	228.09
383.25	228.05
383.62	228.15
384.00	228.09
384.38	228.04
384.76	228.04
385.13	228.04
385.51	227.99
385.89	227.93
386.27	227.91
386.64	227.91
387.02	227.85
387.40	227.80
387.78	227.78
388.15	227.76
388.53	227.75
388.91	227.71
389.29	227.67
389.66	227.68
390.04	227.64
390.42	227.63
390.79	227.63
391.17	227.60
391.55	227.46
391.92	227.43
392.30	227.43
392.68	227.38
393.05	227.36
393.43	227.37
393.81	227.39
394.18	227.37
394.56	227.35
394.94	227.39
395.31	227.38
395.69	227.43
396.06	227.46
396.44	227.48
396.82	227.50
397.19	227.59
397.57	227.61
397.95	227.65
398.32	227.64
398.70	227.68
399.07	227.74
399.45	227.77
399.82	227.82
400.20	227.86
400.58	227.92
400.95	227.93
401.33	228.01
401.70	228.16
402.08	228.26
402.45	228.36
402.83	228.48
403.20	228.60
403.58	228.68
403.95	228.82
404.33	228.98
404.71	229.10
405.08	229.31
405.46	229.46
405.83	229.64
406.21	229.83
406.58	230.04
406.96	230.26
407.33	230.50
407.70	230.79
408.08	231.16
408.45	231.49
408.83	231.85
409.20	232.16
409.58	232.45
409.95	232.85
410.33	233.28
410.70	233.67
411.08	234.15
411.45	234.67
411.82	235.18
412.20	235.75
412.57	236.47
412.95	237.02
413.32	237.75
413.69	238.48
414.07	239.28
414.44	240.13
414.82	241.01
415.19	242.03
415.56	243.06
415.94	244.14
416.31	245.35
416.68	246.56
417.06	247.96
417.43	249.28
417.81	250.78
418.18	252.32
418.55	254.01
418.93	255.76
419.30	257.59
419.67	259.52
420.04	261.50
420.42	263.58
420.79	265.97
421.16	268.37
421.54	270.83
421.91	273.39
422.28	276.07
422.66	278.94
423.03	281.70
423.40	284.58
423.77	287.67
424.15	290.83
424.52	294.11
424.89	297.69
425.26	301.24
425.64	304.56
426.01	308.25
426.38	312.06
426.75	315.98
427.13	319.97
427.50	324.19
427.87	328.56
428.24	332.97
428.61	337.22
428.99	341.80
429.36	346.83
429.73	351.65
430.10	356.48
430.47	361.42
430.85	366.48
431.22	371.93
431.59	377.56
431.96	383.04
432.33	389.15
432.70	394.93
433.08	401.78
433.45	408.26
433.82	414.63
434.19	421.74
434.56	428.77
434.93	435.54
435.30	442.24
435.68	449.84
436.05	457.28
436.42	464.69
436.79	471.47
437.16	478.76
437.53	486.57
437.90	494.41
438.27	502.05
438.64	510.33
439.01	517.80
439.38	524.62
439.75	531.17
440.13	538.57
440.50	545.61
440.87	551.19
441.24	557.28
441.61	563.95
441.98	568.79
442.35	574.52
442.72	580.38
443.09	585.93
443.46	589.39
443.83	591.90
444.20	593.95
444.57	597.07
444.94	598.77
445.31	600.52
445.68	601.93
446.05	602.93
446.42	602.34
446.79	601.58
447.16	600.88
447.53	600.22
447.90	597.60
448.27	595.09
448.64	591.44
449.01	588.82
449.37	583.83
449.74	579.31
450.11	573.54
450.48	567.24
450.85	560.96
451.22	555.59
451.59	550.35
451.96	545.59
452.33	538.75
452.70	532.71
453.07	525.38
453.43	518.11
453.80	511.04
454.17	504.27
454.54	498.04
454.91	491.05
455.28	484.52
455.65	478.35
456.02	471.87
456.38	466.64
456.75	459.91
457.12	454.53
457.49	449.08
457.86	443.96
458.23	439.49
458.59	434.56
458.96	429.47
459.33	425.03
459.70	420.50
460.07	417.09
460.43	413.04
460.80	409.28
461.17	405.99
461.54	402.44
461.91	399.12
462.27	395.77
462.64	393.06
463.01	389.93
463.38	386.78
463.74	383.94
464.11	381.44
464.48	379.20
464.85	376.72
465.21	374.88
465.58	372.81
465.95	370.44
466.32	368.56
466.68	366.70
467.05	364.83
467.42	363.03
467.78	361.07
468.15	359.29
468.52	357.99
468.88	356.22
469.25	354.60
469.62	353.35
469.98	351.94
470.35	350.72
470.72	349.58
471.08	348.45
471.45	347.49
471.82	346.41
472.18	345.29
472.55	344.57
472.92	343.66
473.28	342.96
473.65	342.17
474.02	341.45
474.38	340.86
474.75	340.51
475.11	340.01
475.48	339.79
475.85	339.53
476.21	339.39
476.58	339.33
476.94	339.48
477.31	339.55
477.67	339.64
478.04	339.85
478.41	340.17
478.77	340.59
479.14	340.86
479.50	341.37
479.87	342.04
480.23	342.70
480.60	343.35
480.96	344.00
481.33	345.00
481.69	345.99
482.06	346.96
482.42	347.85
482.79	348.93
483.15	350.21
483.52	351.67
483.88	353.07
484.25	354.55
484.61	356.11
484.98	357.77
485.34	359.68
485.71	361.67
486.07	363.78
486.44	365.89
486.80	368.26
487.17	370.70
487.53	373.36
487.90	376.17
488.26	379.23
488.62	382.44
488.99	385.63
489.35	389.02
489.72	392.71
490.08	396.59
490.44	400.58
490.81	404.72
491.17	408.98
491.54	413.56
491.90	418.30
492.26	423.37
492.63	428.69
492.99	434.20
493.36	439.89
493.72	445.89
494.08	452.05
494.45	458.57
494.81	465.37
495.17	472.35
495.54	479.71
495.90	487.35
496.26	495.20
496.63	503.31
496.99	511.71
497.35	520.48
497.72	529.52
498.08	538.82
498.44	548.40
498.80	558.54
499.17	568.95
499.53	579.64
499.89	590.76
500.26	602.06
500.62	613.68
500.98	625.91
501.34	638.34
501.71	651.25
502.07	664.33
502.43	677.98
502.79	691.84
503.16	706.13
503.52	720.65
503.88	735.56
504.24	750.89
504.60	766.47
504.97	782.48
505.33	798.96
505.69	816.30
506.05	834.00
506.41	851.64
506.78	869.40
507.14	887.78
507.50	906.49
507.86	925.54
508.22	944.82
508.59	963.97
508.95	983.89
509.31	1004.57
509.67	1025.90
510.03	1047.21
510.39	1068.57
510.75	1090.17
511.12	1111.99
511.48	1133.96
511.84	1156.06
512.20	1178.45
512.56	1201.73
512.92	1224.93
513.28	1247.83
513.64	1270.94
514.00	1294.46
514.37	1318.30
514.73	1342.03
515.09	1365.76
515.45	1389.80
515.81	1414.00
516.17	1438.33
516.53	1462.08
516.89	1485.70
517.25	1509.53
517.61	1533.27
517.97	1557.51
518.33	1581.18
518.69	1604.80
519.05	1628.90
519.41	1653.22
519.77	1677.70
520.13	1701.46
520.49	1725.24
520.85	1749.25
521.21	1772.81
521.57	1796.76
521.93	1820.25
522.29	1844.16
522.65	1867.53
523.01	1890.84
523.37	1913.76
523.73	1937.35
524.09	1960.73
524.45	1983.85
524.81	2006.58
525.17	2029.12
525.53	2051.08
525.89	2073.45
526.25	2095.81
526.61	2117.18
526.97	2138.66
527.33	2160.10
527.68	2181.25
528.04	2201.59
528.40	2221.00
528.76	2240.70
529.12	2259.93
529.48	2278.67
529.84	2295.78
530.20	2313.49
530.56	2330.62
530.91	2347.87
531.27	2364.68
531.63	2380.79
531.99	2396.51
532.35	2411.57
532.71	2426.66
533.07	2442.29
533.42	2456.26
533.78	2471.13
534.14	2486.24
534.50	2500.36
534.86	2514.26
535.21	2526.30
535.57	2538.71
535.93	2551.00
536.29	2562.18
536.65	2573.14
537.00	2583.60
537.36	2594.84
537.72	2604.57
538.08	2613.91
538.44	2622.51
538.79	2630.84
539.15	2638.31
539.51	2645.36
539.87	2651.73
540.22	2656.34
540.58	2661.03
540.94	2666.89
541.29	2671.14
541.65	2673.66
542.01	2675.63
542.37	2676.83
542.72	2679.33
543.08	2680.32
543.44	2681.79
543.79	2682.23
544.15	2681.83
544.51	2681.82
544.87	2680.71
545.22	2678.94
545.58	2676.47
545.94	2674.18
546.29	2670.51
546.65	2666.78
547.01	2663.04
547.36	2660.04
547.72	2657.03
548.07	2652.38
548.43	2646.21
548.79	2639.28
549.14	2633.58
549.50	2628.03
549.86	2621.73
550.21	2614.32
550.57	2607.76
550.92	2599.05
551.28	2590.79
551.64	2582.86
551.99	2574.50
552.35	2565.59
552.70	2557.03
553.06	2548.67
553.41	2539.68
553.77	2530.51
554.13	2521.27
554.48	2511.25
554.84	2500.02
555.19	2489.31
555.55	2478.68
555.90	2468.12
556.26	2458.02
556.61	2446.84
556.97	2434.09
557.32	2421.91
557.68	2409.64
558.03	2397.19
558.39	2385.74
558.74	2374.71
559.10	2362.04
559.45	2349.53
559.81	2337.75
560.16	2325.19
560.52	2312.91
560.87	2300.94
561.23	2288.16
561.58	2275.67
561.94	2262.69
562.29	2249.21
562.64	2236.51
563.00	2223.44
563.35	2210.82
563.71	2197.94
564.06	2185.04
564.42	2172.81
564.77	2159.95
565.12	2147.08
565.48	2134.14
565.83	2121.32
566.19	2108.53
566.54	2095.73
566.89	2081.89
567.25	2068.10
567.60	2055.60
567.96	2042.36
568.31	2027.80
568.66	2013.97
569.02	2001.12
569.37	1988.32
569.72	1976.10
570.08	1962.50
570.43	1948.63
570.78	1934.57
571.14	1919.95
571.49	1905.95
571.84	1892.55
572.20	1877.94
572.55	1863.53
572.90	1849.05
573.26	1834.52
573.61	1819.55
573.96	1805.04
574.31	1790.77
574.67	1776.53
575.02	1761.48
575.37	1746.37
575.72	1732.15
576.08	1718.24
576.43	1703.20
576.78	1688.61
577.13	1674.21
577.49	1660.29
577.84	1646.89
578.19	1632.59
578.54	1618.51
578.90	1603.93
579.25	1589.22
579.60	1576.09
579.95	1562.84
580.30	1549.43
580.66	1535.85
581.01	1522.13
581.36	1508.43
581.71	1495.71
582.06	1482.81
582.42	1470.12
582.77	1457.53
583.12	1444.85
583.47	1432.09
583.82	1419.45
584.17	1406.46
584.53	1393.24
584.88	1380.29
585.23	1366.98
585.58	1354.52
585.93	1342.25
586.28	1330.67
586.63	1319.08
586.98	1307.01
587.34	1295.04
587.69	1282.80
588.04	1270.90
588.39	1259.37
588.74	1247.92
589.09	1236.31
589.44	1224.33
589.79	1212.97
590.14	1201.68
590.49	1190.39
590.84	1179.23
591.19	1168.45
591.54	1157.54
591.89	1146.71
592.25	1136.09
592.60	1125.14
592.95	1114.55
593.30	1104.12
593.65	1093.43
594.00	1082.88
594.35	1072.89
594.70	1062.48
595.05	1052.92
595.40	1043.19
595.75	1033.41
596.10	1024.09
596.45	1014.49
596.80	1005.24
597.15	995.78
597.50	986.45
597.85	977.53
598.19	968.43
598.54	959.39
598.89	950.78
599.24	942.46
599.59	933.98
599.94	926.38
600.29	918.57
600.64	910.53
600.99	902.11
601.34	894.05
601.69	885.67
602.04	877.96
602.39	870.12
602.74	862.31
603.08	854.48
603.43	846.62
603.78	838.89
604.13	831.35
604.48	823.76
604.83	816.38
605.18	808.86
605.53	801.54
605.87	794.04
606.22	786.84
606.57	779.60
606.92	772.25
607.27	764.82
607.62	757.70
607.96	750.94
608.31	744.65
608.66	738.14
609.01	731.90
609.36	725.76
609.70	719.42
610.05	713.07
610.40	706.93
610.75	700.86
611.10	695.08
611.44	689.13
611.79	683.29
612.14	677.39
612.49	671.62
612.83	666.09
613.18	660.69
613.53	655.17
613.88	649.70
614.22	644.63
614.57	639.51
614.92	634.22
615.27	629.06
615.61	623.95
615.96	618.88
616.31	613.84
616.65	608.82
617.00	604.00
617.35	599.35
617.70	594.72
618.04	590.10
618.39	585.43
618.74	581.01
619.08	576.61
619.43	572.34
619.78	568.05
620.12	563.71
620.47	559.58
620.82	555.52
621.16	551.47
621.51	547.34
621.85	543.23
622.20	539.34
622.55	535.45
622.89	531.61
623.24	527.78
623.59	523.99
623.93	520.36
624.28	516.81
624.62	513.32
624.97	509.89
625.32	506.42
625.66	502.93
626.01	499.37
626.35	495.92
626.70	492.49
627.04	489.22
627.39	485.93
627.73	482.77
628.08	479.71
628.43	476.65
628.77	473.64
629.12	470.75
629.46	467.84
629.81	464.86
630.15	461.92
630.50	459.07
630.84	456.25
631.19	453.52
631.53	450.87
631.88	448.18
632.22	445.50
632.57	443.12
632.91	440.75
633.26	438.49
633.60	436.23
633.95	434.02
634.29	431.74
634.64	429.52
634.98	427.10
635.32	424.85
635.67	422.78
636.01	420.64
636.36	418.53
636.70	416.58
637.05	414.61
637.39	412.66
637.73	410.74
638.08	408.93
638.42	407.07
638.77	405.10
639.11	403.09
639.45	401.18
639.80	399.17
640.14	397.27
640.49	395.35
640.83	393.40
641.17	391.55
641.52	389.75
641.86	387.94
642.20	386.35
642.55	384.59
642.89	382.85
643.23	381.21
643.58	379.74
643.92	378.12
644.26	376.57
644.61	375.06
644.95	373.52
645.29	371.91
645.64	370.32
645.98	368.80
646.32	367.36
646.66	365.94
647.01	364.54
647.35	363.19
647.69	361.82
648.04	360.60
648.38	359.25
648.72	357.94
649.06	356.64
649.41	355.37
649.75	354.13
650.09	352.93
650.43	351.70
650.78	350.40
651.12	349.16
651.46	347.98
651.80	346.80
652.14	345.66
652.49	344.55
652.83	343.42
653.17	342.34
653.51	341.31
653.85	340.31
654.20	339.26
654.54	338.15
654.88	337.11
655.22	336.09
655.56	335.07
655.90	334.09
656.25	333.15
656.59	332.17
656.93	331.25
657.27	330.35
657.61	329.39
657.95	328.48
658.29	327.57
658.64	326.70
658.98	325.82
659.32	324.95
659.66	324.16
660.00	323.37
660.34	322.59
660.68	321.74
661.02	320.87
661.36	320.04
661.70	319.24
662.05	318.46
662.39	317.72
662.73	317.02
663.07	316.33
663.41	315.60
663.75	314.86
664.09	314.12
664.43	313.33
664.77	312.64
665.11	311.92
665.45	311.22
665.79	310.56
666.13	309.86
666.47	309.14
666.81	308.39
667.15	307.63
667.49	306.96
667.83	306.37
668.17	305.75
668.51	305.18
668.85	304.63
669.19	304.10
669.53	303.45
669.87	302.82
670.21	302.20
670.55	301.61
670.89	301.11
671.23	300.56
671.57	300.02
671.91	299.52
672.25	299.02
672.58	298.56
672.92	297.99
673.26	297.52
673.60	297.06
673.94	296.60
674.28	296.16
674.62	295.68
674.96	295.16
675.30	294.69
675.64	294.16
675.97	293.63
676.31	293.10
676.65	292.62
676.99	292.18
677.33	291.66
677.67	291.20
678.01	290.66
678.34	290.19
678.68	289.77
679.02	289.25
679.36	288.79
679.70	288.30
680.04	287.85
680.37	287.38
680.71	286.94
681.05	286.51
681.39	286.06
681.73	285.59
682.06	285.11
682.40	284.67
682.74	284.29
683.08	283.94
683.42	283.51
683.75	283.14
684.09	282.69
684.43	282.30
684.77	281.90
685.10	281.54
685.44	281.16
685.78	280.77
686.12	280.41
686.45	280.00
686.79	279.58
687.13	279.21
687.46	278.80
687.80	278.43
688.14	278.00
688.48	277.62
688.81	277.24
689.15	276.90
689.49	276.50
689.82	276.10
690.16	275.65
690.50	275.28
690.83	274.86
691.17	274.48
691.51	274.09
691.84	273.73
692.18	273.34
692.52	272.92
692.85	272.53
693.19	272.18
693.52	271.81
693.86	271.44
694.20	271.08
694.53	270.74
694.87	270.34
695.21	269.98
695.54	269.63
695.88	269.25
696.21	268.85
696.55	268.51
696.88	268.15
697.22	267.79
697.56	267.42
697.89	267.04
698.23	266.68
698.56	266.31
698.90	265.97
699.23	265.59
699.57	265.23
699.90	264.88
700.24	264.50
700.58	264.17
700.91	263.88
701.25	263.64
701.58	263.36
701.92	263.06
702.25	262.73
702.59	262.38
702.92	262.05
703.26	261.73
703.59	261.38
703.93	261.15
704.26	260.85
704.60	260.54
704.93	260.21
705.26	259.89
705.60	259.64
705.93	259.29
706.27	259.03
706.60	258.79
706.94	258.54
707.27	258.22
707.61	257.93
707.94	257.59
708.27	257.16
708.61	256.82
708.94	256.51
709.28	256.22
709.61	255.92
709.94	255.65
710.28	255.40
710.61	255.17
710.95	254.79
711.28	254.60
711.61	254.34
711.95	254.11
712.28	253.84
712.61	253.55
712.95	253.37
713.28	253.18
713.61	252.88
713.95	252.56
714.28	252.33
714.61	252.06
714.95	251.83
715.28	251.60
715.61	251.36
715.95	251.14
716.28	250.94
716.61	250.75
716.95	250.51
717.28	250.28
717.61	250.05
717.94	249.83
718.28	249.52
718.61	249.28
718.94	249.04
719.27	248.83
719.61	248.65
719.94	248.40
720.27	248.12
720.60	247.92
720.94	247.72
721.27	247.52
721.60	247.34
721.93	247.13
722.27	246.96
722.60	246.78
722.93	246.54
723.26	246.35
723.59	246.13
723.93	245.97
724.26	245.78
724.59	245.59
724.92	245.43
725.25	245.30
725.59	245.16
725.92	245.00
726.25	244.84
726.58	244.65
726.91	244.47
727.24	244.31
727.57	244.15
727.91	243.97
728.24	243.84
728.57	243.67
728.90	243.52
729.23	243.32
729.56	243.21
729.89	243.07
730.22	242.91
730.55	242.76
730.89	242.59
731.22	242.42
731.55	242.27
731.88	242.12
732.21	241.93
732.54	241.77
732.87	241.62
733.20	241.49
733.53	241.35
733.86	241.24
734.19	241.05
734.52	240.93
734.85	240.89
735.18	240.72
735.51	240.63
735.84	240.52
736.17	240.42
736.50	240.23
736.83	240.24
737.16	240.12
737.49	240.02
737.82	239.89
738.15	239.80
738.48	239.68
738.81	239.55
739.14	239.43
739.47	239.30
739.80	239.18
740.13	239.06
740.46	238.92
740.79	238.77
741.12	238.67
741.45	238.53
741.78	238.36
742.11	238.27
742.44	238.12
742.77	238.01
743.10	237.90
743.43	237.79
743.75	237.54
744.08	237.62
744.41	237.49
744.74	237.38
745.07	237.23
745.40	237.15
745.73	237.10
746.06	236.99
746.39	236.91
746.71	236.79
747.04	236.68
747.37	236.58
747.70	236.51
748.03	236.42
748.36	236.34
748.68	236.23
749.01	236.09
749.34	236.00
749.67	235.92
750.00	235.83
750.33	235.83
750.65	235.75
750.98	235.49
751.31	235.40
751.64	235.32
751.97	235.30
752.29	235.18
752.62	235.03
752.95	234.97
753.28	234.86
753.60	234.77
753.93	234.73
754.26	234.64
754.59	234.49
754.91	234.40
755.24	234.31
755.57	234.29
755.90	234.22
756.22	234.12
756.55	234.01
756.88	233.91
757.20	233.75
757.53	233.64
757.86	233.56
758.19	233.50
758.51	233.42
758.84	233.29
759.17	233.21
759.49	233.15
759.82	233.13
760.15	233.07
760.47	233.00
760.80	232.91
761.13	232.88
761.45	232.83
761.78	232.77
762.11	232.71
762.43	232.57
762.76	232.53
763.08	232.49
763.41	232.44
763.74	232.38
764.06	232.32
764.39	232.27
764.71	232.20
765.04	232.13
765.37	232.06
765.69	232.01
766.02	231.96
766.34	231.90
766.67	231.80
767.00	231.78
767.32	231.81
767.65	231.83
767.97	231.76
768.30	231.72
768.62	231.68
768.95	231.61
769.27	231.57
769.60	231.53
769.92	231.45
770.25	231.39
770.57	231.32
770.90	231.27
771.22	231.21
771.55	231.18
771.87	231.15
772.20	231.11
772.52	231.18
772.85	231.29
773.17	231.26
773.50	231.20
773.82	231.13
774.15	231.02
774.47	230.91
774.80	230.86
775.12	230.83
775.45	230.79
775.77	230.76
776.09	230.72
776.42	230.69
776.74	230.70
777.07	230.67
777.39	230.65
777.72	230.62
778.04	230.62
778.36	230.57
778.69	230.54
779.01	230.52
779.33	230.37
779.66	230.21
779.98	230.16
780.31	230.14
780.63	230.17
780.95	230.16
781.28	230.12
781.60	230.08
781.92	230.05
782.25	230.02
782.57	229.98
782.89	229.96
783.22	229.93
783.54	229.87
783.86	229.85
784.19	229.82
784.51	229.82
784.83	229.77
785.16	229.75
785.48	229.72
785.80	229.69
786.12	229.68
786.45	229.64
786.77	229.63
787.09	229.61
787.42	229.53
787.74	229.51
788.06	229.50
788.38	229.48
788.71	229.44
789.03	229.44
789.35	229.43
789.67	229.39
789.99	229.37
790.32	229.33
790.64	229.31
790.96	229.40
791.28	229.33
791.61	229.29
791.93	229.28
792.25	229.25
792.57	229.34
792.89	229.30
793.21	229.29
793.54	229.25
793.86	229.22
794.18	229.21
794.50	229.16
794.82	229.14
795.14	229.14
795.47	229.15
795.79	229.13
796.11	229.09
796.43	229.05
796.75	229.03
797.07	229.03
797.39	229.01
797.71	228.90
798.04	228.88
798.36	228.88
798.68	228.85
799.00	228.83
799.32	228.75
799.64	228.75
799.96	228.74
800.28	228.76
800.60	228.72
800.92	228.72
801.24	228.70
801.56	228.69
801.89	228.66
802.21	228.65
802.53	228.61
802.85	228.62
803.17	228.67
803.49	228.64
803.81	228.61
804.13	228.58
804.45	228.55
804.77	228.56
805.09	228.56
805.41	228.54
805.73	228.51
806.05	228.46
806.37	228.43
806.69	228.40
807.01	228.36
807.33	228.37
807.65	228.31
807.97	228.36
808.28	228.32
808.60	228.32
808.92	228.29
809.24	228.35
809.56	228.32
809.88	228.25
810.20	228.25
810.52	228.26
810.84	228.23
811.16	228.22
811.48	228.20
811.80	228.23
812.12	228.22
812.43	228.24
812.75	228.24
813.07	228.23
813.39	228.25
813.71	228.24
814.03	228.23
814.35	228.23
814.67	228.17
814.98	228.15
815.30	228.13
815.62	228.10
815.94	228.01
816.26	228.01
816.58	228.00
816.89	228.02
817.21	227.99
817.53	227.98
817.85	227.97
818.17	227.95
818.48	227.89
