SpectraSuite Data File
++++++++++++++++++++++++++++++++++++
Date: Sat Oct 03 00:15:44 EDT 2015
User: lab3
Dark Spectrum Present: No
Reference Spectrum Present: No
Number of Sampled Component Spectra: 1
Spectrometers: USB2E7196
Integration Time (usec): 46000 (USB2E7196)
Spectra Averaged: 12000 (USB2E7196)
Boxcar Smoothing: 10 (USB2E7196)
Correct for Electrical Dark: No (USB2E7196)
Strobe/Lamp Enabled: No (USB2E7196)
Correct for Detector Non-linearity: No (USB2E7196)
Correct for Stray Light: No (USB2E7196)
Number of Pixels in Processed Spectrum: 2048
>>>>>Begin Processed Spectral Data<<<<<
339.09	0.00
339.48	214.79
339.86	216.24
340.24	217.61
340.63	218.96
341.01	222.25
341.39	221.74
341.78	223.13
342.16	224.32
342.54	224.73
342.93	213.14
343.31	223.91
343.69	224.45
344.07	224.91
344.46	225.34
344.84	225.73
345.22	225.95
345.60	226.20
345.99	226.39
346.37	226.53
346.75	226.63
347.13	226.71
347.52	226.78
347.90	226.87
348.28	226.91
348.66	226.97
349.05	226.97
349.43	227.02
349.81	227.07
350.19	227.13
350.57	227.20
350.96	227.28
351.34	227.38
351.72	227.47
352.10	227.58
352.48	227.65
352.87	227.70
353.25	227.77
353.63	227.83
354.01	227.89
354.39	227.97
354.77	228.05
355.15	228.15
355.54	228.20
355.92	228.22
356.30	228.30
356.68	228.45
357.06	228.52
357.44	228.57
357.82	228.63
358.20	228.75
358.58	228.81
358.97	228.87
359.35	228.96
359.73	229.04
360.11	229.09
360.49	229.15
360.87	229.20
361.25	229.26
361.63	229.35
362.01	229.40
362.39	229.43
362.77	229.47
363.15	229.49
363.53	229.53
363.91	229.57
364.29	229.59
364.67	229.49
365.05	229.51
365.43	229.55
365.81	229.58
366.19	229.60
366.57	229.65
366.95	229.65
367.33	229.62
367.71	229.61
368.09	229.63
368.47	229.63
368.85	229.62
369.23	229.63
369.61	229.57
369.99	229.59
370.37	229.59
370.75	229.66
371.13	229.63
371.51	229.59
371.89	229.57
372.27	229.55
372.65	229.53
373.03	229.49
373.41	229.44
373.78	229.39
374.16	229.29
374.54	229.21
374.92	229.16
375.30	229.12
375.68	229.05
376.06	229.00
376.44	228.95
376.82	228.90
377.19	228.86
377.57	228.81
377.95	228.71
378.33	228.65
378.71	228.49
379.09	228.45
379.47	228.41
379.84	228.35
380.22	228.28
380.60	228.21
380.98	228.17
381.36	228.11
381.73	228.05
382.11	228.03
382.49	227.99
382.87	227.93
383.25	227.88
383.62	227.98
384.00	227.92
384.38	227.88
384.76	227.87
385.13	227.86
385.51	227.82
385.89	227.77
386.27	227.74
386.64	227.73
387.02	227.68
387.40	227.64
387.78	227.61
388.15	227.59
388.53	227.56
388.91	227.53
389.29	227.49
389.66	227.49
390.04	227.45
390.42	227.45
390.79	227.43
391.17	227.42
391.55	227.26
391.92	227.25
392.30	227.25
392.68	227.21
393.05	227.19
393.43	227.19
393.81	227.20
394.18	227.18
394.56	227.18
394.94	227.22
395.31	227.21
395.69	227.26
396.06	227.29
396.44	227.32
396.82	227.33
397.19	227.42
397.57	227.43
397.95	227.47
398.32	227.47
398.70	227.51
399.07	227.58
399.45	227.61
399.82	227.66
400.20	227.70
400.58	227.75
400.95	227.76
401.33	227.85
401.70	228.00
402.08	228.11
402.45	228.19
402.83	228.30
403.20	228.42
403.58	228.51
403.95	228.64
404.33	228.79
404.71	228.94
405.08	229.14
405.46	229.30
405.83	229.49
406.21	229.68
406.58	229.90
406.96	230.11
407.33	230.36
407.70	230.64
408.08	231.02
408.45	231.35
408.83	231.70
409.20	232.03
409.58	232.32
409.95	232.71
410.33	233.15
410.70	233.56
411.08	234.04
411.45	234.56
411.82	235.07
412.20	235.66
412.57	236.36
412.95	236.91
413.32	237.64
413.69	238.37
414.07	239.16
414.44	240.01
414.82	240.88
415.19	241.91
415.56	242.93
415.94	244.00
416.31	245.20
416.68	246.40
417.06	247.78
417.43	249.09
417.81	250.59
418.18	252.12
418.55	253.78
418.93	255.52
419.30	257.33
419.67	259.25
420.04	261.22
420.42	263.27
420.79	265.66
421.16	268.06
421.54	270.50
421.91	273.05
422.28	275.69
422.66	278.54
423.03	281.27
423.40	284.12
423.77	287.17
424.15	290.30
424.52	293.56
424.89	297.09
425.26	300.60
425.64	303.86
426.01	307.52
426.38	311.27
426.75	315.14
427.13	319.10
427.50	323.25
427.87	327.56
428.24	331.92
428.61	336.10
428.99	340.62
429.36	345.58
429.73	350.32
430.10	355.07
430.47	359.92
430.85	364.92
431.22	370.30
431.59	375.82
431.96	381.21
432.33	387.19
432.70	392.89
433.08	399.62
433.45	405.98
433.82	412.25
434.19	419.25
434.56	426.15
434.93	432.81
435.30	439.40
435.68	446.84
436.05	454.14
436.42	461.40
436.79	468.03
437.16	475.18
437.53	482.84
437.90	490.50
438.27	497.99
438.64	506.08
439.01	513.42
439.38	520.12
439.75	526.58
440.13	533.85
440.50	540.76
440.87	546.24
441.24	552.24
441.61	558.79
441.98	563.55
442.35	569.19
442.72	574.94
443.09	580.42
443.46	583.86
443.83	586.36
444.20	588.42
444.57	591.55
444.94	593.28
445.31	595.07
445.68	596.57
446.05	597.64
446.42	597.15
446.79	596.48
447.16	595.88
447.53	595.31
447.90	592.84
448.27	590.47
448.64	586.96
449.01	584.48
449.37	579.66
449.74	575.30
450.11	569.71
450.48	563.62
450.85	557.52
451.22	552.30
451.59	547.22
451.96	542.62
452.33	535.96
452.70	530.06
453.07	522.88
453.43	515.72
453.80	508.78
454.17	502.15
454.54	496.04
454.91	489.15
455.28	482.71
455.65	476.64
456.02	470.25
456.38	465.09
456.75	458.45
457.12	453.13
457.49	447.75
457.86	442.68
458.23	438.26
458.59	433.36
458.96	428.34
459.33	423.93
459.70	419.44
460.07	416.04
460.43	412.02
460.80	408.28
461.17	405.05
461.54	401.52
461.91	398.23
462.27	394.89
462.64	392.20
463.01	389.09
463.38	385.96
463.74	383.13
464.11	380.64
464.48	378.42
464.85	375.97
465.21	374.14
465.58	372.09
465.95	369.72
466.32	367.84
466.68	366.00
467.05	364.14
467.42	362.33
467.78	360.36
468.15	358.56
468.52	357.25
468.88	355.48
469.25	353.87
469.62	352.59
469.98	351.18
470.35	349.94
470.72	348.81
471.08	347.66
471.45	346.70
471.82	345.62
472.18	344.47
472.55	343.73
472.92	342.80
473.28	342.07
473.65	341.28
474.02	340.53
474.38	339.89
474.75	339.52
475.11	339.01
475.48	338.77
475.85	338.50
476.21	338.36
476.58	338.27
476.94	338.39
477.31	338.45
477.67	338.53
478.04	338.73
478.41	339.01
478.77	339.42
479.14	339.67
479.50	340.16
479.87	340.80
480.23	341.45
480.60	342.09
480.96	342.73
481.33	343.69
481.69	344.65
482.06	345.60
482.42	346.47
482.79	347.55
483.15	348.81
483.52	350.23
483.88	351.60
484.25	353.06
484.61	354.59
484.98	356.24
485.34	358.11
485.71	360.05
486.07	362.14
486.44	364.22
486.80	366.53
487.17	368.94
487.53	371.58
487.90	374.33
488.26	377.34
488.62	380.50
488.99	383.67
489.35	387.01
489.72	390.63
490.08	394.44
490.44	398.38
490.81	402.47
491.17	406.67
491.54	411.18
491.90	415.85
492.26	420.83
492.63	426.05
492.99	431.50
493.36	437.13
493.72	443.06
494.08	449.14
494.45	455.60
494.81	462.31
495.17	469.21
495.54	476.49
495.90	484.05
496.26	491.80
496.63	499.80
496.99	508.11
497.35	516.80
497.72	525.77
498.08	534.96
498.44	544.47
498.80	554.53
499.17	564.84
499.53	575.47
499.89	586.47
500.26	597.70
500.62	609.23
500.98	621.38
501.34	633.71
501.71	646.54
502.07	659.56
502.43	673.12
502.79	686.89
503.16	701.13
503.52	715.57
503.88	730.43
504.24	745.74
504.60	761.25
504.97	777.26
505.33	793.69
505.69	811.01
506.05	828.64
506.41	846.23
506.78	864.02
507.14	882.31
507.50	901.04
507.86	920.13
508.22	939.42
508.59	958.58
508.95	978.55
509.31	999.25
509.67	1020.63
510.03	1042.01
510.39	1063.47
510.75	1085.13
511.12	1107.06
511.48	1129.14
511.84	1151.32
512.20	1173.90
512.56	1197.32
512.92	1220.75
513.28	1243.84
513.64	1267.21
514.00	1291.01
514.37	1315.09
514.73	1339.22
515.09	1363.24
515.45	1387.58
515.81	1412.09
516.17	1436.76
516.53	1460.94
516.89	1485.02
517.25	1509.29
517.61	1533.49
517.97	1558.14
518.33	1582.31
518.69	1606.39
519.05	1631.00
519.41	1655.86
519.77	1680.93
520.13	1705.30
520.49	1729.59
520.85	1754.22
521.21	1778.40
521.57	1803.00
521.93	1827.13
522.29	1851.73
522.65	1875.84
523.01	1899.90
523.37	1923.60
523.73	1947.97
524.09	1972.12
524.45	1996.08
524.81	2019.63
525.17	2043.04
525.53	2065.89
525.89	2089.19
526.25	2112.49
526.61	2134.78
526.97	2157.25
527.33	2179.63
527.68	2201.73
528.04	2223.06
528.40	2243.47
528.76	2264.19
529.12	2284.40
529.48	2304.29
529.84	2322.42
530.20	2341.18
530.56	2359.34
530.91	2377.65
531.27	2395.67
531.63	2412.80
531.99	2429.46
532.35	2445.51
532.71	2461.67
533.07	2478.49
533.42	2493.51
533.78	2509.56
534.14	2525.76
534.50	2540.98
534.86	2556.02
535.21	2569.19
535.57	2582.85
535.93	2596.28
536.29	2608.56
536.65	2620.70
537.00	2632.18
537.36	2644.54
537.72	2655.43
538.08	2665.90
538.44	2675.73
538.79	2685.09
539.15	2693.66
539.51	2701.89
539.87	2709.45
540.22	2715.06
540.58	2720.71
540.94	2727.62
541.29	2732.86
541.65	2736.43
542.01	2739.23
542.37	2741.40
542.72	2744.90
543.08	2746.71
543.44	2749.12
543.79	2750.44
544.15	2750.90
544.51	2751.79
544.87	2751.54
545.22	2750.62
545.58	2749.02
545.94	2747.40
546.29	2744.49
546.65	2741.55
547.01	2738.57
547.36	2736.30
547.72	2734.13
548.07	2730.20
548.43	2724.81
548.79	2718.52
549.14	2713.50
549.50	2708.76
549.86	2703.06
550.21	2696.21
550.57	2690.31
550.92	2682.13
551.28	2674.59
551.64	2667.34
551.99	2659.58
552.35	2651.18
552.70	2643.04
553.06	2635.20
553.41	2626.72
553.77	2618.01
554.13	2609.27
554.48	2599.66
554.84	2588.83
555.19	2578.53
555.55	2568.26
555.90	2557.99
556.26	2548.26
556.61	2537.47
556.97	2525.04
557.32	2513.15
557.68	2501.16
558.03	2488.95
558.39	2477.90
558.74	2467.11
559.10	2454.58
559.45	2442.33
559.81	2430.73
560.16	2418.47
560.52	2406.43
560.87	2394.73
561.23	2382.22
561.58	2369.82
561.94	2357.08
562.29	2343.76
562.64	2331.16
563.00	2318.21
563.35	2305.76
563.71	2293.11
564.06	2280.26
564.42	2268.19
564.77	2255.47
565.12	2242.67
565.48	2229.83
565.83	2216.96
566.19	2204.18
566.54	2191.41
566.89	2177.46
567.25	2163.67
567.60	2151.21
567.96	2137.84
568.31	2123.14
568.66	2109.18
569.02	2096.37
569.37	2083.46
569.72	2071.10
570.08	2057.45
570.43	2043.54
570.78	2029.36
571.14	2014.48
571.49	2000.28
571.84	1986.62
572.20	1971.73
572.55	1957.12
572.90	1942.38
573.26	1927.65
573.61	1912.43
573.96	1897.63
574.31	1883.07
574.67	1868.56
575.02	1853.01
575.37	1837.56
575.72	1822.97
576.08	1808.68
576.43	1793.24
576.78	1778.24
577.13	1763.49
577.49	1749.07
577.84	1735.26
578.19	1720.50
578.54	1705.95
578.90	1690.92
579.25	1675.75
579.60	1662.18
579.95	1648.48
580.30	1634.63
580.66	1620.54
581.01	1606.31
581.36	1592.06
581.71	1578.86
582.06	1565.53
582.42	1552.43
582.77	1539.37
583.12	1526.25
583.47	1512.99
583.82	1499.86
584.17	1486.39
584.53	1472.58
584.88	1459.17
585.23	1445.26
585.58	1432.21
585.93	1419.38
586.28	1407.31
586.63	1395.23
586.98	1382.67
587.34	1370.16
587.69	1357.34
588.04	1344.86
588.39	1332.80
588.74	1320.87
589.09	1308.67
589.44	1296.08
589.79	1284.15
590.14	1272.30
590.49	1260.41
590.84	1248.67
591.19	1237.31
591.54	1225.76
591.89	1214.36
592.25	1203.11
592.60	1191.54
592.95	1180.39
593.30	1169.42
593.65	1158.12
594.00	1146.95
594.35	1136.35
594.70	1125.34
595.05	1115.23
595.40	1105.00
595.75	1094.61
596.10	1084.77
596.45	1074.64
596.80	1064.83
597.15	1054.78
597.50	1044.88
597.85	1035.39
598.19	1025.71
598.54	1016.10
598.89	1006.95
599.24	998.12
599.59	989.09
599.94	981.02
600.29	972.70
600.64	964.08
600.99	955.11
601.34	946.51
601.69	937.58
602.04	929.33
602.39	920.91
602.74	912.53
603.08	904.12
603.43	895.66
603.78	887.40
604.13	879.31
604.48	871.18
604.83	863.25
605.18	855.23
605.53	847.38
605.87	839.31
606.22	831.60
606.57	823.80
606.92	815.92
607.27	807.94
607.62	800.31
607.96	793.11
608.31	786.34
608.66	779.36
609.01	772.65
609.36	766.05
609.70	759.21
610.05	752.34
610.40	745.76
610.75	739.17
611.10	732.93
611.44	726.51
611.79	720.21
612.14	713.82
612.49	707.54
612.83	701.55
613.18	695.70
613.53	689.73
613.88	683.81
614.22	678.31
614.57	672.73
614.92	667.00
615.27	661.38
615.61	655.80
615.96	650.29
616.31	644.78
616.65	639.33
617.00	634.12
617.35	629.02
617.70	623.96
618.04	618.92
618.39	613.83
618.74	609.00
619.08	604.21
619.43	599.53
619.78	594.86
620.12	590.14
620.47	585.61
620.82	581.18
621.16	576.77
621.51	572.22
621.85	567.74
622.20	563.44
622.55	559.15
622.89	554.94
623.24	550.74
623.59	546.58
623.93	542.58
624.28	538.66
624.62	534.83
624.97	531.04
625.32	527.25
625.66	523.39
626.01	519.48
626.35	515.67
626.70	511.90
627.04	508.31
627.39	504.67
627.73	501.18
628.08	497.78
628.43	494.37
628.77	491.06
629.12	487.88
629.46	484.69
629.81	481.42
630.15	478.16
630.50	474.99
630.84	471.87
631.19	468.83
631.53	465.89
631.88	462.92
632.22	459.97
632.57	457.30
632.91	454.68
633.26	452.13
633.60	449.59
633.95	447.12
634.29	444.57
634.64	442.09
634.98	439.41
635.32	436.88
635.67	434.55
636.01	432.14
636.36	429.78
636.70	427.57
637.05	425.34
637.39	423.15
637.73	420.99
638.08	418.95
638.42	416.85
638.77	414.64
639.11	412.36
639.45	410.17
639.80	407.93
640.14	405.80
640.49	403.65
640.83	401.48
641.17	399.41
641.52	397.37
641.86	395.36
642.20	393.57
642.55	391.60
642.89	389.67
643.23	387.82
643.58	386.15
643.92	384.32
644.26	382.58
644.61	380.89
644.95	379.15
645.29	377.34
645.64	375.56
645.98	373.88
646.32	372.32
646.66	370.74
647.01	369.17
647.35	367.64
647.69	366.10
648.04	364.72
648.38	363.23
648.72	361.78
649.06	360.33
649.41	358.89
649.75	357.50
650.09	356.13
650.43	354.76
650.78	353.34
651.12	351.96
651.46	350.63
651.80	349.34
652.14	348.07
652.49	346.85
652.83	345.61
653.17	344.41
653.51	343.23
653.85	342.13
654.20	340.96
654.54	339.74
654.88	338.60
655.22	337.47
655.56	336.34
655.90	335.27
656.25	334.24
656.59	333.18
656.93	332.19
657.27	331.21
657.61	330.17
657.95	329.17
658.29	328.17
658.64	327.23
658.98	326.28
659.32	325.35
659.66	324.47
660.00	323.61
660.34	322.74
660.68	321.85
661.02	320.92
661.36	320.03
661.70	319.17
662.05	318.34
662.39	317.51
662.73	316.76
663.07	316.02
663.41	315.23
663.75	314.44
664.09	313.66
664.43	312.85
664.77	312.11
665.11	311.34
665.45	310.63
665.79	309.93
666.13	309.19
666.47	308.44
666.81	307.67
667.15	306.88
667.49	306.19
667.83	305.57
668.17	304.91
668.51	304.31
668.85	303.72
669.19	303.17
669.53	302.52
669.87	301.85
670.21	301.22
670.55	300.61
670.89	300.08
671.23	299.51
671.57	298.95
671.91	298.44
672.25	297.95
672.58	297.45
672.92	296.88
673.26	296.39
673.60	295.91
673.94	295.43
674.28	295.00
674.62	294.52
674.96	293.99
675.30	293.52
675.64	293.01
675.97	292.49
676.31	291.94
676.65	291.45
676.99	291.03
677.33	290.53
677.67	290.06
678.01	289.53
678.34	289.07
678.68	288.64
679.02	288.14
679.36	287.66
679.70	287.18
680.04	286.74
680.37	286.29
680.71	285.86
681.05	285.44
681.39	284.98
681.73	284.50
682.06	284.05
682.40	283.61
682.74	283.23
683.08	282.90
683.42	282.49
683.75	282.12
684.09	281.67
684.43	281.28
684.77	280.89
685.10	280.54
685.44	280.17
685.78	279.78
686.12	279.43
686.45	279.05
686.79	278.66
687.13	278.29
687.46	277.90
687.80	277.53
688.14	277.11
688.48	276.75
688.81	276.38
689.15	276.05
689.49	275.67
689.82	275.28
690.16	274.84
690.50	274.47
690.83	274.09
691.17	273.72
691.51	273.36
691.84	273.01
692.18	272.62
692.52	272.23
692.85	271.85
693.19	271.52
693.52	271.16
693.86	270.80
694.20	270.45
694.53	270.11
694.87	269.74
695.21	269.39
695.54	269.03
695.88	268.67
696.21	268.29
696.55	267.95
696.88	267.61
697.22	267.27
697.56	266.93
697.89	266.55
698.23	266.22
698.56	265.86
698.90	265.52
699.23	265.16
699.57	264.82
699.90	264.48
700.24	264.12
700.58	263.81
700.91	263.53
701.25	263.31
701.58	263.05
701.92	262.78
702.25	262.48
702.59	262.17
702.92	261.86
703.26	261.55
703.59	261.23
703.93	261.02
704.26	260.73
704.60	260.42
704.93	260.11
705.26	259.81
705.60	259.55
705.93	259.22
706.27	258.97
706.60	258.72
706.94	258.48
707.27	258.15
707.61	257.85
707.94	257.53
708.27	257.12
708.61	256.78
708.94	256.46
709.28	256.18
709.61	255.90
709.94	255.64
710.28	255.39
710.61	255.16
710.95	254.80
711.28	254.61
711.61	254.35
711.95	254.13
712.28	253.87
712.61	253.59
712.95	253.42
713.28	253.24
713.61	252.95
713.95	252.66
714.28	252.44
714.61	252.19
714.95	251.95
715.28	251.72
715.61	251.49
715.95	251.28
716.28	251.06
716.61	250.87
716.95	250.63
717.28	250.41
717.61	250.17
717.94	249.95
718.28	249.65
718.61	249.43
718.94	249.19
719.27	248.98
719.61	248.79
719.94	248.55
720.27	248.26
720.60	248.05
720.94	247.85
721.27	247.66
721.60	247.48
721.93	247.28
722.27	247.13
722.60	246.95
722.93	246.74
723.26	246.54
723.59	246.32
723.93	246.14
724.26	245.95
724.59	245.76
724.92	245.59
725.25	245.46
725.59	245.28
725.92	245.14
726.25	244.97
726.58	244.79
726.91	244.61
727.24	244.47
727.57	244.30
727.91	244.12
728.24	243.97
728.57	243.80
728.90	243.65
729.23	243.44
729.56	243.33
729.89	243.17
730.22	243.00
730.55	242.85
730.89	242.69
731.22	242.53
731.55	242.37
731.88	242.22
732.21	242.04
732.54	241.88
732.87	241.73
733.20	241.59
733.53	241.45
733.86	241.32
734.19	241.15
734.52	241.03
734.85	240.98
735.18	240.81
735.51	240.71
735.84	240.58
736.17	240.48
736.50	240.29
736.83	240.31
737.16	240.18
737.49	240.06
737.82	239.93
738.15	239.82
738.48	239.70
738.81	239.58
739.14	239.45
739.47	239.32
739.80	239.19
740.13	239.07
740.46	238.93
740.79	238.79
741.12	238.67
741.45	238.52
741.78	238.33
742.11	238.25
742.44	238.10
742.77	238.00
743.10	237.86
743.43	237.74
743.75	237.50
744.08	237.58
744.41	237.46
744.74	237.35
745.07	237.21
745.40	237.12
745.73	237.07
746.06	236.97
746.39	236.88
746.71	236.78
747.04	236.66
747.37	236.56
747.70	236.49
748.03	236.41
748.36	236.34
748.68	236.24
749.01	236.10
749.34	236.02
749.67	235.92
750.00	235.85
750.33	235.85
750.65	235.77
750.98	235.49
751.31	235.41
751.64	235.33
751.97	235.31
752.29	235.21
752.62	235.07
752.95	234.97
753.28	234.87
753.60	234.78
753.93	234.72
754.26	234.65
754.59	234.52
754.91	234.42
755.24	234.32
755.57	234.29
755.90	234.21
756.22	234.12
756.55	234.01
756.88	233.90
757.20	233.73
757.53	233.62
757.86	233.54
758.19	233.47
758.51	233.40
758.84	233.25
759.17	233.17
759.49	233.11
759.82	233.09
760.15	233.04
760.47	232.97
760.80	232.86
761.13	232.81
761.45	232.76
761.78	232.70
762.11	232.63
762.43	232.51
762.76	232.44
763.08	232.39
763.41	232.35
763.74	232.29
764.06	232.24
764.39	232.18
764.71	232.13
765.04	232.06
765.37	231.99
765.69	231.94
766.02	231.88
766.34	231.81
766.67	231.71
767.00	231.68
767.32	231.70
767.65	231.73
767.97	231.66
768.30	231.62
768.62	231.57
768.95	231.50
769.27	231.45
769.60	231.42
769.92	231.35
770.25	231.28
770.57	231.21
770.90	231.16
771.22	231.10
771.55	231.06
771.87	231.02
772.20	230.97
772.52	231.04
772.85	231.15
773.17	231.11
773.50	231.06
773.82	231.00
774.15	230.89
774.47	230.77
774.80	230.72
775.12	230.67
775.45	230.63
775.77	230.60
776.09	230.58
776.42	230.54
776.74	230.55
777.07	230.51
777.39	230.49
777.72	230.45
778.04	230.43
778.36	230.39
778.69	230.36
779.01	230.34
779.33	230.20
779.66	230.02
779.98	229.98
780.31	229.96
780.63	229.98
780.95	229.97
781.28	229.94
781.60	229.91
781.92	229.88
782.25	229.86
782.57	229.83
782.89	229.79
783.22	229.76
783.54	229.70
783.86	229.68
784.19	229.65
784.51	229.67
784.83	229.63
785.16	229.60
785.48	229.58
785.80	229.55
786.12	229.54
786.45	229.51
786.77	229.50
787.09	229.47
787.42	229.40
787.74	229.38
788.06	229.36
788.38	229.33
788.71	229.30
789.03	229.29
789.35	229.28
789.67	229.25
789.99	229.23
790.32	229.20
790.64	229.19
790.96	229.28
791.28	229.22
791.61	229.19
791.93	229.18
792.25	229.15
792.57	229.22
792.89	229.18
793.21	229.17
793.54	229.13
793.86	229.10
794.18	229.09
794.50	229.04
794.82	229.03
795.14	229.02
795.47	229.03
795.79	229.01
796.11	228.96
796.43	228.95
796.75	228.93
797.07	228.93
797.39	228.90
797.71	228.78
798.04	228.77
798.36	228.76
798.68	228.74
799.00	228.74
799.32	228.66
799.64	228.67
799.96	228.65
800.28	228.66
800.60	228.64
800.92	228.64
801.24	228.62
801.56	228.62
801.89	228.59
802.21	228.58
802.53	228.54
802.85	228.55
803.17	228.60
803.49	228.56
803.81	228.53
804.13	228.51
804.45	228.48
804.77	228.48
805.09	228.46
805.41	228.43
805.73	228.39
806.05	228.35
806.37	228.33
806.69	228.30
807.01	228.27
807.33	228.27
807.65	228.21
807.97	228.25
808.28	228.22
808.60	228.22
808.92	228.18
809.24	228.25
809.56	228.21
809.88	228.16
810.20	228.15
810.52	228.17
810.84	228.14
811.16	228.12
811.48	228.09
811.80	228.13
812.12	228.11
812.43	228.13
812.75	228.13
813.07	228.10
813.39	228.10
813.71	228.08
814.03	228.06
814.35	228.06
814.67	228.00
814.98	227.97
815.30	227.96
815.62	227.93
815.94	227.84
816.26	227.84
816.58	227.81
816.89	227.81
817.21	227.77
817.53	227.78
817.85	227.77
818.17	227.76
818.48	227.70
