SpectraSuite Data File
++++++++++++++++++++++++++++++++++++
Date: Fri Oct 02 19:00:08 EDT 2015
User: lab3
Dark Spectrum Present: No
Reference Spectrum Present: No
Number of Sampled Component Spectra: 1
Spectrometers: USB2E7196
Integration Time (usec): 46000 (USB2E7196)
Spectra Averaged: 1500 (USB2E7196)
Boxcar Smoothing: 10 (USB2E7196)
Correct for Electrical Dark: No (USB2E7196)
Strobe/Lamp Enabled: No (USB2E7196)
Correct for Detector Non-linearity: No (USB2E7196)
Correct for Stray Light: No (USB2E7196)
Number of Pixels in Processed Spectrum: 2048
>>>>>Begin Processed Spectral Data<<<<<
339.09	0.00
339.48	215.69
339.86	217.19
340.24	218.59
340.63	219.86
341.01	223.32
341.39	222.59
341.78	224.11
342.16	225.24
342.54	225.73
342.93	214.05
343.31	224.86
343.69	225.40
344.07	225.86
344.46	226.28
344.84	226.67
345.22	226.88
345.60	227.13
345.99	227.32
346.37	227.45
346.75	227.55
347.13	227.63
347.52	227.70
347.90	227.79
348.28	227.82
348.66	227.88
349.05	227.87
349.43	227.94
349.81	227.98
350.19	228.04
350.57	228.11
350.96	228.19
351.34	228.29
351.72	228.39
352.10	228.48
352.48	228.56
352.87	228.62
353.25	228.70
353.63	228.76
354.01	228.83
354.39	228.90
354.77	228.98
355.15	229.09
355.54	229.14
355.92	229.17
356.30	229.25
356.68	229.40
357.06	229.47
357.44	229.51
357.82	229.58
358.20	229.70
358.58	229.75
358.97	229.82
359.35	229.90
359.73	229.98
360.11	230.04
360.49	230.09
360.87	230.13
361.25	230.18
361.63	230.27
362.01	230.31
362.39	230.34
362.77	230.38
363.15	230.39
363.53	230.43
363.91	230.46
364.29	230.47
364.67	230.37
365.05	230.39
365.43	230.42
365.81	230.44
366.19	230.45
366.57	230.51
366.95	230.50
367.33	230.48
367.71	230.47
368.09	230.49
368.47	230.48
368.85	230.48
369.23	230.50
369.61	230.44
369.99	230.46
370.37	230.46
370.75	230.54
371.13	230.51
371.51	230.46
371.89	230.44
372.27	230.42
372.65	230.40
373.03	230.35
373.41	230.30
373.78	230.26
374.16	230.15
374.54	230.07
374.92	230.01
375.30	229.97
375.68	229.90
376.06	229.87
376.44	229.81
376.82	229.78
377.19	229.72
377.57	229.68
377.95	229.58
378.33	229.53
378.71	229.37
379.09	229.32
379.47	229.30
379.84	229.24
380.22	229.18
380.60	229.11
380.98	229.06
381.36	229.01
381.73	228.96
382.11	228.94
382.49	228.90
382.87	228.84
383.25	228.79
383.62	228.90
384.00	228.83
384.38	228.79
384.76	228.77
385.13	228.77
385.51	228.73
385.89	228.68
386.27	228.65
386.64	228.63
387.02	228.58
387.40	228.53
387.78	228.51
388.15	228.49
388.53	228.47
388.91	228.43
389.29	228.41
389.66	228.40
390.04	228.36
390.42	228.37
390.79	228.36
391.17	228.34
391.55	228.18
391.92	228.16
392.30	228.16
392.68	228.12
393.05	228.09
393.43	228.09
393.81	228.09
394.18	228.08
394.56	228.08
394.94	228.11
395.31	228.10
395.69	228.14
396.06	228.18
396.44	228.19
396.82	228.21
397.19	228.31
397.57	228.32
397.95	228.36
398.32	228.35
398.70	228.39
399.07	228.46
399.45	228.50
399.82	228.55
400.20	228.59
400.58	228.64
400.95	228.66
401.33	228.75
401.70	228.91
402.08	229.01
402.45	229.10
402.83	229.21
403.20	229.32
403.58	229.41
403.95	229.54
404.33	229.69
404.71	229.83
405.08	230.03
405.46	230.19
405.83	230.36
406.21	230.56
406.58	230.77
406.96	230.97
407.33	231.22
407.70	231.49
408.08	231.87
408.45	232.19
408.83	232.53
409.20	232.84
409.58	233.11
409.95	233.49
410.33	233.91
410.70	234.31
411.08	234.78
411.45	235.28
411.82	235.77
412.20	236.36
412.57	237.04
412.95	237.56
413.32	238.26
413.69	238.98
414.07	239.74
414.44	240.57
414.82	241.41
415.19	242.39
415.56	243.39
415.94	244.42
416.31	245.59
416.68	246.76
417.06	248.11
417.43	249.39
417.81	250.85
418.18	252.34
418.55	253.96
418.93	255.64
419.30	257.40
419.67	259.28
420.04	261.20
420.42	263.19
420.79	265.52
421.16	267.85
421.54	270.23
421.91	272.71
422.28	275.29
422.66	278.06
423.03	280.72
423.40	283.50
423.77	286.48
424.15	289.53
424.52	292.72
424.89	296.17
425.26	299.58
425.64	302.76
426.01	306.32
426.38	309.99
426.75	313.75
427.13	317.61
427.50	321.66
427.87	325.85
428.24	330.10
428.61	334.19
428.99	338.61
429.36	343.43
429.73	348.06
430.10	352.69
430.47	357.43
430.85	362.31
431.22	367.55
431.59	372.93
431.96	378.18
432.33	384.00
432.70	389.56
433.08	396.12
433.45	402.32
433.82	408.45
434.19	415.26
434.56	422.00
434.93	428.49
435.30	434.91
435.68	442.18
436.05	449.27
436.42	456.33
436.79	462.78
437.16	469.77
437.53	477.23
437.90	484.68
438.27	491.97
438.64	499.83
439.01	506.95
439.38	513.45
439.75	519.73
440.13	526.80
440.50	533.48
440.87	538.78
441.24	544.60
441.61	550.93
441.98	555.52
442.35	560.98
442.72	566.54
443.09	571.82
443.46	575.13
443.83	577.54
444.20	579.51
444.57	582.50
444.94	584.11
445.31	585.79
445.68	587.22
446.05	588.18
446.42	587.65
446.79	586.94
447.16	586.31
447.53	585.71
447.90	583.28
448.27	580.96
448.64	577.51
449.01	575.07
449.37	570.36
449.74	566.08
450.11	560.62
450.48	554.66
450.85	548.71
451.22	543.60
451.59	538.63
451.96	534.14
452.33	527.65
452.70	521.91
453.07	514.92
453.43	507.95
453.80	501.21
454.17	494.77
454.54	488.84
454.91	482.15
455.28	475.89
455.65	469.98
456.02	463.76
456.38	458.74
456.75	452.28
457.12	447.10
457.49	441.89
457.86	436.97
458.23	432.67
458.59	427.91
458.96	423.04
459.33	418.76
459.70	414.39
460.07	411.10
460.43	407.20
460.80	403.58
461.17	400.43
461.54	397.01
461.91	393.81
462.27	390.57
462.64	387.96
463.01	384.92
463.38	381.88
463.74	379.13
464.11	376.71
464.48	374.55
464.85	372.18
465.21	370.40
465.58	368.40
465.95	366.10
466.32	364.27
466.68	362.48
467.05	360.67
467.42	358.91
467.78	357.01
468.15	355.25
468.52	353.97
468.88	352.26
469.25	350.69
469.62	349.46
469.98	348.10
470.35	346.89
470.72	345.81
471.08	344.68
471.45	343.75
471.82	342.71
472.18	341.59
472.55	340.88
472.92	339.97
473.28	339.26
473.65	338.49
474.02	337.78
474.38	337.18
474.75	336.83
475.11	336.35
475.48	336.12
475.85	335.88
476.21	335.75
476.58	335.66
476.94	335.80
477.31	335.87
477.67	335.96
478.04	336.17
478.41	336.45
478.77	336.88
479.14	337.14
479.50	337.62
479.87	338.27
480.23	338.92
480.60	339.56
480.96	340.22
481.33	341.16
481.69	342.11
482.06	343.03
482.42	343.91
482.79	344.97
483.15	346.19
483.52	347.59
483.88	348.95
484.25	350.38
484.61	351.87
484.98	353.49
485.34	355.32
485.71	357.21
486.07	359.25
486.44	361.27
486.80	363.54
487.17	365.91
487.53	368.48
487.90	371.19
488.26	374.13
488.62	377.22
488.99	380.32
489.35	383.59
489.72	387.16
490.08	390.88
490.44	394.73
490.81	398.73
491.17	402.85
491.54	407.26
491.90	411.86
492.26	416.73
492.63	421.85
492.99	427.20
493.36	432.74
493.72	438.56
494.08	444.51
494.45	450.83
494.81	457.40
495.17	464.18
495.54	471.31
495.90	478.72
496.26	486.32
496.63	494.18
496.99	502.32
497.35	510.85
497.72	519.65
498.08	528.68
498.44	538.02
498.80	547.90
499.17	558.02
499.53	568.43
499.89	579.26
500.26	590.28
500.62	601.61
500.98	613.53
501.34	625.65
501.71	638.27
502.07	651.11
502.43	664.48
502.79	678.01
503.16	692.00
503.52	706.23
503.88	720.90
504.24	735.97
504.60	751.29
504.97	767.10
505.33	783.31
505.69	800.41
506.05	817.79
506.41	835.15
506.78	852.76
507.14	870.84
507.50	889.36
507.86	908.24
508.22	927.34
508.59	946.30
508.95	966.12
509.31	986.69
509.67	1007.86
510.03	1029.02
510.39	1050.35
510.75	1071.90
511.12	1093.67
511.48	1115.56
511.84	1137.61
512.20	1160.10
512.56	1183.39
512.92	1206.72
513.28	1229.71
513.64	1253.03
514.00	1276.73
514.37	1300.67
514.73	1324.76
515.09	1348.75
515.45	1373.12
515.81	1397.55
516.17	1422.23
516.53	1446.32
516.89	1470.37
517.25	1494.68
517.61	1518.92
517.97	1543.62
518.33	1567.80
518.69	1591.94
519.05	1616.69
519.41	1641.72
519.77	1666.79
520.13	1691.28
520.49	1715.71
520.85	1740.51
521.21	1764.77
521.57	1789.53
521.93	1813.83
522.29	1838.52
522.65	1862.81
523.01	1887.04
523.37	1910.95
523.73	1935.56
524.09	1959.95
524.45	1984.10
524.81	2007.87
525.17	2031.53
525.53	2054.58
525.89	2078.12
526.25	2101.68
526.61	2124.20
526.97	2146.87
527.33	2169.61
527.68	2191.92
528.04	2213.52
528.40	2234.15
528.76	2255.32
529.12	2275.88
529.48	2296.05
529.84	2314.58
530.20	2333.74
530.56	2352.31
530.91	2371.06
531.27	2389.40
531.63	2406.97
531.99	2424.18
532.35	2440.73
532.71	2457.27
533.07	2474.50
533.42	2489.99
533.78	2506.52
534.14	2523.19
534.50	2538.81
534.86	2554.28
535.21	2567.91
535.57	2582.05
535.93	2596.01
536.29	2608.67
536.65	2621.33
537.00	2633.34
537.36	2646.22
537.72	2657.50
538.08	2668.43
538.44	2678.75
538.79	2688.66
539.15	2697.69
539.51	2706.29
539.87	2714.19
540.22	2720.37
540.58	2726.64
540.94	2734.12
541.29	2739.79
541.65	2743.78
542.01	2747.19
542.37	2749.90
542.72	2753.95
543.08	2756.29
543.44	2759.21
543.79	2761.00
544.15	2761.95
544.51	2763.36
544.87	2763.66
545.22	2763.21
545.58	2762.06
545.94	2760.91
546.29	2758.43
546.65	2756.02
547.01	2753.62
547.36	2751.92
547.72	2750.08
548.07	2746.56
548.43	2741.49
548.79	2735.73
549.14	2731.21
549.50	2726.81
549.86	2721.47
550.21	2715.03
550.57	2709.50
550.92	2701.69
551.28	2694.63
551.64	2687.73
551.99	2680.28
552.35	2672.14
552.70	2664.38
553.06	2656.85
553.41	2648.66
553.77	2640.29
554.13	2631.80
554.48	2622.35
554.84	2611.82
555.19	2601.92
555.55	2591.96
555.90	2581.98
556.26	2572.49
556.61	2561.87
556.97	2549.65
557.32	2537.98
557.68	2526.18
558.03	2514.25
558.39	2503.42
558.74	2492.83
559.10	2480.53
559.45	2468.58
559.81	2457.26
560.16	2445.18
560.52	2433.35
560.87	2421.80
561.23	2409.38
561.58	2397.21
561.94	2384.61
562.29	2371.35
562.64	2358.85
563.00	2346.01
563.35	2333.72
563.71	2321.12
564.06	2308.36
564.42	2296.39
564.77	2283.77
565.12	2271.06
565.48	2258.22
565.83	2245.44
566.19	2232.68
566.54	2219.92
566.89	2205.88
567.25	2192.09
567.60	2179.59
567.96	2166.21
568.31	2151.54
568.66	2137.65
569.02	2124.79
569.37	2111.89
569.72	2099.58
570.08	2085.90
570.43	2071.96
570.78	2057.67
571.14	2042.71
571.49	2028.55
571.84	2014.89
572.20	1999.89
572.55	1985.24
572.90	1970.34
573.26	1955.46
573.61	1940.04
573.96	1925.07
574.31	1910.48
574.67	1895.77
575.02	1880.14
575.37	1864.55
575.72	1849.83
576.08	1835.40
576.43	1819.75
576.78	1804.54
577.13	1789.66
577.49	1775.09
577.84	1761.08
578.19	1746.14
578.54	1731.46
578.90	1716.28
579.25	1700.95
579.60	1687.26
579.95	1673.36
580.30	1659.37
580.66	1645.09
581.01	1630.71
581.36	1616.38
581.71	1603.04
582.06	1589.52
582.42	1576.23
582.77	1562.96
583.12	1549.59
583.47	1536.16
583.82	1522.84
584.17	1509.18
584.53	1495.11
584.88	1481.43
585.23	1467.30
585.58	1454.08
585.93	1441.09
586.28	1428.78
586.63	1416.52
586.98	1403.71
587.34	1390.94
587.69	1377.93
588.04	1365.25
588.39	1353.03
588.74	1340.85
589.09	1328.44
589.44	1315.68
589.79	1303.58
590.14	1291.56
590.49	1279.54
590.84	1267.56
591.19	1256.04
591.54	1244.32
591.89	1232.77
592.25	1221.35
592.60	1209.63
592.95	1198.30
593.30	1187.11
593.65	1175.62
594.00	1164.23
594.35	1153.42
594.70	1142.29
595.05	1132.04
595.40	1121.65
595.75	1111.05
596.10	1101.07
596.45	1090.71
596.80	1080.70
597.15	1070.51
597.50	1060.45
597.85	1050.74
598.19	1040.93
598.54	1031.19
598.89	1021.88
599.24	1012.88
599.59	1003.78
599.94	995.57
600.29	987.10
600.64	978.34
600.99	969.19
601.34	960.46
601.69	951.43
602.04	943.01
602.39	934.48
602.74	925.93
603.08	917.38
603.43	908.81
603.78	900.44
604.13	892.28
604.48	883.99
604.83	875.93
605.18	867.80
605.53	859.82
605.87	851.58
606.22	843.76
606.57	835.83
606.92	827.76
607.27	819.64
607.62	811.92
607.96	804.61
608.31	797.75
608.66	790.69
609.01	783.91
609.36	777.24
609.70	770.26
610.05	763.33
610.40	756.68
610.75	749.99
611.10	743.65
611.44	737.14
611.79	730.74
612.14	724.26
612.49	717.92
612.83	711.86
613.18	705.96
613.53	699.90
613.88	693.93
614.22	688.40
614.57	682.75
614.92	676.90
615.27	671.22
615.61	665.60
615.96	660.02
616.31	654.43
616.65	648.91
617.00	643.67
617.35	638.52
617.70	633.40
618.04	628.28
618.39	623.14
618.74	618.27
619.08	613.43
619.43	608.70
619.78	603.99
620.12	599.20
620.47	594.63
620.82	590.18
621.16	585.67
621.51	581.07
621.85	576.54
622.20	572.22
622.55	567.89
622.89	563.60
623.24	559.34
623.59	555.15
623.93	551.11
624.28	547.15
624.62	543.30
624.97	539.48
625.32	535.67
625.66	531.78
626.01	527.83
626.35	523.99
626.70	520.20
627.04	516.57
627.39	512.93
627.73	509.43
628.08	506.01
628.43	502.62
628.77	499.32
629.12	496.12
629.46	492.89
629.81	489.61
630.15	486.36
630.50	483.19
630.84	480.07
631.19	477.01
631.53	474.07
631.88	471.07
632.22	468.10
632.57	465.43
632.91	462.79
633.26	460.26
633.60	457.70
633.95	455.25
634.29	452.67
634.64	450.18
634.98	447.47
635.32	444.93
635.67	442.59
636.01	440.15
636.36	437.79
636.70	435.59
637.05	433.36
637.39	431.15
637.73	428.98
638.08	426.92
638.42	424.82
638.77	422.58
639.11	420.29
639.45	418.10
639.80	415.86
640.14	413.73
640.49	411.56
640.83	409.39
641.17	407.30
641.52	405.27
641.86	403.24
642.20	401.45
642.55	399.49
642.89	397.55
643.23	395.69
643.58	394.02
643.92	392.19
644.26	390.44
644.61	388.74
644.95	386.99
645.29	385.17
645.64	383.40
645.98	381.72
646.32	380.16
646.66	378.57
647.01	377.00
647.35	375.48
647.69	373.93
648.04	372.54
648.38	371.05
648.72	369.59
649.06	368.13
649.41	366.68
649.75	365.30
650.09	363.92
650.43	362.55
650.78	361.12
651.12	359.74
651.46	358.39
651.80	357.08
652.14	355.82
652.49	354.59
652.83	353.34
653.17	352.12
653.51	350.94
653.85	349.82
654.20	348.63
654.54	347.39
654.88	346.25
655.22	345.13
655.56	343.98
655.90	342.90
656.25	341.86
656.59	340.79
656.93	339.77
657.27	338.77
657.61	337.72
657.95	336.71
658.29	335.70
658.64	334.76
658.98	333.80
659.32	332.85
659.66	331.95
660.00	331.07
660.34	330.19
660.68	329.28
661.02	328.33
661.36	327.42
661.70	326.53
662.05	325.67
662.39	324.80
662.73	324.03
663.07	323.26
663.41	322.44
663.75	321.63
664.09	320.83
664.43	319.99
664.77	319.23
665.11	318.41
665.45	317.68
665.79	316.94
666.13	316.15
666.47	315.36
666.81	314.56
667.15	313.74
667.49	313.03
667.83	312.37
668.17	311.69
668.51	311.06
668.85	310.45
669.19	309.86
669.53	309.18
669.87	308.48
670.21	307.82
670.55	307.19
670.89	306.62
671.23	306.02
671.57	305.43
671.91	304.88
672.25	304.34
672.58	303.80
672.92	303.19
673.26	302.68
673.60	302.17
673.94	301.66
674.28	301.20
674.62	300.67
674.96	300.10
675.30	299.60
675.64	299.04
675.97	298.48
676.31	297.91
676.65	297.38
676.99	296.93
677.33	296.39
677.67	295.88
678.01	295.31
678.34	294.81
678.68	294.34
679.02	293.81
679.36	293.30
679.70	292.78
680.04	292.30
680.37	291.81
680.71	291.34
681.05	290.89
681.39	290.36
681.73	289.85
682.06	289.36
682.40	288.89
682.74	288.48
683.08	288.11
683.42	287.66
683.75	287.25
684.09	286.76
684.43	286.33
684.77	285.89
685.10	285.51
685.44	285.09
685.78	284.66
686.12	284.26
686.45	283.84
686.79	283.42
687.13	283.01
687.46	282.59
687.80	282.17
688.14	281.72
688.48	281.34
688.81	280.93
689.15	280.56
689.49	280.14
689.82	279.71
690.16	279.24
690.50	278.84
690.83	278.42
691.17	278.00
691.51	277.61
691.84	277.23
692.18	276.79
692.52	276.36
692.85	275.96
693.19	275.59
693.52	275.20
693.86	274.79
694.20	274.41
694.53	274.03
694.87	273.63
695.21	273.23
695.54	272.85
695.88	272.46
696.21	272.03
696.55	271.65
696.88	271.28
697.22	270.90
697.56	270.52
697.89	270.11
698.23	269.73
698.56	269.33
698.90	268.96
699.23	268.58
699.57	268.21
699.90	267.84
700.24	267.45
700.58	267.12
700.91	266.81
701.25	266.57
701.58	266.27
701.92	265.96
702.25	265.63
702.59	265.28
702.92	264.94
703.26	264.60
703.59	264.25
703.93	264.00
704.26	263.68
704.60	263.34
704.93	263.01
705.26	262.67
705.60	262.39
705.93	262.02
706.27	261.74
706.60	261.47
706.94	261.20
707.27	260.84
707.61	260.52
707.94	260.17
708.27	259.74
708.61	259.37
708.94	259.04
709.28	258.73
709.61	258.43
709.94	258.16
710.28	257.88
710.61	257.62
710.95	257.24
711.28	257.04
711.61	256.77
711.95	256.52
712.28	256.25
712.61	255.96
712.95	255.78
713.28	255.57
713.61	255.26
713.95	254.96
714.28	254.71
714.61	254.43
714.95	254.18
715.28	253.94
715.61	253.69
715.95	253.46
716.28	253.23
716.61	253.02
716.95	252.75
717.28	252.52
717.61	252.28
717.94	252.05
718.28	251.71
718.61	251.47
718.94	251.21
719.27	250.98
719.61	250.78
719.94	250.51
720.27	250.21
720.60	249.98
720.94	249.76
721.27	249.55
721.60	249.36
721.93	249.13
722.27	248.95
722.60	248.76
722.93	248.53
723.26	248.32
723.59	248.07
723.93	247.88
724.26	247.67
724.59	247.47
724.92	247.28
725.25	247.14
725.59	246.96
725.92	246.81
726.25	246.63
726.58	246.45
726.91	246.26
727.24	246.10
727.57	245.93
727.91	245.74
728.24	245.60
728.57	245.42
728.90	245.28
729.23	245.06
729.56	244.94
729.89	244.76
730.22	244.58
730.55	244.43
730.89	244.26
731.22	244.11
731.55	243.93
731.88	243.77
732.21	243.58
732.54	243.42
732.87	243.27
733.20	243.12
733.53	242.97
733.86	242.83
734.19	242.66
734.52	242.53
734.85	242.47
735.18	242.29
735.51	242.17
735.84	242.03
736.17	241.94
736.50	241.74
736.83	241.76
737.16	241.63
737.49	241.50
737.82	241.36
738.15	241.25
738.48	241.12
738.81	240.98
739.14	240.85
739.47	240.71
739.80	240.57
740.13	240.44
740.46	240.29
740.79	240.15
741.12	240.02
741.45	239.87
741.78	239.68
742.11	239.58
742.44	239.44
742.77	239.35
743.10	239.20
743.43	239.08
743.75	238.83
744.08	238.91
744.41	238.78
744.74	238.66
745.07	238.52
745.40	238.44
745.73	238.39
746.06	238.29
746.39	238.19
746.71	238.08
747.04	237.96
747.37	237.86
747.70	237.78
748.03	237.69
748.36	237.62
748.68	237.52
749.01	237.38
749.34	237.28
749.67	237.17
750.00	237.09
750.33	237.08
750.65	237.00
750.98	236.73
751.31	236.64
751.64	236.56
751.97	236.54
752.29	236.43
752.62	236.28
752.95	236.19
753.28	236.08
753.60	235.99
753.93	235.93
754.26	235.86
754.59	235.73
754.91	235.63
755.24	235.53
755.57	235.50
755.90	235.41
756.22	235.32
756.55	235.20
756.88	235.09
757.20	234.92
757.53	234.80
757.86	234.72
758.19	234.64
758.51	234.56
758.84	234.43
759.17	234.33
759.49	234.26
759.82	234.24
760.15	234.18
760.47	234.10
760.80	233.98
761.13	233.92
761.45	233.86
761.78	233.80
762.11	233.73
762.43	233.59
762.76	233.52
763.08	233.47
763.41	233.43
763.74	233.38
764.06	233.32
764.39	233.27
764.71	233.21
765.04	233.14
765.37	233.07
765.69	233.02
766.02	232.96
766.34	232.89
766.67	232.79
767.00	232.76
767.32	232.78
767.65	232.80
767.97	232.75
768.30	232.71
768.62	232.65
768.95	232.58
769.27	232.53
769.60	232.50
769.92	232.43
770.25	232.35
770.57	232.28
770.90	232.23
771.22	232.16
771.55	232.11
771.87	232.07
772.20	232.03
772.52	232.08
772.85	232.19
773.17	232.16
773.50	232.10
773.82	232.04
774.15	231.93
774.47	231.82
774.80	231.75
775.12	231.71
775.45	231.67
775.77	231.63
776.09	231.61
776.42	231.57
776.74	231.56
777.07	231.53
777.39	231.49
777.72	231.44
778.04	231.43
778.36	231.39
778.69	231.36
779.01	231.34
779.33	231.20
779.66	231.02
779.98	230.97
780.31	230.94
780.63	230.96
780.95	230.96
781.28	230.92
781.60	230.90
781.92	230.87
782.25	230.84
782.57	230.81
782.89	230.77
783.22	230.73
783.54	230.68
783.86	230.65
784.19	230.62
784.51	230.64
784.83	230.59
785.16	230.56
785.48	230.53
785.80	230.50
786.12	230.49
786.45	230.47
786.77	230.45
787.09	230.42
787.42	230.36
787.74	230.33
788.06	230.31
788.38	230.27
788.71	230.24
789.03	230.22
789.35	230.22
789.67	230.18
789.99	230.17
790.32	230.14
790.64	230.14
790.96	230.24
791.28	230.17
791.61	230.15
791.93	230.15
792.25	230.12
792.57	230.19
792.89	230.14
793.21	230.13
793.54	230.10
793.86	230.07
794.18	230.05
794.50	230.00
794.82	229.99
795.14	229.99
795.47	230.00
795.79	229.99
796.11	229.95
796.43	229.93
796.75	229.91
797.07	229.90
797.39	229.88
797.71	229.76
798.04	229.75
798.36	229.74
798.68	229.72
799.00	229.71
799.32	229.63
799.64	229.64
799.96	229.62
800.28	229.62
800.60	229.61
800.92	229.61
801.24	229.59
801.56	229.58
801.89	229.55
802.21	229.54
802.53	229.50
802.85	229.51
803.17	229.56
803.49	229.52
803.81	229.48
804.13	229.45
804.45	229.42
804.77	229.42
805.09	229.41
805.41	229.38
805.73	229.36
806.05	229.31
806.37	229.28
806.69	229.26
807.01	229.23
807.33	229.23
807.65	229.17
807.97	229.22
808.28	229.19
808.60	229.18
808.92	229.14
809.24	229.21
809.56	229.17
809.88	229.11
810.20	229.10
810.52	229.12
810.84	229.09
811.16	229.07
811.48	229.04
811.80	229.08
812.12	229.07
812.43	229.08
812.75	229.08
813.07	229.06
813.39	229.05
813.71	229.03
814.03	229.00
814.35	229.00
814.67	228.94
814.98	228.91
815.30	228.90
815.62	228.88
815.94	228.79
816.26	228.80
816.58	228.77
816.89	228.77
817.21	228.73
817.53	228.74
817.85	228.74
818.17	228.73
818.48	228.67
