SpectraSuite Data File
++++++++++++++++++++++++++++++++++++
Date: Fri Oct 02 17:48:16 EDT 2015
User: lab3
Dark Spectrum Present: No
Reference Spectrum Present: No
Number of Sampled Component Spectra: 1
Spectrometers: USB2E7196
Integration Time (usec): 46000 (USB2E7196)
Spectra Averaged: 1500 (USB2E7196)
Boxcar Smoothing: 10 (USB2E7196)
Correct for Electrical Dark: No (USB2E7196)
Strobe/Lamp Enabled: No (USB2E7196)
Correct for Detector Non-linearity: No (USB2E7196)
Correct for Stray Light: No (USB2E7196)
Number of Pixels in Processed Spectrum: 2048
>>>>>Begin Processed Spectral Data<<<<<
339.09	0.00
339.48	215.45
339.86	217.00
340.24	218.19
340.63	219.69
341.01	222.98
341.39	222.48
341.78	223.70
342.16	225.01
342.54	225.29
342.93	213.82
343.31	224.63
343.69	225.16
344.07	225.62
344.46	226.06
344.84	226.44
345.22	226.66
345.60	226.92
345.99	227.11
346.37	227.25
346.75	227.36
347.13	227.44
347.52	227.50
347.90	227.59
348.28	227.63
348.66	227.70
349.05	227.68
349.43	227.73
349.81	227.78
350.19	227.84
350.57	227.90
350.96	227.98
351.34	228.07
351.72	228.17
352.10	228.27
352.48	228.35
352.87	228.41
353.25	228.48
353.63	228.54
354.01	228.61
354.39	228.69
354.77	228.77
355.15	228.87
355.54	228.92
355.92	228.95
356.30	229.03
356.68	229.17
357.06	229.26
357.44	229.30
357.82	229.37
358.20	229.49
358.58	229.55
358.97	229.63
359.35	229.71
359.73	229.80
360.11	229.84
360.49	229.90
360.87	229.95
361.25	230.02
361.63	230.11
362.01	230.16
362.39	230.20
362.77	230.25
363.15	230.29
363.53	230.33
363.91	230.38
364.29	230.40
364.67	230.31
365.05	230.33
365.43	230.37
365.81	230.40
366.19	230.42
366.57	230.47
366.95	230.47
367.33	230.44
367.71	230.43
368.09	230.46
368.47	230.45
368.85	230.44
369.23	230.46
369.61	230.40
369.99	230.42
370.37	230.42
370.75	230.49
371.13	230.46
371.51	230.42
371.89	230.39
372.27	230.38
372.65	230.36
373.03	230.32
373.41	230.29
373.78	230.24
374.16	230.13
374.54	230.06
374.92	230.01
375.30	229.97
375.68	229.91
376.06	229.86
376.44	229.80
376.82	229.76
377.19	229.70
377.57	229.65
377.95	229.56
378.33	229.49
378.71	229.33
379.09	229.28
379.47	229.25
379.84	229.18
380.22	229.11
380.60	229.04
380.98	228.98
381.36	228.93
381.73	228.87
382.11	228.84
382.49	228.80
382.87	228.74
383.25	228.70
383.62	228.79
384.00	228.72
384.38	228.68
384.76	228.67
385.13	228.67
385.51	228.63
385.89	228.57
386.27	228.54
386.64	228.52
387.02	228.46
387.40	228.41
387.78	228.39
388.15	228.37
388.53	228.34
388.91	228.31
389.29	228.27
389.66	228.26
390.04	228.22
390.42	228.21
390.79	228.19
391.17	228.17
391.55	228.02
391.92	228.01
392.30	228.01
392.68	227.96
393.05	227.94
393.43	227.93
393.81	227.94
394.18	227.93
394.56	227.93
394.94	227.96
395.31	227.96
395.69	227.99
396.06	228.01
396.44	228.04
396.82	228.05
397.19	228.13
397.57	228.14
397.95	228.18
398.32	228.18
398.70	228.23
399.07	228.29
399.45	228.33
399.82	228.37
400.20	228.41
400.58	228.47
400.95	228.48
401.33	228.57
401.70	228.72
402.08	228.81
402.45	228.90
402.83	229.01
403.20	229.12
403.58	229.20
403.95	229.34
404.33	229.48
404.71	229.62
405.08	229.82
405.46	229.97
405.83	230.14
406.21	230.33
406.58	230.54
406.96	230.73
407.33	230.97
407.70	231.24
408.08	231.60
408.45	231.92
408.83	232.26
409.20	232.58
409.58	232.86
409.95	233.24
410.33	233.67
410.70	234.06
411.08	234.53
411.45	235.03
411.82	235.54
412.20	236.12
412.57	236.80
412.95	237.33
413.32	238.04
413.69	238.77
414.07	239.54
414.44	240.37
414.82	241.23
415.19	242.23
415.56	243.24
415.94	244.28
416.31	245.46
416.68	246.62
417.06	247.99
417.43	249.27
417.81	250.74
418.18	252.24
418.55	253.88
418.93	255.57
419.30	257.35
419.67	259.23
420.04	261.17
420.42	263.19
420.79	265.53
421.16	267.88
421.54	270.27
421.91	272.77
422.28	275.36
422.66	278.14
423.03	280.83
423.40	283.63
423.77	286.63
424.15	289.70
424.52	292.92
424.89	296.39
425.26	299.83
425.64	303.03
426.01	306.63
426.38	310.32
426.75	314.12
427.13	318.03
427.50	322.12
427.87	326.38
428.24	330.67
428.61	334.80
428.99	339.26
429.36	344.15
429.73	348.84
430.10	353.54
430.47	358.36
430.85	363.30
431.22	368.61
431.59	374.10
431.96	379.43
432.33	385.36
432.70	391.01
433.08	397.69
433.45	404.00
433.82	410.23
434.19	417.18
434.56	424.05
434.93	430.68
435.30	437.24
435.68	444.66
436.05	451.91
436.42	459.13
436.79	465.75
437.16	472.87
437.53	480.49
437.90	488.10
438.27	495.57
438.64	503.60
439.01	510.88
439.38	517.52
439.75	523.92
440.13	531.13
440.50	537.96
440.87	543.37
441.24	549.29
441.61	555.74
441.98	560.41
442.35	565.94
442.72	571.56
443.09	576.91
443.46	580.23
443.83	582.61
444.20	584.56
444.57	587.52
444.94	589.12
445.31	590.77
445.68	592.12
446.05	593.00
446.42	592.37
446.79	591.56
447.16	590.81
447.53	590.09
447.90	587.49
448.27	585.00
448.64	581.38
449.01	578.79
449.37	573.89
449.74	569.44
450.11	563.79
450.48	557.64
450.85	551.49
451.22	546.19
451.59	541.06
451.96	536.41
452.33	529.76
452.70	523.87
453.07	516.71
453.43	509.58
453.80	502.69
454.17	496.11
454.54	490.05
454.91	483.23
455.28	476.86
455.65	470.86
456.02	464.57
456.38	459.47
456.75	452.93
457.12	447.67
457.49	442.38
457.86	437.41
458.23	433.08
458.59	428.27
458.96	423.38
459.33	419.06
459.70	414.68
460.07	411.35
460.43	407.43
460.80	403.78
461.17	400.62
461.54	397.18
461.91	393.98
462.27	390.72
462.64	388.10
463.01	385.06
463.38	382.01
463.74	379.23
464.11	376.81
464.48	374.65
464.85	372.27
465.21	370.50
465.58	368.48
465.95	366.18
466.32	364.36
466.68	362.56
467.05	360.75
467.42	358.98
467.78	357.07
468.15	355.30
468.52	354.03
468.88	352.30
469.25	350.74
469.62	349.50
469.98	348.15
470.35	346.94
470.72	345.85
471.08	344.74
471.45	343.81
471.82	342.78
472.18	341.68
472.55	340.98
472.92	340.08
473.28	339.39
473.65	338.62
474.02	337.90
474.38	337.30
474.75	336.97
475.11	336.48
475.48	336.26
475.85	336.04
476.21	335.92
476.58	335.85
476.94	335.98
477.31	336.07
477.67	336.16
478.04	336.36
478.41	336.65
478.77	337.07
479.14	337.34
479.50	337.83
479.87	338.48
480.23	339.13
480.60	339.76
480.96	340.41
481.33	341.39
481.69	342.34
482.06	343.29
482.42	344.16
482.79	345.25
483.15	346.50
483.52	347.92
483.88	349.29
484.25	350.74
484.61	352.27
484.98	353.90
485.34	355.74
485.71	357.69
486.07	359.76
486.44	361.82
486.80	364.10
487.17	366.50
487.53	369.09
487.90	371.83
488.26	374.82
488.62	377.94
488.99	381.09
489.35	384.40
489.72	388.01
490.08	391.79
490.44	395.69
490.81	399.73
491.17	403.88
491.54	408.35
491.90	413.00
492.26	417.92
492.63	423.12
492.99	428.54
493.36	434.11
493.72	440.00
494.08	446.04
494.45	452.46
494.81	459.11
495.17	465.94
495.54	473.16
495.90	480.67
496.26	488.38
496.63	496.32
496.99	504.57
497.35	513.19
497.72	522.09
498.08	531.21
498.44	540.67
498.80	550.67
499.17	560.90
499.53	571.43
499.89	582.37
500.26	593.49
500.62	604.90
500.98	616.95
501.34	629.17
501.71	641.90
502.07	654.84
502.43	668.33
502.79	682.02
503.16	696.14
503.52	710.47
503.88	725.24
504.24	740.42
504.60	755.83
504.97	771.72
505.33	788.02
505.69	805.21
506.05	822.68
506.41	840.09
506.78	857.77
507.14	875.95
507.50	894.54
507.86	913.50
508.22	932.70
508.59	951.72
508.95	971.59
509.31	992.19
509.67	1013.41
510.03	1034.61
510.39	1055.93
510.75	1077.50
511.12	1099.31
511.48	1121.25
511.84	1143.32
512.20	1165.83
512.56	1189.11
512.92	1212.40
513.28	1235.36
513.64	1258.63
514.00	1282.32
514.37	1306.22
514.73	1330.23
515.09	1354.15
515.45	1378.42
515.81	1402.73
516.17	1427.32
516.53	1451.33
516.89	1475.26
517.25	1499.40
517.61	1523.50
517.97	1548.06
518.33	1572.08
518.69	1596.09
519.05	1620.63
519.41	1645.43
519.77	1670.27
520.13	1694.52
520.49	1718.75
520.85	1743.33
521.21	1767.31
521.57	1791.81
521.93	1815.84
522.29	1840.28
522.65	1864.32
523.01	1888.31
523.37	1911.97
523.73	1936.27
524.09	1960.33
524.45	1984.16
524.81	2007.68
525.17	2031.00
525.53	2053.73
525.89	2076.91
526.25	2100.09
526.61	2122.27
526.97	2144.61
527.33	2167.02
527.68	2189.03
528.04	2210.26
528.40	2230.52
528.76	2251.33
529.12	2271.47
529.48	2291.19
529.84	2309.31
530.20	2328.01
530.56	2346.09
530.91	2364.41
531.27	2382.33
531.63	2399.49
531.99	2416.29
532.35	2432.34
532.71	2448.43
533.07	2465.18
533.42	2480.22
533.78	2496.23
534.14	2512.38
534.50	2527.45
534.86	2542.44
535.21	2555.53
535.57	2569.15
535.93	2582.56
536.29	2594.71
536.65	2606.86
537.00	2618.43
537.36	2630.77
537.72	2641.52
538.08	2651.98
538.44	2661.75
538.79	2671.10
539.15	2679.60
539.51	2687.67
539.87	2695.05
540.22	2700.78
540.58	2706.56
540.94	2713.58
541.29	2718.82
541.65	2722.32
542.01	2725.35
542.37	2727.57
542.72	2731.17
543.08	2733.11
543.44	2735.56
543.79	2736.97
544.15	2737.48
544.51	2738.38
544.87	2738.22
545.22	2737.34
545.58	2735.74
545.94	2734.21
546.29	2731.42
546.65	2728.64
547.01	2725.84
547.36	2723.81
547.72	2721.50
548.07	2717.63
548.43	2712.15
548.79	2706.04
549.14	2701.17
549.50	2696.35
549.86	2690.67
550.21	2683.89
550.57	2677.98
550.92	2669.90
551.28	2662.50
551.64	2655.29
551.99	2647.58
552.35	2639.26
552.70	2631.27
553.06	2623.56
553.41	2615.17
553.77	2606.50
554.13	2597.73
554.48	2588.03
554.84	2577.26
555.19	2567.24
555.55	2557.03
555.90	2546.89
556.26	2537.15
556.61	2526.34
556.97	2513.99
557.32	2502.21
557.68	2490.26
558.03	2478.19
558.39	2467.19
558.74	2456.37
559.10	2443.93
559.45	2431.85
559.81	2420.38
560.16	2408.14
560.52	2396.10
560.87	2384.36
561.23	2371.84
561.58	2359.62
561.94	2346.93
562.29	2333.63
562.64	2321.04
563.00	2308.15
563.35	2295.81
563.71	2283.15
564.06	2270.39
564.42	2258.31
564.77	2245.55
565.12	2232.79
565.48	2219.89
565.83	2207.15
566.19	2194.42
566.54	2181.68
566.89	2167.68
567.25	2153.91
567.60	2141.37
567.96	2128.06
568.31	2113.45
568.66	2099.66
569.02	2086.76
569.37	2073.92
569.72	2061.61
570.08	2047.93
570.43	2034.00
570.78	2019.69
571.14	2004.86
571.49	1990.74
571.84	1977.18
572.20	1962.32
572.55	1947.82
572.90	1933.07
573.26	1918.23
573.61	1902.98
573.96	1888.10
574.31	1873.61
574.67	1858.99
575.02	1843.59
575.37	1828.15
575.72	1813.59
576.08	1799.23
576.43	1783.78
576.78	1768.78
577.13	1754.10
577.49	1739.75
577.84	1725.92
578.19	1711.20
578.54	1696.70
578.90	1681.72
579.25	1666.56
579.60	1653.05
579.95	1639.26
580.30	1625.45
580.66	1611.39
581.01	1597.18
581.36	1583.09
581.71	1569.97
582.06	1556.65
582.42	1543.55
582.77	1530.47
583.12	1517.29
583.47	1504.06
583.82	1490.97
584.17	1477.50
584.53	1463.60
584.88	1450.12
585.23	1436.18
585.58	1423.21
585.93	1410.45
586.28	1398.39
586.63	1386.38
586.98	1373.76
587.34	1361.24
587.69	1348.46
588.04	1336.04
588.39	1324.05
588.74	1312.09
589.09	1299.92
589.44	1287.42
589.79	1275.54
590.14	1263.78
590.49	1251.97
590.84	1240.27
591.19	1228.98
591.54	1217.53
591.89	1206.21
592.25	1195.04
592.60	1183.62
592.95	1172.49
593.30	1161.53
593.65	1150.26
594.00	1139.10
594.35	1128.61
594.70	1117.76
595.05	1107.74
595.40	1097.63
595.75	1087.29
596.10	1077.55
596.45	1067.44
596.80	1057.65
597.15	1047.66
597.50	1037.82
597.85	1028.35
598.19	1018.75
598.54	1009.21
598.89	1000.07
599.24	991.30
599.59	982.41
599.94	974.39
600.29	966.14
600.64	957.61
600.99	948.71
601.34	940.23
601.69	931.40
602.04	923.20
602.39	914.85
602.74	906.46
603.08	898.15
603.43	889.77
603.78	881.59
604.13	873.61
604.48	865.58
604.83	857.74
605.18	849.81
605.53	842.03
605.87	834.03
606.22	826.45
606.57	818.75
606.92	810.90
607.27	802.99
607.62	795.48
607.96	788.33
608.31	781.64
608.66	774.75
609.01	768.11
609.36	761.63
609.70	754.85
610.05	748.12
610.40	741.62
610.75	735.12
611.10	728.93
611.44	722.63
611.79	716.41
612.14	710.10
612.49	703.93
612.83	698.05
613.18	692.27
613.53	686.37
613.88	680.53
614.22	675.16
614.57	669.65
614.92	663.95
615.27	658.42
615.61	652.91
615.96	647.47
616.31	642.06
616.65	636.67
617.00	631.58
617.35	626.55
617.70	621.59
618.04	616.61
618.39	611.62
618.74	606.85
619.08	602.13
619.43	597.53
619.78	592.95
620.12	588.32
620.47	583.91
620.82	579.57
621.16	575.21
621.51	570.71
621.85	566.34
622.20	562.14
622.55	557.96
622.89	553.84
623.24	549.72
623.59	545.66
623.93	541.75
624.28	537.89
624.62	534.15
624.97	530.43
625.32	526.76
625.66	522.99
626.01	519.18
626.35	515.46
626.70	511.79
627.04	508.29
627.39	504.74
627.73	501.34
628.08	498.02
628.43	494.73
628.77	491.54
629.12	488.43
629.46	485.30
629.81	482.09
630.15	478.92
630.50	475.85
630.84	472.80
631.19	469.82
631.53	466.98
631.88	464.07
632.22	461.18
632.57	458.58
632.91	456.02
633.26	453.55
633.60	451.09
633.95	448.70
634.29	446.19
634.64	443.75
634.98	441.12
635.32	438.68
635.67	436.41
636.01	434.05
636.36	431.76
636.70	429.66
637.05	427.52
637.39	425.40
637.73	423.30
638.08	421.32
638.42	419.30
638.77	417.15
639.11	414.96
639.45	412.89
639.80	410.72
640.14	408.67
640.49	406.58
640.83	404.48
641.17	402.48
641.52	400.51
641.86	398.58
642.20	396.86
642.55	394.96
642.89	393.08
643.23	391.31
643.58	389.70
643.92	387.93
644.26	386.24
644.61	384.62
644.95	382.92
645.29	381.19
645.64	379.46
645.98	377.83
646.32	376.32
646.66	374.78
647.01	373.26
647.35	371.79
647.69	370.31
648.04	368.97
648.38	367.53
648.72	366.13
649.06	364.72
649.41	363.35
649.75	362.01
650.09	360.68
650.43	359.36
650.78	357.98
651.12	356.63
651.46	355.34
651.80	354.08
652.14	352.86
652.49	351.67
652.83	350.48
653.17	349.29
653.51	348.16
653.85	347.08
654.20	345.95
654.54	344.76
654.88	343.65
655.22	342.55
655.56	341.45
655.90	340.41
656.25	339.42
656.59	338.37
656.93	337.41
657.27	336.46
657.61	335.44
657.95	334.46
658.29	333.49
658.64	332.58
658.98	331.64
659.32	330.73
659.66	329.87
660.00	329.03
660.34	328.18
660.68	327.30
661.02	326.37
661.36	325.48
661.70	324.63
662.05	323.81
662.39	322.99
662.73	322.25
663.07	321.49
663.41	320.69
663.75	319.88
664.09	319.09
664.43	318.26
664.77	317.53
665.11	316.75
665.45	316.04
665.79	315.31
666.13	314.54
666.47	313.76
666.81	312.99
667.15	312.16
667.49	311.47
667.83	310.82
668.17	310.16
668.51	309.54
668.85	308.94
669.19	308.38
669.53	307.71
669.87	307.03
670.21	306.40
670.55	305.78
670.89	305.25
671.23	304.67
671.57	304.09
671.91	303.57
672.25	303.05
672.58	302.51
672.92	301.92
673.26	301.43
673.60	300.93
673.94	300.44
674.28	299.99
674.62	299.50
674.96	298.95
675.30	298.45
675.64	297.92
675.97	297.38
676.31	296.81
676.65	296.30
676.99	295.84
677.33	295.29
677.67	294.80
678.01	294.24
678.34	293.75
678.68	293.30
679.02	292.76
679.36	292.25
679.70	291.76
680.04	291.31
680.37	290.83
680.71	290.38
681.05	289.93
681.39	289.44
681.73	288.92
682.06	288.42
682.40	287.96
682.74	287.55
683.08	287.18
683.42	286.74
683.75	286.34
684.09	285.85
684.43	285.44
684.77	285.01
685.10	284.63
685.44	284.21
685.78	283.79
686.12	283.40
686.45	283.00
686.79	282.57
687.13	282.16
687.46	281.72
687.80	281.31
688.14	280.87
688.48	280.48
688.81	280.08
689.15	279.72
689.49	279.30
689.82	278.88
690.16	278.41
690.50	278.02
690.83	277.60
691.17	277.19
691.51	276.80
691.84	276.42
692.18	275.99
692.52	275.56
692.85	275.15
693.19	274.79
693.52	274.38
693.86	273.98
694.20	273.60
694.53	273.23
694.87	272.84
695.21	272.43
695.54	272.05
695.88	271.66
696.21	271.25
696.55	270.88
696.88	270.51
697.22	270.13
697.56	269.74
697.89	269.32
698.23	268.95
698.56	268.55
698.90	268.19
699.23	267.79
699.57	267.42
699.90	267.05
700.24	266.66
700.58	266.32
700.91	266.01
701.25	265.77
701.58	265.48
701.92	265.17
702.25	264.85
702.59	264.49
702.92	264.16
703.26	263.81
703.59	263.46
703.93	263.22
704.26	262.90
704.60	262.57
704.93	262.24
705.26	261.92
705.60	261.64
705.93	261.28
706.27	261.02
706.60	260.76
706.94	260.49
707.27	260.16
707.61	259.83
707.94	259.48
708.27	259.05
708.61	258.69
708.94	258.36
709.28	258.06
709.61	257.75
709.94	257.48
710.28	257.22
710.61	256.98
710.95	256.61
711.28	256.41
711.61	256.14
711.95	255.91
712.28	255.62
712.61	255.32
712.95	255.15
713.28	254.94
713.61	254.64
713.95	254.33
714.28	254.08
714.61	253.81
714.95	253.57
715.28	253.33
715.61	253.09
715.95	252.87
716.28	252.64
716.61	252.45
716.95	252.18
717.28	251.94
717.61	251.69
717.94	251.45
718.28	251.14
718.61	250.90
718.94	250.64
719.27	250.42
719.61	250.23
719.94	249.97
720.27	249.68
720.60	249.47
720.94	249.26
721.27	249.06
721.60	248.88
721.93	248.66
722.27	248.49
722.60	248.30
722.93	248.08
723.26	247.88
723.59	247.64
723.93	247.46
724.26	247.27
724.59	247.07
724.92	246.90
725.25	246.75
725.59	246.57
725.92	246.42
726.25	246.24
726.58	246.06
726.91	245.87
727.24	245.71
727.57	245.52
727.91	245.33
728.24	245.19
728.57	245.00
728.90	244.85
729.23	244.63
729.56	244.52
729.89	244.34
730.22	244.17
730.55	244.02
730.89	243.86
731.22	243.70
731.55	243.53
731.88	243.36
732.21	243.18
732.54	243.02
732.87	242.87
733.20	242.73
733.53	242.58
733.86	242.43
734.19	242.27
734.52	242.15
734.85	242.09
735.18	241.92
735.51	241.81
735.84	241.68
736.17	241.58
736.50	241.38
736.83	241.39
737.16	241.26
737.49	241.13
737.82	241.00
738.15	240.89
738.48	240.76
738.81	240.63
739.14	240.49
739.47	240.36
739.80	240.22
740.13	240.09
740.46	239.95
740.79	239.81
741.12	239.69
741.45	239.54
741.78	239.33
742.11	239.25
742.44	239.09
742.77	238.99
743.10	238.84
743.43	238.71
743.75	238.48
744.08	238.55
744.41	238.42
744.74	238.31
745.07	238.16
745.40	238.07
745.73	238.02
746.06	237.91
746.39	237.83
746.71	237.72
747.04	237.60
747.37	237.50
747.70	237.42
748.03	237.34
748.36	237.26
748.68	237.16
749.01	237.03
749.34	236.95
749.67	236.85
750.00	236.77
750.33	236.78
750.65	236.68
750.98	236.40
751.31	236.31
751.64	236.23
751.97	236.21
752.29	236.11
752.62	235.96
752.95	235.87
753.28	235.75
753.60	235.66
753.93	235.60
754.26	235.53
754.59	235.40
754.91	235.30
755.24	235.20
755.57	235.17
755.90	235.09
756.22	234.98
756.55	234.87
756.88	234.76
757.20	234.58
757.53	234.47
757.86	234.39
758.19	234.32
758.51	234.23
758.84	234.09
759.17	233.99
759.49	233.93
759.82	233.92
760.15	233.87
760.47	233.79
760.80	233.69
761.13	233.64
761.45	233.58
761.78	233.50
762.11	233.45
762.43	233.32
762.76	233.26
763.08	233.22
763.41	233.18
763.74	233.12
764.06	233.07
764.39	233.02
764.71	232.96
765.04	232.89
765.37	232.83
765.69	232.77
766.02	232.72
766.34	232.65
766.67	232.54
767.00	232.50
767.32	232.52
767.65	232.54
767.97	232.47
768.30	232.42
768.62	232.38
768.95	232.30
769.27	232.24
769.60	232.21
769.92	232.13
770.25	232.05
770.57	231.99
770.90	231.94
771.22	231.88
771.55	231.83
771.87	231.80
772.20	231.74
772.52	231.81
772.85	231.92
773.17	231.88
773.50	231.84
773.82	231.77
774.15	231.66
774.47	231.54
774.80	231.49
775.12	231.44
775.45	231.40
775.77	231.37
776.09	231.35
776.42	231.31
776.74	231.32
777.07	231.28
777.39	231.25
777.72	231.21
778.04	231.21
778.36	231.16
778.69	231.12
779.01	231.11
779.33	230.96
779.66	230.78
779.98	230.74
780.31	230.72
780.63	230.74
780.95	230.74
781.28	230.70
781.60	230.68
781.92	230.65
782.25	230.62
782.57	230.59
782.89	230.56
783.22	230.53
783.54	230.47
783.86	230.45
784.19	230.42
784.51	230.43
784.83	230.38
785.16	230.35
785.48	230.32
785.80	230.30
786.12	230.28
786.45	230.26
786.77	230.25
787.09	230.22
787.42	230.16
787.74	230.13
788.06	230.12
788.38	230.09
788.71	230.06
789.03	230.05
789.35	230.06
789.67	230.02
789.99	230.01
790.32	229.98
790.64	229.98
790.96	230.08
791.28	230.01
791.61	229.99
791.93	229.99
792.25	229.96
792.57	230.03
792.89	230.00
793.21	229.99
793.54	229.95
793.86	229.92
794.18	229.91
794.50	229.87
794.82	229.84
795.14	229.84
795.47	229.84
795.79	229.81
796.11	229.76
796.43	229.74
796.75	229.72
797.07	229.71
797.39	229.69
797.71	229.57
798.04	229.56
798.36	229.55
798.68	229.52
799.00	229.51
799.32	229.43
799.64	229.43
799.96	229.41
800.28	229.42
800.60	229.40
800.92	229.38
801.24	229.36
801.56	229.36
801.89	229.34
802.21	229.33
802.53	229.30
802.85	229.31
803.17	229.35
803.49	229.31
803.81	229.29
804.13	229.27
804.45	229.24
804.77	229.24
805.09	229.22
805.41	229.20
805.73	229.17
806.05	229.12
806.37	229.10
806.69	229.08
807.01	229.05
807.33	229.05
807.65	229.00
807.97	229.04
808.28	229.01
808.60	229.00
808.92	228.97
809.24	229.04
809.56	229.00
809.88	228.95
810.20	228.94
810.52	228.95
810.84	228.92
811.16	228.89
811.48	228.87
811.80	228.90
812.12	228.89
812.43	228.90
812.75	228.90
813.07	228.88
813.39	228.88
813.71	228.86
814.03	228.83
814.35	228.82
814.67	228.76
814.98	228.75
815.30	228.73
815.62	228.70
815.94	228.60
816.26	228.61
816.58	228.58
816.89	228.58
817.21	228.55
817.53	228.55
817.85	228.54
818.17	228.53
818.48	228.47
