SpectraSuite Data File
++++++++++++++++++++++++++++++++++++
Date: Fri Oct 02 22:22:41 EDT 2015
User: lab3
Dark Spectrum Present: No
Reference Spectrum Present: No
Number of Sampled Component Spectra: 1
Spectrometers: USB2E7196
Integration Time (usec): 46000 (USB2E7196)
Spectra Averaged: 12000 (USB2E7196)
Boxcar Smoothing: 10 (USB2E7196)
Correct for Electrical Dark: No (USB2E7196)
Strobe/Lamp Enabled: No (USB2E7196)
Correct for Detector Non-linearity: No (USB2E7196)
Correct for Stray Light: No (USB2E7196)
Number of Pixels in Processed Spectrum: 2048
>>>>>Begin Processed Spectral Data<<<<<
339.09	0.00
339.48	215.21
339.86	216.68
340.24	218.00
340.63	219.52
341.01	222.70
341.39	222.14
341.78	223.48
342.16	224.68
342.54	225.11
342.93	213.53
343.31	224.32
343.69	224.85
344.07	225.31
344.46	225.74
344.84	226.13
345.22	226.35
345.60	226.60
345.99	226.80
346.37	226.93
346.75	227.04
347.13	227.12
347.52	227.19
347.90	227.28
348.28	227.32
348.66	227.38
349.05	227.37
349.43	227.43
349.81	227.48
350.19	227.54
350.57	227.61
350.96	227.69
351.34	227.79
351.72	227.88
352.10	227.99
352.48	228.06
352.87	228.11
353.25	228.18
353.63	228.23
354.01	228.30
354.39	228.37
354.77	228.45
355.15	228.56
355.54	228.61
355.92	228.63
356.30	228.71
356.68	228.86
357.06	228.94
357.44	228.99
357.82	229.05
358.20	229.16
358.58	229.22
358.97	229.29
359.35	229.38
359.73	229.46
360.11	229.51
360.49	229.57
360.87	229.62
361.25	229.69
361.63	229.78
362.01	229.83
362.39	229.86
362.77	229.91
363.15	229.93
363.53	229.96
363.91	230.00
364.29	230.02
364.67	229.92
365.05	229.94
365.43	229.98
365.81	230.01
366.19	230.03
366.57	230.08
366.95	230.08
367.33	230.06
367.71	230.05
368.09	230.07
368.47	230.06
368.85	230.06
369.23	230.06
369.61	230.01
369.99	230.03
370.37	230.03
370.75	230.10
371.13	230.07
371.51	230.03
371.89	230.01
372.27	229.99
372.65	229.97
373.03	229.93
373.41	229.89
373.78	229.83
374.16	229.73
374.54	229.65
374.92	229.60
375.30	229.56
375.68	229.49
376.06	229.44
376.44	229.39
376.82	229.35
377.19	229.30
377.57	229.25
377.95	229.16
378.33	229.10
378.71	228.94
379.09	228.89
379.47	228.86
379.84	228.79
380.22	228.73
380.60	228.66
380.98	228.61
381.36	228.55
381.73	228.49
382.11	228.47
382.49	228.43
382.87	228.36
383.25	228.32
383.62	228.43
384.00	228.36
384.38	228.32
384.76	228.30
385.13	228.30
385.51	228.26
385.89	228.21
386.27	228.18
386.64	228.16
387.02	228.11
387.40	228.07
387.78	228.04
388.15	228.01
388.53	227.98
388.91	227.95
389.29	227.91
389.66	227.91
390.04	227.86
390.42	227.86
390.79	227.84
391.17	227.82
391.55	227.66
391.92	227.65
392.30	227.66
392.68	227.62
393.05	227.59
393.43	227.59
393.81	227.60
394.18	227.58
394.56	227.58
394.94	227.61
395.31	227.62
395.69	227.66
396.06	227.69
396.44	227.72
396.82	227.73
397.19	227.82
397.57	227.83
397.95	227.88
398.32	227.87
398.70	227.92
399.07	227.98
399.45	228.02
399.82	228.07
400.20	228.10
400.58	228.16
400.95	228.17
401.33	228.25
401.70	228.40
402.08	228.50
402.45	228.58
402.83	228.70
403.20	228.81
403.58	228.90
403.95	229.03
404.33	229.18
404.71	229.32
405.08	229.53
405.46	229.69
405.83	229.87
406.21	230.07
406.58	230.28
406.96	230.49
407.33	230.74
407.70	231.01
408.08	231.39
408.45	231.72
408.83	232.07
409.20	232.39
409.58	232.68
409.95	233.08
410.33	233.51
410.70	233.91
411.08	234.39
411.45	234.90
411.82	235.41
412.20	236.00
412.57	236.70
412.95	237.23
413.32	237.95
413.69	238.68
414.07	239.46
414.44	240.30
414.82	241.17
415.19	242.18
415.56	243.20
415.94	244.25
416.31	245.44
416.68	246.63
417.06	248.01
417.43	249.31
417.81	250.79
418.18	252.31
418.55	253.97
418.93	255.68
419.30	257.47
419.67	259.38
420.04	261.33
420.42	263.36
420.79	265.73
421.16	268.11
421.54	270.53
421.91	273.05
422.28	275.67
422.66	278.49
423.03	281.19
423.40	284.02
423.77	287.05
424.15	290.15
424.52	293.38
424.89	296.87
425.26	300.34
425.64	303.58
426.01	307.20
426.38	310.91
426.75	314.74
427.13	318.66
427.50	322.77
427.87	327.04
428.24	331.35
428.61	335.50
428.99	339.98
429.36	344.89
429.73	349.59
430.10	354.29
430.47	359.10
430.85	364.05
431.22	369.37
431.59	374.84
431.96	380.17
432.33	386.09
432.70	391.74
433.08	398.40
433.45	404.70
433.82	410.91
434.19	417.84
434.56	424.68
434.93	431.28
435.30	437.81
435.68	445.19
436.05	452.41
436.42	459.59
436.79	466.15
437.16	473.24
437.53	480.83
437.90	488.42
438.27	495.84
438.64	503.86
439.01	511.12
439.38	517.76
439.75	524.14
440.13	531.34
440.50	538.18
440.87	543.60
441.24	549.55
441.61	556.03
441.98	560.74
442.35	566.32
442.72	572.01
443.09	577.43
443.46	580.83
443.83	583.30
444.20	585.34
444.57	588.43
444.94	590.14
445.31	591.91
445.68	593.39
446.05	594.43
446.42	593.93
446.79	593.26
447.16	592.66
447.53	592.10
447.90	589.66
448.27	587.31
448.64	583.83
449.01	581.36
449.37	576.60
449.74	572.27
450.11	566.74
450.48	560.71
450.85	554.68
451.22	549.51
451.59	544.48
451.96	539.91
452.33	533.32
452.70	527.48
453.07	520.36
453.43	513.27
453.80	506.41
454.17	499.84
454.54	493.80
454.91	486.98
455.28	480.61
455.65	474.60
456.02	468.27
456.38	463.17
456.75	456.60
457.12	451.31
457.49	445.99
457.86	440.97
458.23	436.60
458.59	431.74
458.96	426.77
459.33	422.40
459.70	417.96
460.07	414.60
460.43	410.62
460.80	406.93
461.17	403.73
461.54	400.24
461.91	396.99
462.27	393.68
462.64	391.03
463.01	387.94
463.38	384.84
463.74	382.03
464.11	379.57
464.48	377.37
464.85	374.96
465.21	373.15
465.58	371.12
465.95	368.78
466.32	366.93
466.68	365.10
467.05	363.27
467.42	361.48
467.78	359.53
468.15	357.75
468.52	356.47
468.88	354.71
469.25	353.11
469.62	351.85
469.98	350.47
470.35	349.23
470.72	348.12
471.08	346.99
471.45	346.03
471.82	344.97
472.18	343.83
472.55	343.10
472.92	342.17
473.28	341.45
473.65	340.66
474.02	339.92
474.38	339.30
474.75	338.93
475.11	338.43
475.48	338.19
475.85	337.93
476.21	337.79
476.58	337.69
476.94	337.82
477.31	337.88
477.67	337.96
478.04	338.16
478.41	338.44
478.77	338.85
479.14	339.10
479.50	339.59
479.87	340.23
480.23	340.88
480.60	341.52
480.96	342.16
481.33	343.11
481.69	344.06
482.06	345.01
482.42	345.87
482.79	346.95
483.15	348.19
483.52	349.61
483.88	350.98
484.25	352.44
484.61	353.95
484.98	355.60
485.34	357.45
485.71	359.39
486.07	361.45
486.44	363.50
486.80	365.81
487.17	368.20
487.53	370.82
487.90	373.56
488.26	376.54
488.62	379.69
488.99	382.84
489.35	386.16
489.72	389.75
490.08	393.54
490.44	397.46
490.81	401.52
491.17	405.68
491.54	410.17
491.90	414.80
492.26	419.75
492.63	424.93
492.99	430.33
493.36	435.93
493.72	441.83
494.08	447.87
494.45	454.29
494.81	460.95
495.17	467.80
495.54	475.03
495.90	482.55
496.26	490.25
496.63	498.19
496.99	506.45
497.35	515.09
497.72	524.01
498.08	533.13
498.44	542.58
498.80	552.58
499.17	562.83
499.53	573.38
499.89	584.33
500.26	595.49
500.62	606.94
500.98	619.01
501.34	631.25
501.71	644.02
502.07	656.97
502.43	670.46
502.79	684.16
503.16	698.31
503.52	712.66
503.88	727.44
504.24	742.66
504.60	758.10
504.97	774.01
505.33	790.36
505.69	807.59
506.05	825.13
506.41	842.60
506.78	860.29
507.14	878.50
507.50	897.15
507.86	916.15
508.22	935.35
508.59	954.41
508.95	974.31
509.31	994.94
509.67	1016.21
510.03	1037.48
510.39	1058.85
510.75	1080.43
511.12	1102.27
511.48	1124.25
511.84	1146.35
512.20	1168.87
512.56	1192.20
512.92	1215.53
513.28	1238.53
513.64	1261.82
514.00	1285.56
514.37	1309.55
514.73	1333.60
515.09	1357.55
515.45	1381.85
515.81	1406.28
516.17	1430.89
516.53	1454.96
516.89	1478.95
517.25	1503.16
517.61	1527.30
517.97	1551.91
518.33	1576.01
518.69	1600.05
519.05	1624.63
519.41	1649.47
519.77	1674.45
520.13	1698.79
520.49	1723.03
520.85	1747.65
521.21	1771.74
521.57	1796.31
521.93	1820.40
522.29	1844.96
522.65	1869.02
523.01	1893.06
523.37	1916.74
523.73	1941.09
524.09	1965.24
524.45	1989.19
524.81	2012.71
525.17	2036.10
525.53	2058.92
525.89	2082.20
526.25	2105.49
526.61	2127.78
526.97	2150.24
527.33	2172.66
527.68	2194.73
528.04	2216.08
528.40	2236.47
528.76	2257.31
529.12	2277.54
529.48	2297.40
529.84	2315.57
530.20	2334.39
530.56	2352.59
530.91	2370.97
531.27	2389.01
531.63	2406.20
531.99	2422.98
532.35	2439.12
532.71	2455.32
533.07	2472.17
533.42	2487.27
533.78	2503.38
534.14	2519.66
534.50	2534.87
534.86	2549.92
535.21	2563.14
535.57	2576.87
535.93	2590.37
536.29	2602.65
536.65	2614.88
537.00	2626.48
537.36	2638.92
537.72	2649.82
538.08	2660.38
538.44	2670.28
538.79	2679.74
539.15	2688.36
539.51	2696.58
539.87	2704.12
540.22	2709.85
540.58	2715.65
540.94	2722.71
541.29	2728.01
541.65	2731.57
542.01	2734.55
542.37	2736.86
542.72	2740.46
543.08	2742.39
543.44	2744.87
543.79	2746.28
544.15	2746.83
544.51	2747.80
544.87	2747.66
545.22	2746.83
545.58	2745.29
545.94	2743.80
546.29	2740.95
546.65	2738.15
547.01	2735.34
547.36	2733.27
547.72	2731.10
548.07	2727.26
548.43	2721.87
548.79	2715.71
549.14	2710.86
549.50	2706.14
549.86	2700.50
550.21	2693.75
550.57	2687.92
550.92	2679.86
551.28	2672.49
551.64	2665.32
551.99	2657.61
552.35	2649.29
552.70	2641.26
553.06	2633.52
553.41	2625.09
553.77	2616.47
554.13	2607.74
554.48	2598.13
554.84	2587.36
555.19	2577.24
555.55	2567.03
555.90	2556.86
556.26	2547.18
556.61	2536.43
556.97	2524.07
557.32	2512.28
557.68	2500.32
558.03	2488.23
558.39	2477.24
558.74	2466.47
559.10	2454.01
559.45	2441.87
559.81	2430.36
560.16	2418.15
560.52	2406.14
560.87	2394.46
561.23	2381.98
561.58	2369.69
561.94	2356.99
562.29	2343.72
562.64	2331.11
563.00	2318.21
563.35	2305.85
563.71	2293.24
564.06	2280.42
564.42	2268.39
564.77	2255.67
565.12	2242.92
565.48	2230.09
565.83	2217.30
566.19	2204.54
566.54	2191.77
566.89	2177.83
567.25	2164.10
567.60	2151.65
567.96	2138.32
568.31	2123.69
568.66	2109.84
569.02	2097.05
569.37	2084.19
569.72	2071.90
570.08	2058.31
570.43	2044.44
570.78	2030.24
571.14	2015.38
571.49	2001.27
571.84	1987.68
572.20	1972.80
572.55	1958.28
572.90	1943.53
573.26	1928.77
573.61	1913.54
573.96	1898.75
574.31	1884.23
574.67	1869.65
575.02	1854.14
575.37	1838.71
575.72	1824.14
576.08	1809.82
576.43	1794.36
576.78	1779.36
577.13	1764.62
577.49	1750.21
577.84	1736.39
578.19	1721.63
578.54	1707.12
578.90	1692.10
579.25	1676.94
579.60	1663.39
579.95	1649.62
580.30	1635.77
580.66	1621.68
581.01	1607.47
581.36	1593.29
581.71	1580.13
582.06	1566.81
582.42	1553.70
582.77	1540.61
583.12	1527.45
583.47	1514.21
583.82	1501.07
584.17	1487.60
584.53	1473.74
584.88	1460.28
585.23	1446.34
585.58	1433.31
585.93	1420.48
586.28	1408.38
586.63	1396.31
586.98	1383.72
587.34	1371.20
587.69	1358.38
588.04	1345.91
588.39	1333.84
588.74	1321.87
589.09	1309.65
589.44	1297.06
589.79	1285.15
590.14	1273.34
590.49	1261.46
590.84	1249.69
591.19	1238.36
591.54	1226.83
591.89	1215.46
592.25	1204.22
592.60	1192.69
592.95	1181.52
593.30	1170.53
593.65	1159.22
594.00	1148.01
594.35	1137.43
594.70	1126.44
595.05	1116.36
595.40	1106.16
595.75	1095.77
596.10	1085.96
596.45	1075.78
596.80	1065.96
597.15	1055.91
597.50	1046.00
597.85	1036.49
598.19	1026.82
598.54	1017.21
598.89	1008.04
599.24	999.19
599.59	990.19
599.94	982.13
600.29	973.80
600.64	965.17
600.99	956.18
601.34	947.61
601.69	938.69
602.04	930.43
602.39	922.01
602.74	913.60
603.08	905.20
603.43	896.75
603.78	888.50
604.13	880.42
604.48	872.29
604.83	864.36
605.18	856.33
605.53	848.47
605.87	840.38
606.22	832.68
606.57	824.89
606.92	816.97
607.27	808.97
607.62	801.36
607.96	794.17
608.31	787.41
608.66	780.43
609.01	773.72
609.36	767.13
609.70	760.25
610.05	753.41
610.40	746.83
610.75	740.23
611.10	733.98
611.44	727.58
611.79	721.28
612.14	714.89
612.49	708.63
612.83	702.65
613.18	696.80
613.53	690.82
613.88	684.92
614.22	679.44
614.57	673.86
614.92	668.10
615.27	662.48
615.61	656.90
615.96	651.39
616.31	645.88
616.65	640.43
617.00	635.25
617.35	630.14
617.70	625.08
618.04	620.04
618.39	614.96
618.74	610.14
619.08	605.34
619.43	600.67
619.78	596.02
620.12	591.30
620.47	586.78
620.82	582.37
621.16	577.93
621.51	573.38
621.85	568.91
622.20	564.63
622.55	560.36
622.89	556.16
623.24	551.96
623.59	547.82
623.93	543.82
624.28	539.91
624.62	536.10
624.97	532.32
625.32	528.54
625.66	524.68
626.01	520.78
626.35	516.98
626.70	513.24
627.04	509.64
627.39	506.02
627.73	502.55
628.08	499.15
628.43	495.77
628.77	492.49
629.12	489.31
629.46	486.12
629.81	482.85
630.15	479.60
630.50	476.46
630.84	473.36
631.19	470.33
631.53	467.40
631.88	464.43
632.22	461.49
632.57	458.83
632.91	456.21
633.26	453.69
633.60	451.15
633.95	448.69
634.29	446.14
634.64	443.67
634.98	440.98
635.32	438.47
635.67	436.15
636.01	433.74
636.36	431.39
636.70	429.22
637.05	427.00
637.39	424.81
637.73	422.66
638.08	420.62
638.42	418.52
638.77	416.31
639.11	414.05
639.45	411.88
639.80	409.65
640.14	407.53
640.49	405.39
640.83	403.24
641.17	401.17
641.52	399.14
641.86	397.13
642.20	395.35
642.55	393.39
642.89	391.47
643.23	389.64
643.58	387.96
643.92	386.14
644.26	384.40
644.61	382.73
644.95	381.00
645.29	379.20
645.64	377.44
645.98	375.76
646.32	374.20
646.66	372.62
647.01	371.06
647.35	369.55
647.69	368.02
648.04	366.64
648.38	365.17
648.72	363.72
649.06	362.28
649.41	360.86
649.75	359.48
650.09	358.10
650.43	356.74
650.78	355.33
651.12	353.95
651.46	352.62
651.80	351.32
652.14	350.06
652.49	348.85
652.83	347.61
653.17	346.41
653.51	345.24
653.85	344.14
654.20	342.98
654.54	341.76
654.88	340.62
655.22	339.50
655.56	338.37
655.90	337.30
656.25	336.28
656.59	335.22
656.93	334.23
657.27	333.26
657.61	332.22
657.95	331.22
658.29	330.23
658.64	329.29
658.98	328.34
659.32	327.42
659.66	326.53
660.00	325.67
660.34	324.81
660.68	323.91
661.02	322.97
661.36	322.08
661.70	321.23
662.05	320.38
662.39	319.55
662.73	318.81
663.07	318.05
663.41	317.26
663.75	316.46
664.09	315.68
664.43	314.85
664.77	314.12
665.11	313.34
665.45	312.63
665.79	311.92
666.13	311.16
666.47	310.40
666.81	309.64
667.15	308.84
667.49	308.15
667.83	307.52
668.17	306.86
668.51	306.25
668.85	305.65
669.19	305.09
669.53	304.44
669.87	303.76
670.21	303.12
670.55	302.51
670.89	301.97
671.23	301.39
671.57	300.83
671.91	300.30
672.25	299.80
672.58	299.28
672.92	298.70
673.26	298.22
673.60	297.72
673.94	297.24
674.28	296.79
674.62	296.30
674.96	295.76
675.30	295.29
675.64	294.77
675.97	294.24
676.31	293.69
676.65	293.19
676.99	292.75
677.33	292.24
677.67	291.77
678.01	291.22
678.34	290.76
678.68	290.32
679.02	289.81
679.36	289.33
679.70	288.84
680.04	288.39
680.37	287.92
680.71	287.49
681.05	287.07
681.39	286.59
681.73	286.11
682.06	285.64
682.40	285.19
682.74	284.80
683.08	284.45
683.42	284.03
683.75	283.65
684.09	283.19
684.43	282.80
684.77	282.39
685.10	282.03
685.44	281.64
685.78	281.25
686.12	280.88
686.45	280.49
686.79	280.09
687.13	279.72
687.46	279.31
687.80	278.92
688.14	278.49
688.48	278.12
688.81	277.74
689.15	277.41
689.49	277.02
689.82	276.62
690.16	276.16
690.50	275.79
690.83	275.40
691.17	275.02
691.51	274.64
691.84	274.29
692.18	273.89
692.52	273.48
692.85	273.10
693.19	272.75
693.52	272.38
693.86	272.01
694.20	271.65
694.53	271.31
694.87	270.93
695.21	270.56
695.54	270.19
695.88	269.83
696.21	269.44
696.55	269.09
696.88	268.74
697.22	268.39
697.56	268.04
697.89	267.65
698.23	267.30
698.56	266.92
698.90	266.58
699.23	266.21
699.57	265.86
699.90	265.51
700.24	265.14
700.58	264.82
700.91	264.53
701.25	264.32
701.58	264.04
701.92	263.76
702.25	263.46
702.59	263.13
702.92	262.81
703.26	262.49
703.59	262.16
703.93	261.94
704.26	261.64
704.60	261.32
704.93	261.01
705.26	260.70
705.60	260.44
705.93	260.10
706.27	259.84
706.60	259.59
706.94	259.34
707.27	259.01
707.61	258.70
707.94	258.37
708.27	257.95
708.61	257.60
708.94	257.28
709.28	256.99
709.61	256.70
709.94	256.45
710.28	256.19
710.61	255.95
710.95	255.58
711.28	255.39
711.61	255.13
711.95	254.90
712.28	254.63
712.61	254.35
712.95	254.17
713.28	253.98
713.61	253.69
713.95	253.39
714.28	253.17
714.61	252.91
714.95	252.67
715.28	252.44
715.61	252.21
715.95	251.99
716.28	251.78
716.61	251.58
716.95	251.33
717.28	251.10
717.61	250.86
717.94	250.64
718.28	250.33
718.61	250.11
718.94	249.86
719.27	249.65
719.61	249.46
719.94	249.21
720.27	248.92
720.60	248.71
720.94	248.51
721.27	248.31
721.60	248.13
721.93	247.92
722.27	247.76
722.60	247.57
722.93	247.36
723.26	247.16
723.59	246.92
723.93	246.75
724.26	246.56
724.59	246.36
724.92	246.19
725.25	246.06
725.59	245.88
725.92	245.73
726.25	245.56
726.58	245.38
726.91	245.20
727.24	245.05
727.57	244.88
727.91	244.70
728.24	244.55
728.57	244.37
728.90	244.23
729.23	244.03
729.56	243.91
729.89	243.75
730.22	243.58
730.55	243.43
730.89	243.27
731.22	243.10
731.55	242.95
731.88	242.80
732.21	242.62
732.54	242.47
732.87	242.32
733.20	242.18
733.53	242.03
733.86	241.89
734.19	241.73
734.52	241.60
734.85	241.55
735.18	241.37
735.51	241.27
735.84	241.14
736.17	241.04
736.50	240.85
736.83	240.86
737.16	240.74
737.49	240.62
737.82	240.48
738.15	240.38
738.48	240.25
738.81	240.12
739.14	239.98
739.47	239.84
739.80	239.71
740.13	239.59
740.46	239.45
740.79	239.32
741.12	239.19
741.45	239.05
741.78	238.85
742.11	238.77
742.44	238.62
742.77	238.51
743.10	238.37
743.43	238.26
743.75	238.01
744.08	238.09
744.41	237.97
744.74	237.85
745.07	237.71
745.40	237.63
745.73	237.57
746.06	237.47
746.39	237.39
746.71	237.28
747.04	237.17
747.37	237.07
747.70	236.99
748.03	236.90
748.36	236.83
748.68	236.73
749.01	236.60
749.34	236.51
749.67	236.42
750.00	236.34
750.33	236.34
750.65	236.25
750.98	235.97
751.31	235.89
751.64	235.80
751.97	235.78
752.29	235.68
752.62	235.53
752.95	235.44
753.28	235.34
753.60	235.25
753.93	235.19
754.26	235.12
754.59	234.99
754.91	234.89
755.24	234.80
755.57	234.77
755.90	234.68
756.22	234.59
756.55	234.48
756.88	234.37
757.20	234.21
757.53	234.10
757.86	234.02
758.19	233.95
758.51	233.87
758.84	233.73
759.17	233.64
759.49	233.58
759.82	233.56
760.15	233.50
760.47	233.43
760.80	233.33
761.13	233.28
761.45	233.21
761.78	233.15
762.11	233.08
762.43	232.96
762.76	232.89
763.08	232.85
763.41	232.79
763.74	232.74
764.06	232.68
764.39	232.63
764.71	232.57
765.04	232.50
765.37	232.43
765.69	232.38
766.02	232.32
766.34	232.26
766.67	232.16
767.00	232.12
767.32	232.14
767.65	232.17
767.97	232.10
768.30	232.06
768.62	232.01
768.95	231.94
769.27	231.89
769.60	231.86
769.92	231.79
770.25	231.72
770.57	231.65
770.90	231.60
771.22	231.54
771.55	231.49
771.87	231.46
772.20	231.41
772.52	231.48
772.85	231.58
773.17	231.54
773.50	231.50
773.82	231.43
774.15	231.33
774.47	231.20
774.80	231.15
775.12	231.11
775.45	231.07
775.77	231.04
776.09	231.01
776.42	230.97
776.74	230.98
777.07	230.94
777.39	230.92
777.72	230.88
778.04	230.86
778.36	230.82
778.69	230.79
779.01	230.77
779.33	230.62
779.66	230.45
779.98	230.41
780.31	230.38
780.63	230.41
780.95	230.40
781.28	230.38
781.60	230.34
781.92	230.31
782.25	230.29
782.57	230.26
782.89	230.22
783.22	230.18
783.54	230.13
783.86	230.11
784.19	230.07
784.51	230.09
784.83	230.05
785.16	230.02
785.48	229.99
785.80	229.97
786.12	229.96
786.45	229.93
786.77	229.92
787.09	229.89
787.42	229.81
787.74	229.79
788.06	229.78
788.38	229.75
788.71	229.72
789.03	229.70
789.35	229.70
789.67	229.67
789.99	229.66
790.32	229.62
790.64	229.61
790.96	229.71
791.28	229.65
791.61	229.62
791.93	229.61
792.25	229.58
792.57	229.65
792.89	229.61
793.21	229.60
793.54	229.56
793.86	229.54
794.18	229.53
794.50	229.48
794.82	229.46
795.14	229.46
795.47	229.46
795.79	229.45
796.11	229.39
796.43	229.38
796.75	229.36
797.07	229.35
797.39	229.33
797.71	229.21
798.04	229.20
798.36	229.19
798.68	229.17
799.00	229.17
799.32	229.09
799.64	229.10
799.96	229.08
800.28	229.09
800.60	229.07
800.92	229.06
801.24	229.04
801.56	229.04
801.89	229.01
802.21	229.00
802.53	228.97
802.85	228.98
803.17	229.02
803.49	228.99
803.81	228.96
804.13	228.94
804.45	228.91
804.77	228.90
805.09	228.89
805.41	228.86
805.73	228.83
806.05	228.78
806.37	228.76
806.69	228.73
807.01	228.70
807.33	228.69
807.65	228.64
807.97	228.68
808.28	228.65
808.60	228.64
808.92	228.61
809.24	228.67
809.56	228.64
809.88	228.58
810.20	228.57
810.52	228.59
810.84	228.56
811.16	228.53
811.48	228.52
811.80	228.55
812.12	228.53
812.43	228.55
812.75	228.55
813.07	228.52
813.39	228.53
813.71	228.50
814.03	228.48
814.35	228.48
814.67	228.42
814.98	228.40
815.30	228.39
815.62	228.36
815.94	228.26
816.26	228.27
816.58	228.24
816.89	228.24
817.21	228.20
817.53	228.20
817.85	228.20
818.17	228.19
818.48	228.13
