SpectraSuite Data File
++++++++++++++++++++++++++++++++++++
Date: Fri Oct 02 21:07:20 EDT 2015
User: lab3
Dark Spectrum Present: No
Reference Spectrum Present: No
Number of Sampled Component Spectra: 1
Spectrometers: USB2E7196
Integration Time (usec): 46000 (USB2E7196)
Spectra Averaged: 6000 (USB2E7196)
Boxcar Smoothing: 10 (USB2E7196)
Correct for Electrical Dark: No (USB2E7196)
Strobe/Lamp Enabled: No (USB2E7196)
Correct for Detector Non-linearity: No (USB2E7196)
Correct for Stray Light: No (USB2E7196)
Number of Pixels in Processed Spectrum: 2048
>>>>>Begin Processed Spectral Data<<<<<
339.09	0.00
339.48	215.55
339.86	217.02
340.24	218.30
340.63	219.87
341.01	223.02
341.39	222.52
341.78	223.88
342.16	225.09
342.54	225.46
342.93	213.89
343.31	224.70
343.69	225.23
344.07	225.69
344.46	226.13
344.84	226.52
345.22	226.75
345.60	227.00
345.99	227.19
346.37	227.33
346.75	227.44
347.13	227.51
347.52	227.59
347.90	227.68
348.28	227.72
348.66	227.78
349.05	227.78
349.43	227.83
349.81	227.89
350.19	227.95
350.57	228.01
350.96	228.09
351.34	228.19
351.72	228.29
352.10	228.39
352.48	228.46
352.87	228.51
353.25	228.57
353.63	228.63
354.01	228.69
354.39	228.77
354.77	228.85
355.15	228.95
355.54	229.00
355.92	229.03
356.30	229.11
356.68	229.26
357.06	229.34
357.44	229.39
357.82	229.44
358.20	229.56
358.58	229.62
358.97	229.69
359.35	229.77
359.73	229.85
360.11	229.90
360.49	229.97
360.87	230.01
361.25	230.08
361.63	230.17
362.01	230.22
362.39	230.24
362.77	230.29
363.15	230.31
363.53	230.34
363.91	230.38
364.29	230.40
364.67	230.30
365.05	230.32
365.43	230.35
365.81	230.39
366.19	230.40
366.57	230.46
366.95	230.46
367.33	230.44
367.71	230.43
368.09	230.45
368.47	230.44
368.85	230.43
369.23	230.45
369.61	230.39
369.99	230.41
370.37	230.40
370.75	230.48
371.13	230.44
371.51	230.40
371.89	230.38
372.27	230.36
372.65	230.33
373.03	230.29
373.41	230.24
373.78	230.19
374.16	230.09
374.54	230.00
374.92	229.95
375.30	229.90
375.68	229.83
376.06	229.78
376.44	229.72
376.82	229.68
377.19	229.62
377.57	229.57
377.95	229.48
378.33	229.43
378.71	229.27
379.09	229.22
379.47	229.19
379.84	229.12
380.22	229.06
380.60	228.99
380.98	228.93
381.36	228.88
381.73	228.82
382.11	228.80
382.49	228.76
382.87	228.70
383.25	228.65
383.62	228.75
384.00	228.69
384.38	228.65
384.76	228.63
385.13	228.63
385.51	228.59
385.89	228.54
386.27	228.50
386.64	228.49
387.02	228.44
387.40	228.40
387.78	228.38
388.15	228.35
388.53	228.32
388.91	228.30
389.29	228.26
389.66	228.26
390.04	228.22
390.42	228.21
390.79	228.20
391.17	228.18
391.55	228.03
391.92	228.02
392.30	228.02
392.68	227.98
393.05	227.97
393.43	227.97
393.81	227.97
394.18	227.95
394.56	227.95
394.94	227.98
395.31	227.98
395.69	228.03
396.06	228.06
396.44	228.08
396.82	228.09
397.19	228.18
397.57	228.19
397.95	228.23
398.32	228.22
398.70	228.27
399.07	228.34
399.45	228.38
399.82	228.42
400.20	228.45
400.58	228.51
400.95	228.53
401.33	228.61
401.70	228.76
402.08	228.86
402.45	228.95
402.83	229.06
403.20	229.17
403.58	229.26
403.95	229.40
404.33	229.54
404.71	229.69
405.08	229.89
405.46	230.05
405.83	230.23
406.21	230.43
406.58	230.64
406.96	230.85
407.33	231.10
407.70	231.37
408.08	231.75
408.45	232.07
408.83	232.42
409.20	232.74
409.58	233.03
409.95	233.42
410.33	233.85
410.70	234.25
411.08	234.73
411.45	235.23
411.82	235.74
412.20	236.33
412.57	237.02
412.95	237.56
413.32	238.27
413.69	239.00
414.07	239.77
414.44	240.61
414.82	241.47
415.19	242.48
415.56	243.50
415.94	244.55
416.31	245.73
416.68	246.92
417.06	248.28
417.43	249.57
417.81	251.05
418.18	252.55
418.55	254.19
418.93	255.90
419.30	257.69
419.67	259.59
420.04	261.53
420.42	263.55
420.79	265.91
421.16	268.28
421.54	270.69
421.91	273.20
422.28	275.80
422.66	278.61
423.03	281.29
423.40	284.10
423.77	287.11
424.15	290.20
424.52	293.42
424.89	296.90
425.26	300.36
425.64	303.57
426.01	307.19
426.38	310.89
426.75	314.70
427.13	318.60
427.50	322.69
427.87	326.94
428.24	331.24
428.61	335.36
428.99	339.82
429.36	344.71
429.73	349.39
430.10	354.07
430.47	358.86
430.85	363.79
431.22	369.08
431.59	374.54
431.96	379.86
432.33	385.76
432.70	391.38
433.08	398.03
433.45	404.30
433.82	410.48
434.19	417.39
434.56	424.20
434.93	430.78
435.30	437.29
435.68	444.65
436.05	451.85
436.42	459.01
436.79	465.56
437.16	472.62
437.53	480.18
437.90	487.75
438.27	495.16
438.64	503.15
439.01	510.39
439.38	516.99
439.75	523.34
440.13	530.51
440.50	537.33
440.87	542.72
441.24	548.63
441.61	555.09
441.98	559.77
442.35	565.33
442.72	570.99
443.09	576.37
443.46	579.74
443.83	582.19
444.20	584.20
444.57	587.26
444.94	588.94
445.31	590.68
445.68	592.13
446.05	593.14
446.42	592.63
446.79	591.94
447.16	591.32
447.53	590.74
447.90	588.29
448.27	585.92
448.64	582.44
449.01	579.98
449.37	575.20
449.74	570.88
450.11	565.34
450.48	559.32
450.85	553.30
451.22	548.13
451.59	543.10
451.96	538.54
452.33	531.97
452.70	526.15
453.07	519.06
453.43	511.99
453.80	505.15
454.17	498.60
454.54	492.58
454.91	485.79
455.28	479.45
455.65	473.45
456.02	467.15
456.38	462.07
456.75	455.53
457.12	450.27
457.49	444.97
457.86	439.98
458.23	435.63
458.59	430.80
458.96	425.85
459.33	421.51
459.70	417.10
460.07	413.76
460.43	409.81
460.80	406.14
461.17	402.96
461.54	399.48
461.91	396.26
462.27	392.97
462.64	390.33
463.01	387.26
463.38	384.18
463.74	381.40
464.11	378.95
464.48	376.76
464.85	374.36
465.21	372.57
465.58	370.55
465.95	368.21
466.32	366.37
466.68	364.56
467.05	362.73
467.42	360.95
467.78	359.01
468.15	357.24
468.52	355.96
468.88	354.21
469.25	352.63
469.62	351.38
469.98	350.00
470.35	348.78
470.72	347.67
471.08	346.55
471.45	345.60
471.82	344.55
472.18	343.42
472.55	342.70
472.92	341.77
473.28	341.06
473.65	340.29
474.02	339.56
474.38	338.94
474.75	338.58
475.11	338.08
475.48	337.85
475.85	337.60
476.21	337.46
476.58	337.38
476.94	337.51
477.31	337.57
477.67	337.65
478.04	337.86
478.41	338.14
478.77	338.55
479.14	338.80
479.50	339.29
479.87	339.94
480.23	340.58
480.60	341.22
480.96	341.86
481.33	342.81
481.69	343.76
482.06	344.70
482.42	345.57
482.79	346.64
483.15	347.88
483.52	349.29
483.88	350.65
484.25	352.10
484.61	353.62
484.98	355.26
485.34	357.10
485.71	359.02
486.07	361.08
486.44	363.13
486.80	365.43
487.17	367.81
487.53	370.42
487.90	373.15
488.26	376.13
488.62	379.27
488.99	382.40
489.35	385.71
489.72	389.30
490.08	393.07
490.44	396.97
490.81	401.02
491.17	405.17
491.54	409.64
491.90	414.25
492.26	419.18
492.63	424.35
492.99	429.74
493.36	435.32
493.72	441.19
494.08	447.23
494.45	453.63
494.81	460.28
495.17	467.11
495.54	474.32
495.90	481.81
496.26	489.48
496.63	497.40
496.99	505.62
497.35	514.25
497.72	523.13
498.08	532.23
498.44	541.66
498.80	551.63
499.17	561.86
499.53	572.39
499.89	583.29
500.26	594.41
500.62	605.84
500.98	617.87
501.34	630.08
501.71	642.79
502.07	655.71
502.43	669.17
502.79	682.82
503.16	696.93
503.52	711.24
503.88	725.98
504.24	741.17
504.60	756.57
504.97	772.45
505.33	788.75
505.69	805.94
506.05	823.44
506.41	840.88
506.78	858.52
507.14	876.69
507.50	895.30
507.86	914.27
508.22	933.45
508.59	952.48
508.95	972.34
509.31	992.96
509.67	1014.19
510.03	1035.41
510.39	1056.76
510.75	1078.31
511.12	1100.13
511.48	1122.09
511.84	1144.16
512.20	1166.66
512.56	1189.96
512.92	1213.27
513.28	1236.24
513.64	1259.52
514.00	1283.21
514.37	1307.18
514.73	1331.21
515.09	1355.15
515.45	1379.44
515.81	1403.84
516.17	1428.45
516.53	1452.49
516.89	1476.45
517.25	1500.65
517.61	1524.82
517.97	1549.40
518.33	1573.49
518.69	1597.52
519.05	1622.12
519.41	1646.97
519.77	1671.94
520.13	1696.27
520.49	1720.53
520.85	1745.17
521.21	1769.24
521.57	1793.83
521.93	1817.93
522.29	1842.49
522.65	1866.56
523.01	1890.61
523.37	1914.32
523.73	1938.70
524.09	1962.88
524.45	1986.85
524.81	2010.42
525.17	2033.85
525.53	2056.70
525.89	2080.02
526.25	2103.34
526.61	2125.65
526.97	2148.14
527.33	2170.61
527.68	2192.73
528.04	2214.11
528.40	2234.54
528.76	2255.46
529.12	2275.76
529.48	2295.65
529.84	2313.88
530.20	2332.76
530.56	2351.01
530.91	2369.44
531.27	2387.51
531.63	2404.76
531.99	2421.62
532.35	2437.83
532.71	2454.06
533.07	2470.98
533.42	2486.08
533.78	2502.25
534.14	2518.59
534.50	2533.84
534.86	2548.96
535.21	2562.24
535.57	2576.00
535.93	2589.56
536.29	2601.87
536.65	2614.17
537.00	2625.86
537.36	2638.38
537.72	2649.33
538.08	2659.97
538.44	2669.94
538.79	2679.48
539.15	2688.16
539.51	2696.43
539.87	2704.02
540.22	2709.83
540.58	2715.74
540.94	2722.92
541.29	2728.30
541.65	2731.93
542.01	2735.04
542.37	2737.40
542.72	2741.07
543.08	2743.08
543.44	2745.63
543.79	2747.13
544.15	2747.76
544.51	2748.83
544.87	2748.75
545.22	2747.98
545.58	2746.53
545.94	2745.13
546.29	2742.39
546.65	2739.68
547.01	2736.96
547.36	2734.97
547.72	2732.84
548.07	2729.07
548.43	2723.75
548.79	2717.66
549.14	2712.89
549.50	2708.23
549.86	2702.67
550.21	2696.00
550.57	2690.24
550.92	2682.24
551.28	2674.93
551.64	2667.82
551.99	2660.15
552.35	2651.89
552.70	2643.94
553.06	2636.24
553.41	2627.84
553.77	2619.25
554.13	2610.56
554.48	2600.97
554.84	2590.25
555.19	2580.18
555.55	2570.02
555.90	2559.88
556.26	2550.24
556.61	2539.51
556.97	2527.17
557.32	2515.42
557.68	2503.50
558.03	2491.43
558.39	2480.49
558.74	2469.76
559.10	2457.34
559.45	2445.24
559.81	2433.76
560.16	2421.54
560.52	2409.56
560.87	2397.90
561.23	2385.44
561.58	2373.20
561.94	2360.52
562.29	2347.26
562.64	2334.71
563.00	2321.82
563.35	2309.49
563.71	2296.90
564.06	2284.10
564.42	2272.07
564.77	2259.35
565.12	2246.61
565.48	2233.77
565.83	2220.98
566.19	2208.21
566.54	2195.43
566.89	2181.49
567.25	2167.75
567.60	2155.30
567.96	2141.98
568.31	2127.33
568.66	2113.51
569.02	2100.68
569.37	2087.83
569.72	2075.52
570.08	2061.89
570.43	2048.00
570.78	2033.79
571.14	2018.91
571.49	2004.80
571.84	1991.20
572.20	1976.32
572.55	1961.80
572.90	1947.05
573.26	1932.27
573.61	1917.02
573.96	1902.21
574.31	1887.70
574.67	1873.09
575.02	1857.59
575.37	1842.13
575.72	1827.56
576.08	1813.23
576.43	1797.76
576.78	1782.74
577.13	1767.99
577.49	1753.57
577.84	1739.72
578.19	1724.92
578.54	1710.39
578.90	1695.35
579.25	1680.18
579.60	1666.63
579.95	1652.83
580.30	1638.97
580.66	1624.87
581.01	1610.64
581.36	1596.45
581.71	1583.27
582.06	1569.93
582.42	1556.80
582.77	1543.69
583.12	1530.50
583.47	1517.23
583.82	1504.08
584.17	1490.59
584.53	1476.72
584.88	1463.24
585.23	1449.28
585.58	1436.25
585.93	1423.41
586.28	1411.29
586.63	1399.20
586.98	1386.57
587.34	1374.01
587.69	1361.18
588.04	1348.68
588.39	1336.60
588.74	1324.61
589.09	1312.37
589.44	1299.76
589.79	1287.84
590.14	1276.00
590.49	1264.11
590.84	1252.33
591.19	1240.97
591.54	1229.42
591.89	1218.03
592.25	1206.76
592.60	1195.21
592.95	1184.03
593.30	1173.01
593.65	1161.69
594.00	1150.44
594.35	1139.83
594.70	1128.84
595.05	1118.75
595.40	1108.52
595.75	1098.12
596.10	1088.27
596.45	1078.08
596.80	1068.23
597.15	1058.16
597.50	1048.24
597.85	1038.69
598.19	1029.00
598.54	1019.38
598.89	1010.18
599.24	1001.31
599.59	992.31
599.94	984.22
600.29	975.88
600.64	967.24
600.99	958.24
601.34	949.65
601.69	940.71
602.04	932.44
602.39	924.00
602.74	915.57
603.08	907.14
603.43	898.67
603.78	890.39
604.13	882.30
604.48	874.16
604.83	866.21
605.18	858.17
605.53	850.28
605.87	842.19
606.22	834.50
606.57	826.67
606.92	818.73
607.27	810.72
607.62	803.09
607.96	795.88
608.31	789.11
608.66	782.11
609.01	775.42
609.36	768.83
609.70	761.94
610.05	755.09
610.40	748.50
610.75	741.90
611.10	735.64
611.44	729.23
611.79	722.92
612.14	716.52
612.49	710.25
612.83	704.27
613.18	698.40
613.53	692.41
613.88	686.51
614.22	681.04
614.57	675.45
614.92	669.68
615.27	664.06
615.61	658.47
615.96	652.96
616.31	647.44
616.65	641.99
617.00	636.81
617.35	631.70
617.70	626.64
618.04	621.59
618.39	616.51
618.74	611.68
619.08	606.87
619.43	602.19
619.78	597.54
620.12	592.82
620.47	588.31
620.82	583.89
621.16	579.44
621.51	574.87
621.85	570.40
622.20	566.13
622.55	561.85
622.89	557.65
623.24	553.44
623.59	549.30
623.93	545.31
624.28	541.38
624.62	537.56
624.97	533.77
625.32	530.00
625.66	526.15
626.01	522.26
626.35	518.46
626.70	514.72
627.04	511.12
627.39	507.50
627.73	504.02
628.08	500.63
628.43	497.26
628.77	493.98
629.12	490.80
629.46	487.60
629.81	484.33
630.15	481.08
630.50	477.94
630.84	474.83
631.19	471.79
631.53	468.87
631.88	465.91
632.22	462.97
632.57	460.31
632.91	457.69
633.26	455.17
633.60	452.63
633.95	450.18
634.29	447.63
634.64	445.16
634.98	442.47
635.32	439.97
635.67	437.64
636.01	435.24
636.36	432.90
636.70	430.73
637.05	428.52
637.39	426.35
637.73	424.19
638.08	422.15
638.42	420.07
638.77	417.86
639.11	415.60
639.45	413.44
639.80	411.22
640.14	409.10
640.49	406.96
640.83	404.81
641.17	402.75
641.52	400.72
641.86	398.72
642.20	396.94
642.55	394.99
642.89	393.07
643.23	391.23
643.58	389.57
643.92	387.75
644.26	386.02
644.61	384.34
644.95	382.61
645.29	380.82
645.64	379.05
645.98	377.37
646.32	375.82
646.66	374.25
647.01	372.69
647.35	371.19
647.69	369.66
648.04	368.28
648.38	366.81
648.72	365.35
649.06	363.92
649.41	362.49
649.75	361.11
650.09	359.75
650.43	358.39
650.78	356.97
651.12	355.59
651.46	354.26
651.80	352.96
652.14	351.70
652.49	350.49
652.83	349.26
653.17	348.05
653.51	346.89
653.85	345.78
654.20	344.62
654.54	343.39
654.88	342.26
655.22	341.14
655.56	340.02
655.90	338.96
656.25	337.93
656.59	336.87
656.93	335.88
657.27	334.91
657.61	333.87
657.95	332.88
658.29	331.89
658.64	330.96
658.98	330.01
659.32	329.09
659.66	328.21
660.00	327.34
660.34	326.49
660.68	325.58
661.02	324.64
661.36	323.74
661.70	322.88
662.05	322.04
662.39	321.20
662.73	320.46
663.07	319.70
663.41	318.91
663.75	318.11
664.09	317.31
664.43	316.49
664.77	315.75
665.11	314.97
665.45	314.25
665.79	313.53
666.13	312.76
666.47	311.99
666.81	311.22
667.15	310.41
667.49	309.72
667.83	309.08
668.17	308.43
668.51	307.82
668.85	307.23
669.19	306.66
669.53	305.98
669.87	305.30
670.21	304.65
670.55	304.03
670.89	303.48
671.23	302.89
671.57	302.32
671.91	301.79
672.25	301.28
672.58	300.76
672.92	300.17
673.26	299.68
673.60	299.19
673.94	298.71
674.28	298.26
674.62	297.77
674.96	297.22
675.30	296.74
675.64	296.21
675.97	295.68
676.31	295.12
676.65	294.63
676.99	294.19
677.33	293.67
677.67	293.19
678.01	292.64
678.34	292.17
678.68	291.72
679.02	291.20
679.36	290.71
679.70	290.22
680.04	289.77
680.37	289.30
680.71	288.85
681.05	288.42
681.39	287.93
681.73	287.43
682.06	286.95
682.40	286.50
682.74	286.09
683.08	285.73
683.42	285.31
683.75	284.93
684.09	284.45
684.43	284.05
684.77	283.64
685.10	283.28
685.44	282.89
685.78	282.49
686.12	282.12
686.45	281.72
686.79	281.31
687.13	280.92
687.46	280.51
687.80	280.12
688.14	279.68
688.48	279.31
688.81	278.92
689.15	278.57
689.49	278.18
689.82	277.77
690.16	277.30
690.50	276.91
690.83	276.51
691.17	276.12
691.51	275.73
691.84	275.37
692.18	274.96
692.52	274.54
692.85	274.15
693.19	273.80
693.52	273.42
693.86	273.04
694.20	272.68
694.53	272.32
694.87	271.93
695.21	271.56
695.54	271.19
695.88	270.81
696.21	270.41
696.55	270.06
696.88	269.70
697.22	269.35
697.56	268.99
697.89	268.60
698.23	268.24
698.56	267.87
698.90	267.52
699.23	267.14
699.57	266.77
699.90	266.42
700.24	266.04
700.58	265.72
700.91	265.42
701.25	265.20
701.58	264.91
701.92	264.62
702.25	264.31
702.59	263.98
702.92	263.66
703.26	263.33
703.59	262.98
703.93	262.75
704.26	262.45
704.60	262.12
704.93	261.80
705.26	261.48
705.60	261.21
705.93	260.87
706.27	260.61
706.60	260.36
706.94	260.10
707.27	259.77
707.61	259.45
707.94	259.12
708.27	258.70
708.61	258.35
708.94	258.03
709.28	257.73
709.61	257.43
709.94	257.17
710.28	256.92
710.61	256.68
710.95	256.31
711.28	256.12
711.61	255.85
711.95	255.62
712.28	255.35
712.61	255.07
712.95	254.89
713.28	254.69
713.61	254.39
713.95	254.09
714.28	253.85
714.61	253.59
714.95	253.35
715.28	253.11
715.61	252.87
715.95	252.65
716.28	252.43
716.61	252.23
716.95	251.98
717.28	251.74
717.61	251.50
717.94	251.27
718.28	250.95
718.61	250.72
718.94	250.47
719.27	250.26
719.61	250.06
719.94	249.80
720.27	249.51
720.60	249.31
720.94	249.10
721.27	248.90
721.60	248.72
721.93	248.50
722.27	248.33
722.60	248.14
722.93	247.92
723.26	247.72
723.59	247.49
723.93	247.31
724.26	247.12
724.59	246.93
724.92	246.76
725.25	246.62
725.59	246.44
725.92	246.29
726.25	246.11
726.58	245.94
726.91	245.75
727.24	245.60
727.57	245.43
727.91	245.24
728.24	245.10
728.57	244.92
728.90	244.77
729.23	244.57
729.56	244.46
729.89	244.29
730.22	244.11
730.55	243.96
730.89	243.79
731.22	243.63
731.55	243.47
731.88	243.31
732.21	243.12
732.54	242.97
732.87	242.81
733.20	242.67
733.53	242.52
733.86	242.38
734.19	242.22
734.52	242.09
734.85	242.03
735.18	241.85
735.51	241.75
735.84	241.61
736.17	241.51
736.50	241.31
736.83	241.32
737.16	241.19
737.49	241.07
737.82	240.94
738.15	240.83
738.48	240.70
738.81	240.57
739.14	240.43
739.47	240.30
739.80	240.16
740.13	240.04
740.46	239.89
740.79	239.75
741.12	239.63
741.45	239.49
741.78	239.29
742.11	239.21
742.44	239.06
742.77	238.95
743.10	238.81
743.43	238.69
743.75	238.45
744.08	238.52
744.41	238.40
744.74	238.29
745.07	238.14
745.40	238.06
745.73	237.99
746.06	237.90
746.39	237.81
746.71	237.70
747.04	237.59
747.37	237.49
747.70	237.41
748.03	237.32
748.36	237.24
748.68	237.14
749.01	237.02
749.34	236.92
749.67	236.83
750.00	236.75
750.33	236.76
750.65	236.68
750.98	236.40
751.31	236.31
751.64	236.23
751.97	236.20
752.29	236.10
752.62	235.96
752.95	235.86
753.28	235.75
753.60	235.66
753.93	235.60
754.26	235.53
754.59	235.40
754.91	235.30
755.24	235.20
755.57	235.18
755.90	235.09
756.22	234.99
756.55	234.89
756.88	234.78
757.20	234.61
757.53	234.49
757.86	234.41
758.19	234.34
758.51	234.26
758.84	234.12
759.17	234.03
759.49	233.97
759.82	233.96
760.15	233.90
760.47	233.83
760.80	233.73
761.13	233.68
761.45	233.62
761.78	233.55
762.11	233.49
762.43	233.36
762.76	233.30
763.08	233.25
763.41	233.20
763.74	233.14
764.06	233.08
764.39	233.03
764.71	232.97
765.04	232.90
765.37	232.83
765.69	232.78
766.02	232.72
766.34	232.66
766.67	232.55
767.00	232.52
767.32	232.54
767.65	232.56
767.97	232.49
768.30	232.45
768.62	232.40
768.95	232.34
769.27	232.28
769.60	232.24
769.92	232.17
770.25	232.10
770.57	232.03
770.90	231.98
771.22	231.93
771.55	231.88
771.87	231.84
772.20	231.80
772.52	231.86
772.85	231.96
773.17	231.93
773.50	231.87
773.82	231.81
774.15	231.71
774.47	231.59
774.80	231.53
775.12	231.49
775.45	231.45
775.77	231.42
776.09	231.40
776.42	231.36
776.74	231.37
777.07	231.33
777.39	231.31
777.72	231.27
778.04	231.25
778.36	231.21
778.69	231.17
779.01	231.16
779.33	231.01
779.66	230.84
779.98	230.80
780.31	230.78
780.63	230.80
780.95	230.79
781.28	230.76
781.60	230.73
781.92	230.70
782.25	230.67
782.57	230.63
782.89	230.59
783.22	230.56
783.54	230.50
783.86	230.49
784.19	230.45
784.51	230.46
784.83	230.42
785.16	230.39
785.48	230.36
785.80	230.33
786.12	230.32
786.45	230.29
786.77	230.28
787.09	230.25
787.42	230.17
787.74	230.15
788.06	230.14
788.38	230.11
788.71	230.08
789.03	230.07
789.35	230.07
789.67	230.03
789.99	230.02
790.32	229.98
790.64	229.98
790.96	230.07
791.28	230.01
791.61	229.99
791.93	229.98
792.25	229.96
792.57	230.03
792.89	229.99
793.21	229.98
793.54	229.95
793.86	229.92
794.18	229.90
794.50	229.85
794.82	229.84
795.14	229.83
795.47	229.84
795.79	229.82
796.11	229.77
796.43	229.75
796.75	229.73
797.07	229.72
797.39	229.70
797.71	229.57
798.04	229.56
798.36	229.55
798.68	229.53
799.00	229.52
799.32	229.45
799.64	229.45
799.96	229.43
800.28	229.44
800.60	229.43
800.92	229.42
801.24	229.40
801.56	229.39
801.89	229.37
802.21	229.35
802.53	229.31
802.85	229.33
803.17	229.37
803.49	229.33
803.81	229.30
804.13	229.28
804.45	229.25
804.77	229.25
805.09	229.23
805.41	229.21
805.73	229.18
806.05	229.13
806.37	229.10
806.69	229.07
807.01	229.05
807.33	229.04
807.65	228.98
807.97	229.03
808.28	229.00
808.60	228.99
808.92	228.96
809.24	229.03
809.56	228.99
809.88	228.94
810.20	228.94
810.52	228.95
810.84	228.93
811.16	228.90
811.48	228.88
811.80	228.91
812.12	228.89
812.43	228.91
812.75	228.91
813.07	228.88
813.39	228.88
813.71	228.86
814.03	228.84
814.35	228.84
814.67	228.78
814.98	228.76
815.30	228.74
815.62	228.73
815.94	228.63
816.26	228.64
816.58	228.60
816.89	228.60
817.21	228.56
817.53	228.55
817.85	228.56
818.17	228.54
818.48	228.48
