SpectraSuite Data File
++++++++++++++++++++++++++++++++++++
Date: Fri Oct 02 18:00:03 EDT 2015
User: lab3
Dark Spectrum Present: No
Reference Spectrum Present: No
Number of Sampled Component Spectra: 1
Spectrometers: USB2E7196
Integration Time (usec): 46000 (USB2E7196)
Spectra Averaged: 1500 (USB2E7196)
Boxcar Smoothing: 10 (USB2E7196)
Correct for Electrical Dark: No (USB2E7196)
Strobe/Lamp Enabled: No (USB2E7196)
Correct for Detector Non-linearity: No (USB2E7196)
Correct for Stray Light: No (USB2E7196)
Number of Pixels in Processed Spectrum: 2048
>>>>>Begin Processed Spectral Data<<<<<
339.09	0.00
339.48	216.10
339.86	217.45
340.24	218.79
340.63	220.28
341.01	223.52
341.39	222.89
341.78	224.42
342.16	225.58
342.54	225.95
342.93	214.36
343.31	225.19
343.69	225.73
344.07	226.20
344.46	226.63
344.84	227.03
345.22	227.26
345.60	227.53
345.99	227.72
346.37	227.86
346.75	227.97
347.13	228.05
347.52	228.11
347.90	228.21
348.28	228.24
348.66	228.31
349.05	228.31
349.43	228.36
349.81	228.41
350.19	228.47
350.57	228.54
350.96	228.63
351.34	228.72
351.72	228.80
352.10	228.90
352.48	228.98
352.87	229.02
353.25	229.08
353.63	229.14
354.01	229.20
354.39	229.28
354.77	229.37
355.15	229.47
355.54	229.53
355.92	229.56
356.30	229.64
356.68	229.78
357.06	229.85
357.44	229.90
357.82	229.96
358.20	230.08
358.58	230.15
358.97	230.22
359.35	230.31
359.73	230.39
360.11	230.45
360.49	230.50
360.87	230.55
361.25	230.62
361.63	230.70
362.01	230.75
362.39	230.78
362.77	230.82
363.15	230.84
363.53	230.87
363.91	230.91
364.29	230.93
364.67	230.83
365.05	230.85
365.43	230.88
365.81	230.92
366.19	230.92
366.57	230.98
366.95	230.98
367.33	230.96
367.71	230.95
368.09	230.97
368.47	230.97
368.85	230.96
369.23	230.97
369.61	230.91
369.99	230.93
370.37	230.93
370.75	231.00
371.13	230.97
371.51	230.94
371.89	230.91
372.27	230.88
372.65	230.87
373.03	230.83
373.41	230.78
373.78	230.72
374.16	230.62
374.54	230.53
374.92	230.47
375.30	230.43
375.68	230.36
376.06	230.32
376.44	230.26
376.82	230.22
377.19	230.17
377.57	230.11
377.95	230.03
378.33	229.97
378.71	229.80
379.09	229.75
379.47	229.71
379.84	229.65
380.22	229.58
380.60	229.51
380.98	229.46
381.36	229.42
381.73	229.35
382.11	229.33
382.49	229.30
382.87	229.24
383.25	229.20
383.62	229.30
384.00	229.23
384.38	229.19
384.76	229.17
385.13	229.16
385.51	229.13
385.89	229.07
386.27	229.03
386.64	229.02
387.02	228.97
387.40	228.92
387.78	228.90
388.15	228.89
388.53	228.86
388.91	228.84
389.29	228.80
389.66	228.79
390.04	228.75
390.42	228.74
390.79	228.73
391.17	228.71
391.55	228.54
391.92	228.53
392.30	228.52
392.68	228.49
393.05	228.47
393.43	228.47
393.81	228.48
394.18	228.46
394.56	228.46
394.94	228.50
395.31	228.51
395.69	228.55
396.06	228.57
396.44	228.60
396.82	228.61
397.19	228.70
397.57	228.70
397.95	228.75
398.32	228.75
398.70	228.79
399.07	228.86
399.45	228.89
399.82	228.93
400.20	228.97
400.58	229.03
400.95	229.03
401.33	229.12
401.70	229.26
402.08	229.36
402.45	229.44
402.83	229.54
403.20	229.64
403.58	229.73
403.95	229.87
404.33	230.01
404.71	230.14
405.08	230.35
405.46	230.50
405.83	230.67
406.21	230.86
406.58	231.07
406.96	231.28
407.33	231.52
407.70	231.79
408.08	232.16
408.45	232.49
408.83	232.83
409.20	233.13
409.58	233.41
409.95	233.80
410.33	234.22
410.70	234.61
411.08	235.08
411.45	235.58
411.82	236.07
412.20	236.64
412.57	237.32
412.95	237.85
413.32	238.56
413.69	239.28
414.07	240.05
414.44	240.87
414.82	241.71
415.19	242.71
415.56	243.70
415.94	244.75
416.31	245.91
416.68	247.09
417.06	248.45
417.43	249.72
417.81	251.19
418.18	252.68
418.55	254.31
418.93	256.01
419.30	257.77
419.67	259.66
420.04	261.58
420.42	263.59
420.79	265.92
421.16	268.27
421.54	270.66
421.91	273.15
422.28	275.74
422.66	278.53
423.03	281.21
423.40	284.02
423.77	287.01
424.15	290.08
424.52	293.27
424.89	296.74
425.26	300.19
425.64	303.38
426.01	306.99
426.38	310.69
426.75	314.47
427.13	318.38
427.50	322.46
427.87	326.71
428.24	331.00
428.61	335.12
428.99	339.58
429.36	344.47
429.73	349.16
430.10	353.85
430.47	358.65
430.85	363.60
431.22	368.93
431.59	374.39
431.96	379.73
432.33	385.66
432.70	391.32
433.08	397.99
433.45	404.31
433.82	410.53
434.19	417.48
434.56	424.34
434.93	430.96
435.30	437.51
435.68	444.91
436.05	452.17
436.42	459.40
436.79	465.99
437.16	473.10
437.53	480.70
437.90	488.30
438.27	495.74
438.64	503.74
439.01	510.99
439.38	517.61
439.75	523.99
440.13	531.17
440.50	537.96
440.87	543.35
441.24	549.24
441.61	555.66
441.98	560.28
442.35	565.79
442.72	571.38
443.09	576.69
443.46	580.00
443.83	582.35
444.20	584.25
444.57	587.21
444.94	588.76
445.31	590.38
445.68	591.70
446.05	592.57
446.42	591.92
446.79	591.10
447.16	590.32
447.53	589.58
447.90	586.98
448.27	584.49
448.64	580.84
449.01	578.22
449.37	573.33
449.74	568.86
450.11	563.21
450.48	557.06
450.85	550.93
451.22	545.63
451.59	540.49
451.96	535.84
452.33	529.18
452.70	523.28
453.07	516.12
453.43	509.02
453.80	502.14
454.17	495.56
454.54	489.50
454.91	482.71
455.28	476.35
455.65	470.35
456.02	464.04
456.38	458.97
456.75	452.46
457.12	447.22
457.49	441.97
457.86	437.02
458.23	432.69
458.59	427.90
458.96	423.01
459.33	418.70
459.70	414.33
460.07	411.05
460.43	407.15
460.80	403.52
461.17	400.37
461.54	396.94
461.91	393.77
462.27	390.52
462.64	387.91
463.01	384.89
463.38	381.86
463.74	379.12
464.11	376.72
464.48	374.57
464.85	372.20
465.21	370.43
465.58	368.45
465.95	366.15
466.32	364.34
466.68	362.57
467.05	360.79
467.42	359.03
467.78	357.12
468.15	355.39
468.52	354.13
468.88	352.42
469.25	350.86
469.62	349.63
469.98	348.28
470.35	347.08
470.72	346.00
471.08	344.90
471.45	343.97
471.82	342.93
472.18	341.83
472.55	341.12
472.92	340.22
473.28	339.53
473.65	338.79
474.02	338.06
474.38	337.46
474.75	337.11
475.11	336.64
475.48	336.41
475.85	336.19
476.21	336.06
476.58	336.00
476.94	336.14
477.31	336.22
477.67	336.32
478.04	336.52
478.41	336.82
478.77	337.23
479.14	337.51
479.50	338.00
479.87	338.64
480.23	339.30
480.60	339.94
480.96	340.59
481.33	341.53
481.69	342.48
482.06	343.43
482.42	344.30
482.79	345.37
483.15	346.62
483.52	348.01
483.88	349.37
484.25	350.82
484.61	352.33
484.98	353.97
485.34	355.81
485.71	357.75
486.07	359.79
486.44	361.84
486.80	364.12
487.17	366.51
487.53	369.11
487.90	371.83
488.26	374.78
488.62	377.90
488.99	381.04
489.35	384.35
489.72	387.93
490.08	391.71
490.44	395.61
490.81	399.64
491.17	403.79
491.54	408.25
491.90	412.88
492.26	417.80
492.63	422.96
492.99	428.35
493.36	433.92
493.72	439.79
494.08	445.82
494.45	452.20
494.81	458.84
495.17	465.67
495.54	472.87
495.90	480.37
496.26	488.02
496.63	495.96
496.99	504.19
497.35	512.81
497.72	521.66
498.08	530.74
498.44	540.16
498.80	550.13
499.17	560.35
499.53	570.84
499.89	581.73
500.26	592.83
500.62	604.25
500.98	616.28
501.34	628.49
501.71	641.20
502.07	654.12
502.43	667.57
502.79	681.21
503.16	695.31
503.52	709.63
503.88	724.39
504.24	739.54
504.60	754.93
504.97	770.81
505.33	787.12
505.69	804.31
506.05	821.78
506.41	839.15
506.78	856.80
507.14	875.00
507.50	893.59
507.86	912.54
508.22	931.69
508.59	950.69
508.95	970.60
509.31	991.20
509.67	1012.41
510.03	1033.60
510.39	1054.94
510.75	1076.50
511.12	1098.33
511.48	1120.25
511.84	1142.34
512.20	1164.85
512.56	1188.13
512.92	1211.39
513.28	1234.36
513.64	1257.68
514.00	1281.37
514.37	1305.33
514.73	1329.32
515.09	1353.27
515.45	1377.60
515.81	1402.00
516.17	1426.63
516.53	1450.63
516.89	1474.62
517.25	1498.86
517.61	1523.06
517.97	1547.71
518.33	1571.82
518.69	1595.87
519.05	1620.57
519.41	1645.47
519.77	1670.41
520.13	1694.79
520.49	1719.14
520.85	1743.89
521.21	1767.98
521.57	1792.69
521.93	1816.81
522.29	1841.40
522.65	1865.59
523.01	1889.71
523.37	1913.52
523.73	1937.95
524.09	1962.20
524.45	1986.20
524.81	2009.79
525.17	2033.28
525.53	2056.11
525.89	2079.41
526.25	2102.82
526.61	2125.15
526.97	2147.68
527.33	2170.30
527.68	2192.43
528.04	2213.91
528.40	2234.29
528.76	2255.30
529.12	2275.56
529.48	2295.46
529.84	2313.75
530.20	2332.68
530.56	2350.96
530.91	2369.44
531.27	2387.53
531.63	2404.86
531.99	2421.82
532.35	2438.14
532.71	2454.36
533.07	2471.33
533.42	2486.62
533.78	2502.80
534.14	2519.19
534.50	2534.39
534.86	2549.53
535.21	2562.85
535.57	2576.56
535.93	2590.14
536.29	2602.47
536.65	2614.82
537.00	2626.62
537.36	2639.22
537.72	2650.12
538.08	2660.77
538.44	2670.72
538.79	2680.30
539.15	2688.96
539.51	2697.20
539.87	2704.69
540.22	2710.59
540.58	2716.55
540.94	2723.76
541.29	2729.18
541.65	2732.70
542.01	2735.95
542.37	2738.26
542.72	2742.02
543.08	2744.12
543.44	2746.73
543.79	2748.20
544.15	2748.87
544.51	2749.88
544.87	2749.79
545.22	2749.01
545.58	2747.49
545.94	2746.11
546.29	2743.35
546.65	2740.70
547.01	2738.04
547.36	2736.13
547.72	2733.90
548.07	2730.12
548.43	2724.67
548.79	2718.60
549.14	2713.88
549.50	2709.09
549.86	2703.53
550.21	2696.80
550.57	2690.95
550.92	2682.94
551.28	2675.68
551.64	2668.50
551.99	2660.82
552.35	2652.56
552.70	2644.58
553.06	2636.94
553.41	2628.54
553.77	2619.92
554.13	2611.13
554.48	2601.40
554.84	2590.63
555.19	2580.65
555.55	2570.48
555.90	2560.38
556.26	2550.72
556.61	2539.91
556.97	2527.60
557.32	2515.84
557.68	2503.88
558.03	2491.85
558.39	2480.87
558.74	2470.05
559.10	2457.66
559.45	2445.66
559.81	2434.21
560.16	2422.01
560.52	2409.97
560.87	2398.27
561.23	2385.78
561.58	2373.65
561.94	2360.96
562.29	2347.75
562.64	2335.18
563.00	2322.26
563.35	2309.94
563.71	2297.28
564.06	2284.51
564.42	2272.45
564.77	2259.70
565.12	2246.98
565.48	2234.15
565.83	2221.44
566.19	2208.70
566.54	2195.89
566.89	2181.83
567.25	2168.11
567.60	2155.62
567.96	2142.35
568.31	2127.77
568.66	2114.07
569.02	2101.17
569.37	2088.38
569.72	2076.05
570.08	2062.41
570.43	2048.53
570.78	2034.19
571.14	2019.36
571.49	2005.32
571.84	1991.75
572.20	1976.87
572.55	1962.40
572.90	1947.60
573.26	1932.76
573.61	1917.48
573.96	1902.62
574.31	1888.18
574.67	1873.46
575.02	1858.00
575.37	1842.54
575.72	1827.94
576.08	1813.52
576.43	1798.06
576.78	1783.01
577.13	1768.30
577.49	1753.96
577.84	1740.07
578.19	1725.31
578.54	1710.75
578.90	1695.71
579.25	1680.58
579.60	1667.04
579.95	1653.17
580.30	1639.27
580.66	1625.12
581.01	1610.91
581.36	1596.83
581.71	1583.65
582.06	1570.29
582.42	1557.14
582.77	1543.96
583.12	1530.71
583.47	1517.41
583.82	1504.21
584.17	1490.65
584.53	1476.69
584.88	1463.07
585.23	1449.09
585.58	1436.08
585.93	1423.25
586.28	1411.06
586.63	1398.90
586.98	1386.17
587.34	1373.58
587.69	1360.73
588.04	1348.24
588.39	1336.13
588.74	1324.05
589.09	1311.75
589.44	1299.15
589.79	1287.23
590.14	1275.35
590.49	1263.47
590.84	1251.66
591.19	1240.30
591.54	1228.78
591.89	1217.39
592.25	1206.09
592.60	1194.55
592.95	1183.30
593.30	1172.22
593.65	1160.84
594.00	1149.56
594.35	1139.00
594.70	1128.04
595.05	1117.95
595.40	1107.71
595.75	1097.29
596.10	1087.43
596.45	1077.21
596.80	1067.33
597.15	1057.22
597.50	1047.29
597.85	1037.68
598.19	1027.98
598.54	1018.32
598.89	1009.08
599.24	1000.16
599.59	991.21
599.94	983.10
600.29	974.74
600.64	966.09
600.99	957.13
601.34	948.56
601.69	939.62
602.04	931.30
602.39	922.85
602.74	914.36
603.08	905.94
603.43	897.49
603.78	889.23
604.13	881.17
604.48	873.02
604.83	865.08
605.18	857.06
605.53	849.18
605.87	841.09
606.22	833.42
606.57	825.64
606.92	817.68
607.27	809.67
607.62	802.12
607.96	794.91
608.31	788.14
608.66	781.17
609.01	774.47
609.36	767.93
609.70	761.05
610.05	754.25
610.40	747.67
610.75	741.09
611.10	734.85
611.44	728.43
611.79	722.15
612.14	715.79
612.49	709.56
612.83	703.60
613.18	697.78
613.53	691.79
613.88	685.91
614.22	680.50
614.57	674.94
614.92	669.17
615.27	663.60
615.61	658.04
615.96	652.55
616.31	647.08
616.65	641.66
617.00	636.52
617.35	631.44
617.70	626.42
618.04	621.40
618.39	616.36
618.74	611.59
619.08	606.84
619.43	602.19
619.78	597.59
620.12	592.92
620.47	588.44
620.82	584.05
621.16	579.61
621.51	575.05
621.85	570.62
622.20	566.39
622.55	562.14
622.89	557.96
623.24	553.77
623.59	549.67
623.93	545.72
624.28	541.82
624.62	538.05
624.97	534.30
625.32	530.57
625.66	526.76
626.01	522.89
626.35	519.13
626.70	515.41
627.04	511.83
627.39	508.26
627.73	504.83
628.08	501.49
628.43	498.19
628.77	494.97
629.12	491.83
629.46	488.66
629.81	485.44
630.15	482.26
630.50	479.17
630.84	476.08
631.19	473.06
631.53	470.18
631.88	467.27
632.22	464.37
632.57	461.75
632.91	459.15
633.26	456.65
633.60	454.15
633.95	451.75
634.29	449.23
634.64	446.78
634.98	444.12
635.32	441.65
635.67	439.35
636.01	436.97
636.36	434.66
636.70	432.54
637.05	430.37
637.39	428.20
637.73	426.06
638.08	424.06
638.42	422.02
638.77	419.84
639.11	417.61
639.45	415.48
639.80	413.29
640.14	411.21
640.49	409.11
640.83	406.99
641.17	404.94
641.52	402.96
641.86	400.99
642.20	399.25
642.55	397.32
642.89	395.43
643.23	393.62
643.58	391.98
643.92	390.18
644.26	388.47
644.61	386.82
644.95	385.12
645.29	383.37
645.64	381.64
645.98	379.98
646.32	378.45
646.66	376.89
647.01	375.36
647.35	373.89
647.69	372.40
648.04	371.05
648.38	369.60
648.72	368.17
649.06	366.75
649.41	365.35
649.75	364.00
650.09	362.66
650.43	361.33
650.78	359.93
651.12	358.57
651.46	357.26
651.80	355.98
652.14	354.74
652.49	353.52
652.83	352.32
653.17	351.15
653.51	350.01
653.85	348.93
654.20	347.77
654.54	346.56
654.88	345.43
655.22	344.34
655.56	343.22
655.90	342.18
656.25	341.16
656.59	340.12
656.93	339.14
657.27	338.18
657.61	337.14
657.95	336.17
658.29	335.20
658.64	334.29
658.98	333.35
659.32	332.43
659.66	331.56
660.00	330.69
660.34	329.83
660.68	328.93
661.02	327.99
661.36	327.09
661.70	326.23
662.05	325.37
662.39	324.51
662.73	323.76
663.07	322.98
663.41	322.19
663.75	321.38
664.09	320.59
664.43	319.74
664.77	319.00
665.11	318.19
665.45	317.44
665.79	316.71
666.13	315.93
666.47	315.14
666.81	314.35
667.15	313.53
667.49	312.82
667.83	312.17
668.17	311.51
668.51	310.89
668.85	310.28
669.19	309.70
669.53	309.04
669.87	308.35
670.21	307.70
670.55	307.08
670.89	306.53
671.23	305.94
671.57	305.36
671.91	304.83
672.25	304.31
672.58	303.78
672.92	303.18
673.26	302.68
673.60	302.18
673.94	301.69
674.28	301.23
674.62	300.72
674.96	300.16
675.30	299.65
675.64	299.10
675.97	298.56
676.31	297.99
676.65	297.47
676.99	297.02
677.33	296.48
677.67	295.98
678.01	295.41
678.34	294.92
678.68	294.45
679.02	293.90
679.36	293.39
679.70	292.87
680.04	292.40
680.37	291.91
680.71	291.45
681.05	290.98
681.39	290.48
681.73	289.96
682.06	289.47
682.40	289.01
682.74	288.59
683.08	288.21
683.42	287.77
683.75	287.37
684.09	286.87
684.43	286.46
684.77	286.01
685.10	285.64
685.44	285.22
685.78	284.80
686.12	284.42
686.45	284.01
686.79	283.58
687.13	283.17
687.46	282.73
687.80	282.31
688.14	281.86
688.48	281.47
688.81	281.07
689.15	280.70
689.49	280.29
689.82	279.86
690.16	279.38
690.50	278.98
690.83	278.57
691.17	278.16
691.51	277.76
691.84	277.38
692.18	276.95
692.52	276.52
692.85	276.10
693.19	275.73
693.52	275.33
693.86	274.93
694.20	274.56
694.53	274.18
694.87	273.77
695.21	273.38
695.54	272.99
695.88	272.60
696.21	272.18
696.55	271.80
696.88	271.42
697.22	271.06
697.56	270.67
697.89	270.25
698.23	269.87
698.56	269.46
698.90	269.09
699.23	268.69
699.57	268.32
699.90	267.95
700.24	267.56
700.58	267.22
700.91	266.90
701.25	266.66
701.58	266.36
701.92	266.07
702.25	265.74
702.59	265.38
702.92	265.04
703.26	264.68
703.59	264.33
703.93	264.08
704.26	263.75
704.60	263.42
704.93	263.09
705.26	262.75
705.60	262.48
705.93	262.12
706.27	261.85
706.60	261.58
706.94	261.31
707.27	260.97
707.61	260.64
707.94	260.28
708.27	259.85
708.61	259.48
708.94	259.14
709.28	258.83
709.61	258.53
709.94	258.27
710.28	258.01
710.61	257.76
710.95	257.39
711.28	257.20
711.61	256.92
711.95	256.67
712.28	256.40
712.61	256.10
712.95	255.92
713.28	255.71
713.61	255.41
713.95	255.09
714.28	254.84
714.61	254.58
714.95	254.34
715.28	254.10
715.61	253.85
715.95	253.64
716.28	253.41
716.61	253.21
716.95	252.95
717.28	252.71
717.61	252.45
717.94	252.22
718.28	251.89
718.61	251.65
718.94	251.40
719.27	251.18
719.61	250.98
719.94	250.71
720.27	250.42
720.60	250.21
720.94	250.00
721.27	249.79
721.60	249.60
721.93	249.37
722.27	249.20
722.60	249.01
722.93	248.78
723.26	248.58
723.59	248.34
723.93	248.15
724.26	247.96
724.59	247.76
724.92	247.58
725.25	247.43
725.59	247.26
725.92	247.10
726.25	246.92
726.58	246.74
726.91	246.55
727.24	246.40
727.57	246.22
727.91	246.04
728.24	245.90
728.57	245.71
728.90	245.56
729.23	245.34
729.56	245.22
729.89	245.05
730.22	244.87
730.55	244.71
730.89	244.55
731.22	244.37
731.55	244.21
731.88	244.06
732.21	243.88
732.54	243.71
732.87	243.56
733.20	243.41
733.53	243.26
733.86	243.11
734.19	242.94
734.52	242.81
734.85	242.75
735.18	242.57
735.51	242.47
735.84	242.33
736.17	242.24
736.50	242.04
736.83	242.05
737.16	241.92
737.49	241.80
737.82	241.66
738.15	241.55
738.48	241.42
738.81	241.29
739.14	241.15
739.47	241.01
739.80	240.87
740.13	240.74
740.46	240.59
740.79	240.45
741.12	240.32
741.45	240.16
741.78	239.96
742.11	239.87
742.44	239.71
742.77	239.60
743.10	239.46
743.43	239.34
743.75	239.09
744.08	239.16
744.41	239.03
744.74	238.91
745.07	238.76
745.40	238.68
745.73	238.61
746.06	238.50
746.39	238.41
746.71	238.31
747.04	238.19
747.37	238.09
747.70	238.01
748.03	237.92
748.36	237.85
748.68	237.75
749.01	237.61
749.34	237.53
749.67	237.42
750.00	237.35
750.33	237.35
750.65	237.26
750.98	236.99
751.31	236.90
751.64	236.82
751.97	236.80
752.29	236.70
752.62	236.55
752.95	236.46
753.28	236.36
753.60	236.27
753.93	236.21
754.26	236.14
754.59	236.00
754.91	235.90
755.24	235.80
755.57	235.77
755.90	235.68
756.22	235.57
756.55	235.48
756.88	235.36
757.20	235.19
757.53	235.08
757.86	234.99
758.19	234.92
758.51	234.84
758.84	234.69
759.17	234.61
759.49	234.54
759.82	234.53
760.15	234.46
760.47	234.38
760.80	234.29
761.13	234.23
761.45	234.18
761.78	234.12
762.11	234.06
762.43	233.93
762.76	233.87
763.08	233.81
763.41	233.75
763.74	233.70
764.06	233.65
764.39	233.60
764.71	233.54
765.04	233.46
765.37	233.39
765.69	233.34
766.02	233.28
766.34	233.20
766.67	233.10
767.00	233.07
767.32	233.09
767.65	233.11
767.97	233.04
768.30	232.99
768.62	232.93
768.95	232.87
769.27	232.82
769.60	232.78
769.92	232.72
770.25	232.66
770.57	232.58
770.90	232.53
771.22	232.47
771.55	232.43
771.87	232.39
772.20	232.34
772.52	232.41
772.85	232.52
773.17	232.49
773.50	232.44
773.82	232.37
774.15	232.26
774.47	232.14
774.80	232.09
775.12	232.04
775.45	232.00
775.77	231.98
776.09	231.95
776.42	231.92
776.74	231.92
777.07	231.87
777.39	231.85
777.72	231.80
778.04	231.79
778.36	231.74
778.69	231.71
779.01	231.69
779.33	231.55
779.66	231.36
779.98	231.32
780.31	231.30
780.63	231.32
780.95	231.30
781.28	231.27
781.60	231.24
781.92	231.21
782.25	231.19
782.57	231.16
782.89	231.12
783.22	231.08
783.54	231.03
783.86	231.01
784.19	230.97
784.51	230.99
784.83	230.95
785.16	230.92
785.48	230.89
785.80	230.87
786.12	230.84
786.45	230.83
786.77	230.82
787.09	230.78
787.42	230.71
787.74	230.70
788.06	230.68
788.38	230.66
788.71	230.63
789.03	230.61
789.35	230.60
789.67	230.56
789.99	230.55
790.32	230.52
790.64	230.51
790.96	230.61
791.28	230.55
791.61	230.52
791.93	230.50
792.25	230.49
792.57	230.55
792.89	230.50
793.21	230.48
793.54	230.45
793.86	230.43
794.18	230.41
794.50	230.37
794.82	230.36
795.14	230.36
795.47	230.36
795.79	230.34
796.11	230.29
796.43	230.28
796.75	230.26
797.07	230.24
797.39	230.22
797.71	230.10
798.04	230.08
798.36	230.06
798.68	230.05
799.00	230.04
799.32	229.96
799.64	229.97
799.96	229.95
800.28	229.96
800.60	229.94
800.92	229.93
801.24	229.91
801.56	229.90
801.89	229.87
802.21	229.85
802.53	229.82
802.85	229.84
803.17	229.88
803.49	229.84
803.81	229.81
804.13	229.79
804.45	229.77
804.77	229.78
805.09	229.76
805.41	229.73
805.73	229.70
806.05	229.65
806.37	229.62
806.69	229.60
807.01	229.58
807.33	229.58
807.65	229.52
807.97	229.55
808.28	229.52
808.60	229.52
808.92	229.48
809.24	229.54
809.56	229.51
809.88	229.45
810.20	229.45
810.52	229.47
810.84	229.44
811.16	229.41
811.48	229.39
811.80	229.42
812.12	229.42
812.43	229.44
812.75	229.44
813.07	229.41
813.39	229.41
813.71	229.38
814.03	229.36
814.35	229.36
814.67	229.31
814.98	229.30
815.30	229.28
815.62	229.26
815.94	229.16
816.26	229.16
816.58	229.13
816.89	229.14
817.21	229.09
817.53	229.09
817.85	229.09
818.17	229.08
818.48	229.02
