SpectraSuite Data File
++++++++++++++++++++++++++++++++++++
Date: Sat Oct 03 13:08:19 EDT 2015
User: lab3
Dark Spectrum Present: No
Reference Spectrum Present: No
Number of Sampled Component Spectra: 1
Spectrometers: USB2E7196
Integration Time (usec): 46000 (USB2E7196)
Spectra Averaged: 12000 (USB2E7196)
Boxcar Smoothing: 10 (USB2E7196)
Correct for Electrical Dark: No (USB2E7196)
Strobe/Lamp Enabled: No (USB2E7196)
Correct for Detector Non-linearity: No (USB2E7196)
Correct for Stray Light: No (USB2E7196)
Number of Pixels in Processed Spectrum: 2048
>>>>>Begin Processed Spectral Data<<<<<
339.09	0.00
339.48	213.49
339.86	215.00
340.24	216.39
340.63	217.78
341.01	221.12
341.39	220.50
341.78	221.91
342.16	223.10
342.54	223.51
342.93	211.98
343.31	222.69
343.69	223.23
344.07	223.69
344.46	224.12
344.84	224.51
345.22	224.73
345.60	224.99
345.99	225.18
346.37	225.31
346.75	225.42
347.13	225.50
347.52	225.57
347.90	225.66
348.28	225.70
348.66	225.76
349.05	225.75
349.43	225.81
349.81	225.87
350.19	225.92
350.57	225.99
350.96	226.07
351.34	226.17
351.72	226.26
352.10	226.37
352.48	226.44
352.87	226.49
353.25	226.55
353.63	226.61
354.01	226.67
354.39	226.75
354.77	226.82
355.15	226.93
355.54	226.97
355.92	227.00
356.30	227.08
356.68	227.22
357.06	227.30
357.44	227.35
357.82	227.40
358.20	227.52
358.58	227.58
358.97	227.65
359.35	227.73
359.73	227.81
360.11	227.86
360.49	227.92
360.87	227.97
361.25	228.04
361.63	228.13
362.01	228.18
362.39	228.20
362.77	228.25
363.15	228.27
363.53	228.31
363.91	228.34
364.29	228.37
364.67	228.27
365.05	228.29
365.43	228.32
365.81	228.36
366.19	228.37
366.57	228.43
366.95	228.43
367.33	228.40
367.71	228.39
368.09	228.42
368.47	228.41
368.85	228.40
369.23	228.41
369.61	228.35
369.99	228.37
370.37	228.37
370.75	228.45
371.13	228.42
371.51	228.38
371.89	228.36
372.27	228.34
372.65	228.32
373.03	228.28
373.41	228.24
373.78	228.18
374.16	228.09
374.54	228.00
374.92	227.95
375.30	227.92
375.68	227.85
376.06	227.81
376.44	227.75
376.82	227.71
377.19	227.67
377.57	227.62
377.95	227.53
378.33	227.47
378.71	227.31
379.09	227.26
379.47	227.23
379.84	227.17
380.22	227.10
380.60	227.03
380.98	226.99
381.36	226.94
381.73	226.88
382.11	226.86
382.49	226.82
382.87	226.76
383.25	226.72
383.62	226.82
384.00	226.75
384.38	226.72
384.76	226.70
385.13	226.70
385.51	226.66
385.89	226.61
386.27	226.58
386.64	226.56
387.02	226.51
387.40	226.46
387.78	226.44
388.15	226.42
388.53	226.39
388.91	226.36
389.29	226.32
389.66	226.32
390.04	226.27
390.42	226.27
390.79	226.26
391.17	226.24
391.55	226.08
391.92	226.07
392.30	226.08
392.68	226.04
393.05	226.02
393.43	226.02
393.81	226.03
394.18	226.01
394.56	226.01
394.94	226.05
395.31	226.05
395.69	226.09
396.06	226.12
396.44	226.15
396.82	226.16
397.19	226.26
397.57	226.27
397.95	226.32
398.32	226.31
398.70	226.36
399.07	226.43
399.45	226.47
399.82	226.52
400.20	226.55
400.58	226.61
400.95	226.62
401.33	226.71
401.70	226.87
402.08	226.97
402.45	227.06
402.83	227.18
403.20	227.30
403.58	227.39
403.95	227.54
404.33	227.69
404.71	227.84
405.08	228.05
405.46	228.21
405.83	228.41
406.21	228.61
406.58	228.84
406.96	229.06
407.33	229.32
407.70	229.61
408.08	230.00
408.45	230.35
408.83	230.72
409.20	231.06
409.58	231.36
409.95	231.78
410.33	232.24
410.70	232.66
411.08	233.17
411.45	233.70
411.82	234.24
412.20	234.86
412.57	235.59
412.95	236.17
413.32	236.93
413.69	237.69
414.07	238.52
414.44	239.41
414.82	240.32
415.19	241.38
415.56	242.46
415.94	243.58
416.31	244.83
416.68	246.09
417.06	247.55
417.43	248.92
417.81	250.49
418.18	252.09
418.55	253.84
418.93	255.66
419.30	257.56
419.67	259.57
420.04	261.65
420.42	263.80
420.79	266.30
421.16	268.82
421.54	271.38
421.91	274.06
422.28	276.83
422.66	279.82
423.03	282.68
423.40	285.67
423.77	288.88
424.15	292.17
424.52	295.59
424.89	299.30
425.26	302.98
425.64	306.41
426.01	310.26
426.38	314.20
426.75	318.25
427.13	322.41
427.50	326.77
427.87	331.30
428.24	335.87
428.61	340.26
428.99	345.02
429.36	350.23
429.73	355.22
430.10	360.21
430.47	365.31
430.85	370.56
431.22	376.20
431.59	381.99
431.96	387.64
432.33	393.92
432.70	399.90
433.08	406.95
433.45	413.62
433.82	420.19
434.19	427.52
434.56	434.76
434.93	441.75
435.30	448.66
435.68	456.48
436.05	464.12
436.42	471.75
436.79	478.70
437.16	486.20
437.53	494.24
437.90	502.29
438.27	510.16
438.64	518.67
439.01	526.38
439.38	533.43
439.75	540.22
440.13	547.88
440.50	555.15
440.87	560.92
441.24	567.23
441.61	574.13
441.98	579.15
442.35	585.11
442.72	591.18
443.09	596.97
443.46	600.62
443.83	603.28
444.20	605.49
444.57	608.81
444.94	610.67
445.31	612.58
445.68	614.20
446.05	615.36
446.42	614.91
446.79	614.26
447.16	613.68
447.53	613.13
447.90	610.59
448.27	608.15
448.64	604.52
449.01	601.96
449.37	596.94
449.74	592.41
450.11	586.58
450.48	580.21
450.85	573.84
451.22	568.40
451.59	563.10
451.96	558.30
452.33	551.34
452.70	545.17
453.07	537.65
453.43	530.15
453.80	522.88
454.17	515.90
454.54	509.50
454.91	502.26
455.28	495.49
455.65	489.11
456.02	482.38
456.38	476.96
456.75	469.99
457.12	464.39
457.49	458.72
457.86	453.41
458.23	448.77
458.59	443.60
458.96	438.30
459.33	433.64
459.70	428.90
460.07	425.30
460.43	421.07
460.80	417.12
461.17	413.70
461.54	409.97
461.91	406.50
462.27	402.96
462.64	400.12
463.01	396.84
463.38	393.53
463.74	390.54
464.11	387.90
464.48	385.54
464.85	382.95
465.21	381.01
465.58	378.82
465.95	376.30
466.32	374.31
466.68	372.35
467.05	370.39
467.42	368.48
467.78	366.40
468.15	364.48
468.52	363.09
468.88	361.20
469.25	359.48
469.62	358.12
469.98	356.62
470.35	355.29
470.72	354.08
471.08	352.85
471.45	351.82
471.82	350.67
472.18	349.45
472.55	348.65
472.92	347.65
473.28	346.86
473.65	346.01
474.02	345.20
474.38	344.52
474.75	344.11
475.11	343.54
475.48	343.26
475.85	342.95
476.21	342.79
476.58	342.66
476.94	342.77
477.31	342.81
477.67	342.89
478.04	343.07
478.41	343.34
478.77	343.75
479.14	344.00
479.50	344.50
479.87	345.16
480.23	345.83
480.60	346.48
480.96	347.14
481.33	348.13
481.69	349.11
482.06	350.09
482.42	350.98
482.79	352.09
483.15	353.39
483.52	354.87
483.88	356.28
484.25	357.81
484.61	359.39
484.98	361.10
485.34	363.03
485.71	365.04
486.07	367.20
486.44	369.36
486.80	371.76
487.17	374.26
487.53	376.99
487.90	379.85
488.26	382.97
488.62	386.26
488.99	389.55
489.35	393.02
489.72	396.78
490.08	400.74
490.44	404.82
490.81	409.07
491.17	413.42
491.54	418.09
491.90	422.91
492.26	428.07
492.63	433.47
492.99	439.10
493.36	444.95
493.72	451.09
494.08	457.38
494.45	464.07
494.81	471.00
495.17	478.12
495.54	485.65
495.90	493.48
496.26	501.50
496.63	509.76
496.99	518.33
497.35	527.30
497.72	536.57
498.08	546.05
498.44	555.83
498.80	566.22
499.17	576.85
499.53	587.83
499.89	599.17
500.26	610.76
500.62	622.63
500.98	635.14
501.34	647.83
501.71	661.04
502.07	674.45
502.43	688.40
502.79	702.57
503.16	717.22
503.52	732.03
503.88	747.29
504.24	763.02
504.60	778.94
504.97	795.37
505.33	812.22
505.69	829.99
506.05	848.10
506.41	866.15
506.78	884.40
507.14	903.16
507.50	922.36
507.86	941.91
508.22	961.68
508.59	981.27
508.95	1001.65
509.31	1022.77
509.67	1044.63
510.03	1066.50
510.39	1088.42
510.75	1110.49
511.12	1132.87
511.48	1155.43
511.84	1177.98
512.20	1200.96
512.56	1224.82
512.92	1248.71
513.28	1272.19
513.64	1295.94
514.00	1320.15
514.37	1344.69
514.73	1369.17
515.09	1393.52
515.45	1418.18
515.81	1443.05
516.17	1467.99
516.53	1492.55
516.89	1516.95
517.25	1541.50
517.61	1565.86
517.97	1590.70
518.33	1615.09
518.69	1639.43
519.05	1664.21
519.41	1689.30
519.77	1714.64
520.13	1739.17
520.49	1763.66
520.85	1788.44
521.21	1812.87
521.57	1837.59
521.93	1861.76
522.29	1886.51
522.65	1910.68
523.01	1934.83
523.37	1958.58
523.73	1983.11
524.09	2007.23
524.45	2031.17
524.81	2054.78
525.17	2078.28
525.53	2101.21
525.89	2124.54
526.25	2147.86
526.61	2170.16
526.97	2192.57
527.33	2214.88
527.68	2237.01
528.04	2258.29
528.40	2278.63
528.76	2299.13
529.12	2319.20
529.48	2339.03
529.84	2356.90
530.20	2375.49
530.56	2393.45
530.91	2411.56
531.27	2429.30
531.63	2446.17
531.99	2462.58
532.35	2478.24
532.71	2494.12
533.07	2510.61
533.42	2525.37
533.78	2541.02
534.14	2556.92
534.50	2571.92
534.86	2586.61
535.21	2599.29
535.57	2612.54
535.93	2625.66
536.29	2637.58
536.65	2649.22
537.00	2660.05
537.36	2671.96
537.72	2682.55
538.08	2692.52
538.44	2701.78
538.79	2710.66
539.15	2718.85
539.51	2726.66
539.87	2733.88
540.22	2738.94
540.58	2744.13
540.94	2750.42
541.29	2755.25
541.65	2758.30
542.01	2760.53
542.37	2762.17
542.72	2765.19
543.08	2766.44
543.44	2768.29
543.79	2769.14
544.15	2769.19
544.51	2769.64
544.87	2768.98
545.22	2767.47
545.58	2765.31
545.94	2763.12
546.29	2759.67
546.65	2756.19
547.01	2752.61
547.36	2749.77
547.72	2747.22
548.07	2742.83
548.43	2737.04
548.79	2730.13
549.14	2724.53
549.50	2719.33
549.86	2713.07
550.21	2705.65
550.57	2699.25
550.92	2690.48
551.28	2682.24
551.64	2674.44
551.99	2666.20
552.35	2657.32
552.70	2648.71
553.06	2640.45
553.41	2631.51
553.77	2622.45
554.13	2613.33
554.48	2603.36
554.84	2592.10
555.19	2581.20
555.55	2570.43
555.90	2559.78
556.26	2549.78
556.61	2538.56
556.97	2525.67
557.32	2513.27
557.68	2500.95
558.03	2488.30
558.39	2476.93
558.74	2465.88
559.10	2453.04
559.45	2440.40
559.81	2428.38
560.16	2415.67
560.52	2403.31
560.87	2391.41
561.23	2378.58
561.58	2365.74
561.94	2352.64
562.29	2338.98
562.64	2326.05
563.00	2312.89
563.35	2299.99
563.71	2286.94
564.06	2273.88
564.42	2261.58
564.77	2248.77
565.12	2235.76
565.48	2222.72
565.83	2209.58
566.19	2196.60
566.54	2183.58
566.89	2169.51
567.25	2155.50
567.60	2142.97
567.96	2129.47
568.31	2114.56
568.66	2100.36
569.02	2087.42
569.37	2074.42
569.72	2061.91
570.08	2048.16
570.43	2033.99
570.78	2019.78
571.14	2004.82
571.49	1990.45
571.84	1976.63
572.20	1961.62
572.55	1946.83
572.90	1932.01
573.26	1917.29
573.61	1902.04
573.96	1887.21
574.31	1872.56
574.67	1858.11
575.02	1842.49
575.37	1827.02
575.72	1812.38
576.08	1798.01
576.43	1782.54
576.78	1767.49
577.13	1752.72
577.49	1738.29
577.84	1724.46
578.19	1709.68
578.54	1695.06
578.90	1679.98
579.25	1664.80
579.60	1651.23
579.95	1637.55
580.30	1623.68
580.66	1609.49
581.01	1595.26
581.36	1581.04
581.71	1567.78
582.06	1554.44
582.42	1541.34
582.77	1528.28
583.12	1515.24
583.47	1502.10
583.82	1489.04
584.17	1475.61
584.53	1461.90
584.88	1448.54
585.23	1434.80
585.58	1421.83
585.93	1409.03
586.28	1396.97
586.63	1384.87
586.98	1372.33
587.34	1359.87
587.69	1347.12
588.04	1334.71
588.39	1322.63
588.74	1310.70
589.09	1298.57
589.44	1286.00
589.79	1274.04
590.14	1262.20
590.49	1250.25
590.84	1238.48
591.19	1227.11
591.54	1215.56
591.89	1204.10
592.25	1192.89
592.60	1181.31
592.95	1170.12
593.30	1159.22
593.65	1148.02
594.00	1136.98
594.35	1126.44
594.70	1115.47
595.05	1105.34
595.40	1095.12
595.75	1084.75
596.10	1074.90
596.45	1064.83
596.80	1055.11
597.15	1045.12
597.50	1035.29
597.85	1025.88
598.19	1016.29
598.54	1006.71
598.89	997.63
599.24	988.87
599.59	979.86
599.94	971.77
600.29	963.48
600.64	954.91
600.99	945.99
601.34	937.38
601.69	928.48
602.04	920.24
602.39	911.82
602.74	903.49
603.08	895.11
603.43	886.69
603.78	878.46
604.13	870.34
604.48	862.25
604.83	854.32
605.18	846.34
605.53	838.51
605.87	830.53
606.22	822.80
606.57	815.05
606.92	807.23
607.27	799.34
607.62	791.73
607.96	784.52
608.31	777.76
608.66	770.81
609.01	764.13
609.36	757.55
609.70	750.80
610.05	744.01
610.40	737.49
610.75	730.93
611.10	724.72
611.44	718.35
611.79	712.10
612.14	705.77
612.49	699.50
612.83	693.53
613.18	687.69
613.53	681.79
613.88	675.86
614.22	670.33
614.57	664.77
614.92	659.08
615.27	653.49
615.61	647.95
615.96	642.47
616.31	636.99
616.65	631.56
617.00	626.31
617.35	621.21
617.70	616.12
618.04	611.11
618.39	606.00
618.74	601.14
619.08	596.32
619.43	591.64
619.78	586.95
620.12	582.24
620.47	577.67
620.82	573.23
621.16	568.84
621.51	564.34
621.85	559.86
622.20	555.54
622.55	551.28
622.89	547.09
623.24	542.92
623.59	538.76
623.93	534.76
624.28	530.89
624.62	527.09
624.97	523.34
625.32	519.54
625.66	515.71
626.01	511.85
626.35	508.04
626.70	504.28
627.04	500.72
627.39	497.07
627.73	493.61
628.08	490.23
628.43	486.84
628.77	483.52
629.12	480.33
629.46	477.18
629.81	473.91
630.15	470.63
630.50	467.46
630.84	464.35
631.19	461.29
631.53	458.32
631.88	455.31
632.22	452.34
632.57	449.64
632.91	446.99
633.26	444.42
633.60	441.88
633.95	439.37
634.29	436.80
634.64	434.29
634.98	431.61
635.32	429.04
635.67	426.67
636.01	424.25
636.36	421.86
636.70	419.59
637.05	417.34
637.39	415.13
637.73	412.93
638.08	410.86
638.42	408.78
638.77	406.55
639.11	404.27
639.45	402.07
639.80	399.82
640.14	397.66
640.49	395.49
640.83	393.31
641.17	391.22
641.52	389.18
641.86	387.16
642.20	385.35
642.55	383.38
642.89	381.44
643.23	379.59
643.58	377.90
643.92	376.09
644.26	374.33
644.61	372.63
644.95	370.90
645.29	369.09
645.64	367.30
645.98	365.61
646.32	364.03
646.66	362.44
647.01	360.88
647.35	359.36
647.69	357.83
648.04	356.42
648.38	354.93
648.72	353.45
649.06	351.99
649.41	350.53
649.75	349.13
650.09	347.76
650.43	346.38
650.78	344.96
651.12	343.58
651.46	342.25
651.80	340.94
652.14	339.67
652.49	338.44
652.83	337.18
653.17	335.97
653.51	334.79
653.85	333.67
654.20	332.50
654.54	331.26
654.88	330.12
655.22	329.00
655.56	327.87
655.90	326.80
656.25	325.77
656.59	324.72
656.93	323.74
657.27	322.76
657.61	321.72
657.95	320.74
658.29	319.76
658.64	318.82
658.98	317.88
659.32	316.96
659.66	316.09
660.00	315.25
660.34	314.39
660.68	313.52
661.02	312.62
661.36	311.75
661.70	310.94
662.05	310.14
662.39	309.34
662.73	308.62
663.07	307.90
663.41	307.14
663.75	306.38
664.09	305.62
664.43	304.84
664.77	304.13
665.11	303.37
665.45	302.68
665.79	302.00
666.13	301.29
666.47	300.57
666.81	299.83
667.15	299.07
667.49	298.41
667.83	297.80
668.17	297.17
668.51	296.58
668.85	296.02
669.19	295.49
669.53	294.86
669.87	294.23
670.21	293.61
670.55	293.04
670.89	292.55
671.23	292.01
671.57	291.48
671.91	291.00
672.25	290.54
672.58	290.09
672.92	289.55
673.26	289.09
673.60	288.63
673.94	288.20
674.28	287.80
674.62	287.36
674.96	286.86
675.30	286.43
675.64	285.96
675.97	285.48
676.31	284.97
676.65	284.52
676.99	284.13
677.33	283.67
677.67	283.24
678.01	282.74
678.34	282.32
678.68	281.93
679.02	281.47
679.36	281.02
679.70	280.57
680.04	280.17
680.37	279.77
680.71	279.38
681.05	279.00
681.39	278.58
681.73	278.15
682.06	277.74
682.40	277.34
682.74	277.00
683.08	276.70
683.42	276.33
683.75	276.00
684.09	275.59
684.43	275.25
684.77	274.90
685.10	274.59
685.44	274.25
685.78	273.91
686.12	273.60
686.45	273.25
686.79	272.90
687.13	272.58
687.46	272.23
687.80	271.89
688.14	271.51
688.48	271.20
688.81	270.87
689.15	270.59
689.49	270.25
689.82	269.90
690.16	269.49
690.50	269.17
690.83	268.84
691.17	268.51
691.51	268.18
691.84	267.87
692.18	267.52
692.52	267.18
692.85	266.85
693.19	266.56
693.52	266.24
693.86	265.93
694.20	265.62
694.53	265.32
694.87	264.99
695.21	264.68
695.54	264.37
695.88	264.05
696.21	263.70
696.55	263.40
696.88	263.09
697.22	262.80
697.56	262.50
697.89	262.16
698.23	261.87
698.56	261.54
698.90	261.24
699.23	260.92
699.57	260.62
699.90	260.31
700.24	259.98
700.58	259.71
700.91	259.46
701.25	259.28
701.58	259.05
701.92	258.81
702.25	258.55
702.59	258.26
702.92	257.99
703.26	257.72
703.59	257.44
703.93	257.26
704.26	257.00
704.60	256.72
704.93	256.45
705.26	256.17
705.60	255.95
705.93	255.65
706.27	255.43
706.60	255.21
706.94	255.01
707.27	254.72
707.61	254.45
707.94	254.17
708.27	253.78
708.61	253.46
708.94	253.18
709.28	252.92
709.61	252.67
709.94	252.44
710.28	252.21
710.61	251.99
710.95	251.66
711.28	251.50
711.61	251.27
711.95	251.08
712.28	250.84
712.61	250.59
712.95	250.44
713.28	250.28
713.61	250.02
713.95	249.75
714.28	249.54
714.61	249.31
714.95	249.09
715.28	248.88
715.61	248.68
715.95	248.49
716.28	248.29
716.61	248.12
716.95	247.90
717.28	247.69
717.61	247.48
717.94	247.28
718.28	246.99
718.61	246.78
718.94	246.55
719.27	246.36
719.61	246.19
719.94	245.96
720.27	245.69
720.60	245.50
720.94	245.31
721.27	245.13
721.60	244.97
721.93	244.79
722.27	244.65
722.60	244.48
722.93	244.28
723.26	244.10
723.59	243.89
723.93	243.73
724.26	243.56
724.59	243.38
724.92	243.22
725.25	243.10
725.59	242.94
725.92	242.80
726.25	242.65
726.58	242.48
726.91	242.32
727.24	242.18
727.57	242.03
727.91	241.85
728.24	241.72
728.57	241.56
728.90	241.43
729.23	241.23
729.56	241.14
729.89	240.99
730.22	240.82
730.55	240.68
730.89	240.53
731.22	240.38
731.55	240.24
731.88	240.09
732.21	239.92
732.54	239.78
732.87	239.64
733.20	239.51
733.53	239.38
733.86	239.25
734.19	239.10
734.52	238.99
734.85	238.95
735.18	238.79
735.51	238.70
735.84	238.57
736.17	238.49
736.50	238.30
736.83	238.33
737.16	238.22
737.49	238.12
737.82	237.99
738.15	237.90
738.48	237.78
738.81	237.66
739.14	237.54
739.47	237.41
739.80	237.29
740.13	237.18
740.46	237.05
740.79	236.92
741.12	236.81
741.45	236.67
741.78	236.48
742.11	236.41
742.44	236.27
742.77	236.18
743.10	236.05
743.43	235.93
743.75	235.69
744.08	235.79
744.41	235.68
744.74	235.57
745.07	235.44
745.40	235.37
745.73	235.33
746.06	235.24
746.39	235.16
746.71	235.06
747.04	234.96
747.37	234.87
747.70	234.80
748.03	234.72
748.36	234.66
748.68	234.57
749.01	234.44
749.34	234.36
749.67	234.27
750.00	234.21
750.33	234.22
750.65	234.14
750.98	233.86
751.31	233.78
751.64	233.71
751.97	233.69
752.29	233.60
752.62	233.46
752.95	233.37
753.28	233.26
753.60	233.18
753.93	233.13
754.26	233.07
754.59	232.95
754.91	232.85
755.24	232.75
755.57	232.74
755.90	232.66
756.22	232.57
756.55	232.48
756.88	232.37
757.20	232.21
757.53	232.10
757.86	232.03
758.19	231.97
758.51	231.89
758.84	231.76
759.17	231.68
759.49	231.61
759.82	231.61
760.15	231.56
760.47	231.49
760.80	231.39
761.13	231.34
761.45	231.28
761.78	231.23
762.11	231.17
762.43	231.04
762.76	230.98
763.08	230.94
763.41	230.89
763.74	230.84
764.06	230.78
764.39	230.73
764.71	230.68
765.04	230.61
765.37	230.54
765.69	230.49
766.02	230.44
766.34	230.38
766.67	230.28
767.00	230.25
767.32	230.27
767.65	230.30
767.97	230.24
768.30	230.20
768.62	230.15
768.95	230.09
769.27	230.04
769.60	230.01
769.92	229.94
770.25	229.87
770.57	229.81
770.90	229.76
771.22	229.70
771.55	229.66
771.87	229.62
772.20	229.58
772.52	229.64
772.85	229.76
773.17	229.72
773.50	229.67
773.82	229.61
774.15	229.50
774.47	229.38
774.80	229.33
775.12	229.29
775.45	229.25
775.77	229.23
776.09	229.20
776.42	229.17
776.74	229.18
777.07	229.15
777.39	229.12
777.72	229.08
778.04	229.07
778.36	229.03
778.69	229.00
779.01	228.99
779.33	228.84
779.66	228.67
779.98	228.63
780.31	228.61
780.63	228.63
780.95	228.63
781.28	228.60
781.60	228.56
781.92	228.54
782.25	228.51
782.57	228.48
782.89	228.45
783.22	228.41
783.54	228.35
783.86	228.34
784.19	228.31
784.51	228.33
784.83	228.29
785.16	228.26
785.48	228.23
785.80	228.21
786.12	228.19
786.45	228.17
786.77	228.16
787.09	228.13
787.42	228.05
787.74	228.03
788.06	228.02
788.38	228.00
788.71	227.97
789.03	227.95
789.35	227.95
789.67	227.92
789.99	227.91
790.32	227.88
790.64	227.87
790.96	227.97
791.28	227.90
791.61	227.88
791.93	227.87
792.25	227.84
792.57	227.91
792.89	227.87
793.21	227.87
793.54	227.84
793.86	227.81
794.18	227.80
794.50	227.76
794.82	227.74
795.14	227.73
795.47	227.74
795.79	227.72
796.11	227.68
796.43	227.66
796.75	227.64
797.07	227.63
797.39	227.61
797.71	227.49
798.04	227.48
798.36	227.47
798.68	227.45
799.00	227.45
799.32	227.37
799.64	227.38
799.96	227.36
800.28	227.37
800.60	227.35
800.92	227.34
801.24	227.32
801.56	227.31
801.89	227.29
802.21	227.28
802.53	227.24
802.85	227.26
803.17	227.31
803.49	227.26
803.81	227.24
804.13	227.22
804.45	227.19
804.77	227.18
805.09	227.17
805.41	227.14
805.73	227.10
806.05	227.06
806.37	227.02
806.69	227.00
807.01	226.97
807.33	226.97
807.65	226.92
807.97	226.97
808.28	226.94
808.60	226.93
808.92	226.90
809.24	226.97
809.56	226.93
809.88	226.87
810.20	226.87
810.52	226.89
810.84	226.86
811.16	226.84
811.48	226.81
811.80	226.85
812.12	226.83
812.43	226.85
812.75	226.85
813.07	226.83
813.39	226.83
813.71	226.81
814.03	226.78
814.35	226.78
814.67	226.72
814.98	226.69
815.30	226.68
815.62	226.65
815.94	226.56
816.26	226.56
816.58	226.53
816.89	226.53
817.21	226.49
817.53	226.49
817.85	226.49
818.17	226.48
818.48	226.42
