SpectraSuite Data File
++++++++++++++++++++++++++++++++++++
Date: Fri Oct 02 18:15:22 EDT 2015
User: lab3
Dark Spectrum Present: No
Reference Spectrum Present: No
Number of Sampled Component Spectra: 1
Spectrometers: USB2E7196
Integration Time (usec): 46000 (USB2E7196)
Spectra Averaged: 1500 (USB2E7196)
Boxcar Smoothing: 10 (USB2E7196)
Correct for Electrical Dark: No (USB2E7196)
Strobe/Lamp Enabled: No (USB2E7196)
Correct for Detector Non-linearity: No (USB2E7196)
Correct for Stray Light: No (USB2E7196)
Number of Pixels in Processed Spectrum: 2048
>>>>>Begin Processed Spectral Data<<<<<
339.09	0.00
339.48	215.79
339.86	217.19
340.24	218.58
340.63	219.94
341.01	223.24
341.39	222.51
341.78	223.97
342.16	225.29
342.54	225.61
342.93	214.03
343.31	224.84
343.69	225.38
344.07	225.84
344.46	226.27
344.84	226.65
345.22	226.87
345.60	227.13
345.99	227.33
346.37	227.46
346.75	227.57
347.13	227.65
347.52	227.72
347.90	227.81
348.28	227.85
348.66	227.92
349.05	227.91
349.43	227.96
349.81	228.03
350.19	228.09
350.57	228.16
350.96	228.24
351.34	228.34
351.72	228.41
352.10	228.52
352.48	228.59
352.87	228.65
353.25	228.72
353.63	228.78
354.01	228.85
354.39	228.92
354.77	229.00
355.15	229.11
355.54	229.16
355.92	229.19
356.30	229.27
356.68	229.42
357.06	229.50
357.44	229.55
357.82	229.61
358.20	229.72
358.58	229.78
358.97	229.84
359.35	229.93
359.73	230.03
360.11	230.08
360.49	230.14
360.87	230.19
361.25	230.25
361.63	230.34
362.01	230.39
362.39	230.44
362.77	230.49
363.15	230.51
363.53	230.55
363.91	230.60
364.29	230.62
364.67	230.52
365.05	230.54
365.43	230.58
365.81	230.62
366.19	230.63
366.57	230.70
366.95	230.71
367.33	230.68
367.71	230.67
368.09	230.69
368.47	230.69
368.85	230.67
369.23	230.69
369.61	230.64
369.99	230.66
370.37	230.65
370.75	230.72
371.13	230.68
371.51	230.65
371.89	230.63
372.27	230.60
372.65	230.58
373.03	230.55
373.41	230.51
373.78	230.46
374.16	230.35
374.54	230.27
374.92	230.22
375.30	230.18
375.68	230.11
376.06	230.07
376.44	230.02
376.82	229.98
377.19	229.94
377.57	229.88
377.95	229.79
378.33	229.74
378.71	229.58
379.09	229.54
379.47	229.50
379.84	229.44
380.22	229.38
380.60	229.30
380.98	229.25
381.36	229.20
381.73	229.14
382.11	229.12
382.49	229.07
382.87	229.01
383.25	228.96
383.62	229.06
384.00	229.00
384.38	228.95
384.76	228.92
385.13	228.91
385.51	228.87
385.89	228.82
386.27	228.78
386.64	228.77
387.02	228.71
387.40	228.66
387.78	228.63
388.15	228.61
388.53	228.59
388.91	228.55
389.29	228.52
389.66	228.51
390.04	228.47
390.42	228.47
390.79	228.46
391.17	228.43
391.55	228.28
391.92	228.27
392.30	228.27
392.68	228.24
393.05	228.21
393.43	228.21
393.81	228.22
394.18	228.20
394.56	228.21
394.94	228.24
395.31	228.24
395.69	228.28
396.06	228.30
396.44	228.31
396.82	228.32
397.19	228.41
397.57	228.41
397.95	228.45
398.32	228.44
398.70	228.48
399.07	228.54
399.45	228.57
399.82	228.62
400.20	228.65
400.58	228.71
400.95	228.72
401.33	228.80
401.70	228.96
402.08	229.05
402.45	229.12
402.83	229.24
403.20	229.35
403.58	229.44
403.95	229.58
404.33	229.73
404.71	229.88
405.08	230.08
405.46	230.24
405.83	230.41
406.21	230.60
406.58	230.82
406.96	231.02
407.33	231.27
407.70	231.54
408.08	231.91
408.45	232.23
408.83	232.58
409.20	232.90
409.58	233.17
409.95	233.55
410.33	233.99
410.70	234.38
411.08	234.84
411.45	235.35
411.82	235.85
412.20	236.44
412.57	237.12
412.95	237.66
413.32	238.37
413.69	239.09
414.07	239.85
414.44	240.68
414.82	241.54
415.19	242.54
415.56	243.55
415.94	244.59
416.31	245.74
416.68	246.91
417.06	248.27
417.43	249.55
417.81	251.02
418.18	252.51
418.55	254.13
418.93	255.82
419.30	257.58
419.67	259.46
420.04	261.36
420.42	263.35
420.79	265.68
421.16	268.01
421.54	270.39
421.91	272.88
422.28	275.44
422.66	278.21
423.03	280.84
423.40	283.62
423.77	286.58
424.15	289.63
424.52	292.80
424.89	296.24
425.26	299.65
425.64	302.82
426.01	306.37
426.38	310.02
426.75	313.77
427.13	317.63
427.50	321.66
427.87	325.87
428.24	330.11
428.61	334.17
428.99	338.59
429.36	343.40
429.73	348.01
430.10	352.64
430.47	357.36
430.85	362.24
431.22	367.47
431.59	372.84
431.96	378.09
432.33	383.91
432.70	389.45
433.08	396.01
433.45	402.20
433.82	408.31
434.19	415.13
434.56	421.86
434.93	428.36
435.30	434.80
435.68	442.06
436.05	449.17
436.42	456.24
436.79	462.69
437.16	469.69
437.53	477.15
437.90	484.62
438.27	491.94
438.64	499.81
439.01	506.93
439.38	513.43
439.75	519.71
440.13	526.79
440.50	533.51
440.87	538.83
441.24	544.66
441.61	551.03
441.98	555.64
442.35	561.11
442.72	566.70
443.09	571.98
443.46	575.30
443.83	577.69
444.20	579.67
444.57	582.68
444.94	584.31
445.31	586.01
445.68	587.43
446.05	588.42
446.42	587.90
446.79	587.23
447.16	586.62
447.53	586.03
447.90	583.60
448.27	581.24
448.64	577.79
449.01	575.33
449.37	570.62
449.74	566.33
450.11	560.87
450.48	554.89
450.85	548.95
451.22	543.83
451.59	538.86
451.96	534.36
452.33	527.85
452.70	522.09
453.07	515.08
453.43	508.10
453.80	501.33
454.17	494.88
454.54	488.92
454.91	482.22
455.28	475.96
455.65	470.05
456.02	463.83
456.38	458.81
456.75	452.37
457.12	447.19
457.49	441.97
457.86	437.05
458.23	432.76
458.59	427.99
458.96	423.11
459.33	418.83
459.70	414.47
460.07	411.20
460.43	407.32
460.80	403.70
461.17	400.57
461.54	397.14
461.91	393.96
462.27	390.73
462.64	388.12
463.01	385.10
463.38	382.07
463.74	379.34
464.11	376.93
464.48	374.77
464.85	372.42
465.21	370.64
465.58	368.65
465.95	366.35
466.32	364.56
466.68	362.79
467.05	361.01
467.42	359.25
467.78	357.36
468.15	355.61
468.52	354.36
468.88	352.65
469.25	351.09
469.62	349.86
469.98	348.52
470.35	347.32
470.72	346.24
471.08	345.14
471.45	344.21
471.82	343.18
472.18	342.08
472.55	341.37
472.92	340.48
473.28	339.78
473.65	339.03
474.02	338.32
474.38	337.71
474.75	337.36
475.11	336.87
475.48	336.64
475.85	336.41
476.21	336.29
476.58	336.21
476.94	336.34
477.31	336.42
477.67	336.52
478.04	336.73
478.41	337.00
478.77	337.42
479.14	337.68
479.50	338.17
479.87	338.81
480.23	339.45
480.60	340.08
480.96	340.71
481.33	341.66
481.69	342.59
482.06	343.53
482.42	344.38
482.79	345.45
483.15	346.68
483.52	348.07
483.88	349.40
484.25	350.84
484.61	352.35
484.98	353.96
485.34	355.78
485.71	357.69
486.07	359.73
486.44	361.75
486.80	364.02
487.17	366.37
487.53	368.94
487.90	371.64
488.26	374.57
488.62	377.67
488.99	380.76
489.35	384.04
489.72	387.59
490.08	391.32
490.44	395.18
490.81	399.18
491.17	403.29
491.54	407.71
491.90	412.27
492.26	417.14
492.63	422.25
492.99	427.59
493.36	433.10
493.72	438.91
494.08	444.88
494.45	451.21
494.81	457.81
495.17	464.56
495.54	471.70
495.90	479.14
496.26	486.74
496.63	494.58
496.99	502.73
497.35	511.26
497.72	520.06
498.08	529.08
498.44	538.44
498.80	548.33
499.17	558.47
499.53	568.90
499.89	579.72
500.26	590.76
500.62	602.07
500.98	614.01
501.34	626.13
501.71	638.75
502.07	651.58
502.43	664.93
502.79	678.49
503.16	692.51
503.52	706.71
503.88	721.38
504.24	736.46
504.60	751.76
504.97	767.54
505.33	783.76
505.69	800.85
506.05	818.25
506.41	835.58
506.78	853.14
507.14	871.21
507.50	889.70
507.86	908.56
508.22	927.63
508.59	946.55
508.95	966.32
509.31	986.82
509.67	1007.95
510.03	1029.08
510.39	1050.32
510.75	1071.76
511.12	1093.46
511.48	1115.27
511.84	1137.25
512.20	1159.66
512.56	1182.88
512.92	1206.07
513.28	1228.94
513.64	1252.14
514.00	1275.74
514.37	1299.60
514.73	1323.51
515.09	1347.35
515.45	1371.55
515.81	1395.88
516.17	1420.42
516.53	1444.40
516.89	1468.31
517.25	1492.46
517.61	1516.53
517.97	1541.06
518.33	1565.08
518.69	1589.07
519.05	1613.62
519.41	1638.45
519.77	1663.36
520.13	1687.63
520.49	1711.90
520.85	1736.55
521.21	1760.59
521.57	1785.14
521.93	1809.22
522.29	1833.76
522.65	1857.86
523.01	1881.88
523.37	1905.58
523.73	1929.95
524.09	1954.14
524.45	1978.11
524.81	2001.66
525.17	2025.14
525.53	2047.99
525.89	2071.33
526.25	2094.67
526.61	2117.04
526.97	2139.50
527.33	2162.02
527.68	2184.17
528.04	2205.52
528.40	2225.91
528.76	2246.86
529.12	2267.13
529.48	2287.06
529.84	2305.37
530.20	2324.30
530.56	2342.63
530.91	2361.20
531.27	2379.32
531.63	2396.63
531.99	2413.62
532.35	2429.94
532.71	2446.24
533.07	2463.24
533.42	2478.45
533.78	2494.76
534.14	2511.20
534.50	2526.59
534.86	2541.84
535.21	2555.24
535.57	2569.13
535.93	2582.90
536.29	2595.33
536.65	2607.80
537.00	2619.60
537.36	2632.28
537.72	2643.32
538.08	2654.08
538.44	2664.18
538.79	2673.89
539.15	2682.72
539.51	2691.07
539.87	2698.79
540.22	2704.76
540.58	2710.86
540.94	2718.20
541.29	2723.70
541.65	2727.49
542.01	2730.76
542.37	2733.31
542.72	2737.21
543.08	2739.46
543.44	2742.20
543.79	2743.88
544.15	2744.76
544.51	2746.06
544.87	2746.19
545.22	2745.65
545.58	2744.37
545.94	2743.07
546.29	2740.48
546.65	2737.98
547.01	2735.52
547.36	2733.72
547.72	2731.76
548.07	2728.17
548.43	2723.05
548.79	2717.15
549.14	2712.59
549.50	2708.06
549.86	2702.68
550.21	2696.14
550.57	2690.52
550.92	2682.64
551.28	2675.51
551.64	2668.51
551.99	2660.96
552.35	2652.83
552.70	2645.02
553.06	2637.48
553.41	2629.29
553.77	2620.86
554.13	2612.30
554.48	2602.80
554.84	2592.20
555.19	2582.28
555.55	2572.24
555.90	2562.21
556.26	2552.70
556.61	2542.05
556.97	2529.81
557.32	2518.07
557.68	2506.19
558.03	2494.22
558.39	2483.38
558.74	2472.73
559.10	2460.41
559.45	2448.44
559.81	2437.07
560.16	2424.97
560.52	2413.08
560.87	2401.49
561.23	2389.05
561.58	2376.86
561.94	2364.23
562.29	2350.97
562.64	2338.46
563.00	2325.61
563.35	2313.31
563.71	2300.74
564.06	2287.93
564.42	2275.97
564.77	2263.26
565.12	2250.54
565.48	2237.71
565.83	2224.93
566.19	2212.17
566.54	2199.39
566.89	2185.39
567.25	2171.58
567.60	2159.10
567.96	2145.76
568.31	2131.06
568.66	2117.25
569.02	2104.39
569.37	2091.50
569.72	2079.17
570.08	2065.47
570.43	2051.51
570.78	2037.19
571.14	2022.26
571.49	2008.13
571.84	1994.50
572.20	1979.60
572.55	1965.07
572.90	1950.24
573.26	1935.42
573.61	1920.07
573.96	1905.18
574.31	1890.63
574.67	1875.97
575.02	1860.43
575.37	1844.88
575.72	1830.29
576.08	1815.89
576.43	1800.35
576.78	1785.30
577.13	1770.56
577.49	1756.14
577.84	1742.28
578.19	1727.48
578.54	1712.89
578.90	1697.79
579.25	1682.56
579.60	1668.98
579.95	1655.12
580.30	1641.21
580.66	1627.01
581.01	1612.79
581.36	1598.56
581.71	1585.33
582.06	1571.97
582.42	1558.79
582.77	1545.66
583.12	1532.40
583.47	1519.11
583.82	1505.88
584.17	1492.31
584.53	1478.33
584.88	1464.77
585.23	1450.74
585.58	1437.67
585.93	1424.82
586.28	1412.66
586.63	1400.56
586.98	1387.86
587.34	1375.26
587.69	1362.41
588.04	1349.88
588.39	1337.75
588.74	1325.73
589.09	1313.45
589.44	1300.82
589.79	1288.86
590.14	1276.98
590.49	1265.09
590.84	1253.25
591.19	1241.89
591.54	1230.33
591.89	1218.95
592.25	1207.67
592.60	1196.10
592.95	1184.90
593.30	1173.90
593.65	1162.57
594.00	1151.30
594.35	1140.68
594.70	1129.68
595.05	1119.56
595.40	1109.34
595.75	1098.93
596.10	1089.09
596.45	1078.90
596.80	1069.03
597.15	1058.96
597.50	1049.04
597.85	1039.47
598.19	1029.76
598.54	1020.15
598.89	1010.92
599.24	1002.04
599.59	993.04
599.94	984.94
600.29	976.58
600.64	967.90
600.99	958.90
601.34	950.31
601.69	941.38
602.04	933.11
602.39	924.64
602.74	916.19
603.08	907.76
603.43	899.28
603.78	891.01
604.13	882.93
604.48	874.76
604.83	866.80
605.18	858.80
605.53	850.92
605.87	842.82
606.22	835.16
606.57	827.36
606.92	819.40
607.27	811.39
607.62	803.79
607.96	796.59
608.31	789.81
608.66	782.83
609.01	776.14
609.36	769.57
609.70	762.73
610.05	755.92
610.40	749.35
610.75	742.76
611.10	736.48
611.44	730.07
611.79	723.77
612.14	717.39
612.49	711.12
612.83	705.15
613.18	699.31
613.53	693.33
613.88	687.42
614.22	681.97
614.57	676.40
614.92	670.62
615.27	665.01
615.61	659.44
615.96	653.94
616.31	648.43
616.65	642.97
617.00	637.78
617.35	632.69
617.70	627.64
618.04	622.59
618.39	617.55
618.74	612.73
619.08	607.95
619.43	603.29
619.78	598.65
620.12	593.96
620.47	589.45
620.82	585.03
621.16	580.61
621.51	576.07
621.85	571.62
622.20	567.37
622.55	563.10
622.89	558.91
623.24	554.71
623.59	550.59
623.93	546.62
624.28	542.72
624.62	538.90
624.97	535.14
625.32	531.38
625.66	527.52
626.01	523.65
626.35	519.88
626.70	516.17
627.04	512.56
627.39	508.94
627.73	505.48
628.08	502.11
628.43	498.76
628.77	495.52
629.12	492.37
629.46	489.19
629.81	485.95
630.15	482.74
630.50	479.63
630.84	476.53
631.19	473.51
631.53	470.62
631.88	467.70
632.22	464.78
632.57	462.16
632.91	459.57
633.26	457.07
633.60	454.56
633.95	452.11
634.29	449.60
634.64	447.16
634.98	444.50
635.32	442.02
635.67	439.72
636.01	437.32
636.36	435.00
636.70	432.85
637.05	430.67
637.39	428.51
637.73	426.38
638.08	424.37
638.42	422.31
638.77	420.11
639.11	417.87
639.45	415.74
639.80	413.54
640.14	411.46
640.49	409.34
640.83	407.22
641.17	405.18
641.52	403.19
641.86	401.22
642.20	399.46
642.55	397.54
642.89	395.65
643.23	393.85
643.58	392.21
643.92	390.41
644.26	388.71
644.61	387.05
644.95	385.35
645.29	383.58
645.64	381.84
645.98	380.18
646.32	378.65
646.66	377.10
647.01	375.55
647.35	374.06
647.69	372.56
648.04	371.20
648.38	369.75
648.72	368.33
649.06	366.90
649.41	365.49
649.75	364.13
650.09	362.77
650.43	361.43
650.78	360.04
651.12	358.68
651.46	357.36
651.80	356.09
652.14	354.84
652.49	353.64
652.83	352.42
653.17	351.25
653.51	350.11
653.85	349.02
654.20	347.87
654.54	346.67
654.88	345.53
655.22	344.42
655.56	343.30
655.90	342.25
656.25	341.23
656.59	340.18
656.93	339.19
657.27	338.22
657.61	337.19
657.95	336.19
658.29	335.20
658.64	334.27
658.98	333.33
659.32	332.41
659.66	331.52
660.00	330.66
660.34	329.80
660.68	328.88
661.02	327.94
661.36	327.03
661.70	326.16
662.05	325.32
662.39	324.48
662.73	323.72
663.07	322.96
663.41	322.16
663.75	321.36
664.09	320.56
664.43	319.71
664.77	318.96
665.11	318.16
665.45	317.43
665.79	316.69
666.13	315.90
666.47	315.10
666.81	314.31
667.15	313.48
667.49	312.76
667.83	312.11
668.17	311.43
668.51	310.81
668.85	310.20
669.19	309.61
669.53	308.93
669.87	308.23
670.21	307.56
670.55	306.93
670.89	306.36
671.23	305.77
671.57	305.19
671.91	304.66
672.25	304.13
672.58	303.59
672.92	303.00
673.26	302.51
673.60	302.00
673.94	301.51
674.28	301.04
674.62	300.53
674.96	299.97
675.30	299.47
675.64	298.92
675.97	298.36
676.31	297.79
676.65	297.28
676.99	296.81
677.33	296.27
677.67	295.77
678.01	295.20
678.34	294.70
678.68	294.23
679.02	293.70
679.36	293.17
679.70	292.65
680.04	292.16
680.37	291.66
680.71	291.20
681.05	290.75
681.39	290.25
681.73	289.73
682.06	289.22
682.40	288.75
682.74	288.33
683.08	287.94
683.42	287.50
683.75	287.08
684.09	286.59
684.43	286.17
684.77	285.73
685.10	285.35
685.44	284.93
685.78	284.51
686.12	284.12
686.45	283.71
686.79	283.28
687.13	282.88
687.46	282.45
687.80	282.02
688.14	281.56
688.48	281.16
688.81	280.76
689.15	280.40
689.49	279.99
689.82	279.57
690.16	279.10
690.50	278.70
690.83	278.28
691.17	277.87
691.51	277.48
691.84	277.08
692.18	276.64
692.52	276.22
692.85	275.80
693.19	275.43
693.52	275.03
693.86	274.63
694.20	274.24
694.53	273.87
694.87	273.46
695.21	273.07
695.54	272.69
695.88	272.29
696.21	271.87
696.55	271.49
696.88	271.11
697.22	270.74
697.56	270.36
697.89	269.93
698.23	269.57
698.56	269.17
698.90	268.81
699.23	268.42
699.57	268.05
699.90	267.68
700.24	267.29
700.58	266.95
700.91	266.64
701.25	266.38
701.58	266.09
701.92	265.78
702.25	265.45
702.59	265.10
702.92	264.76
703.26	264.42
703.59	264.06
703.93	263.82
704.26	263.50
704.60	263.16
704.93	262.84
705.26	262.51
705.60	262.23
705.93	261.88
706.27	261.60
706.60	261.33
706.94	261.06
707.27	260.72
707.61	260.39
707.94	260.05
708.27	259.62
708.61	259.25
708.94	258.92
709.28	258.62
709.61	258.31
709.94	258.04
710.28	257.77
710.61	257.52
710.95	257.14
711.28	256.93
711.61	256.66
711.95	256.42
712.28	256.14
712.61	255.83
712.95	255.65
713.28	255.45
713.61	255.13
713.95	254.82
714.28	254.57
714.61	254.31
714.95	254.06
715.28	253.82
715.61	253.58
715.95	253.36
716.28	253.13
716.61	252.93
716.95	252.67
717.28	252.42
717.61	252.18
717.94	251.95
718.28	251.63
718.61	251.39
718.94	251.14
719.27	250.92
719.61	250.73
719.94	250.46
720.27	250.16
720.60	249.95
720.94	249.75
721.27	249.55
721.60	249.36
721.93	249.15
722.27	248.97
722.60	248.78
722.93	248.56
723.26	248.34
723.59	248.10
723.93	247.92
724.26	247.73
724.59	247.52
724.92	247.35
725.25	247.22
725.59	247.04
725.92	246.88
726.25	246.71
726.58	246.52
726.91	246.34
727.24	246.18
727.57	246.01
727.91	245.82
728.24	245.68
728.57	245.50
728.90	245.34
729.23	245.13
729.56	245.00
729.89	244.83
730.22	244.66
730.55	244.51
730.89	244.34
731.22	244.17
731.55	244.03
731.88	243.86
732.21	243.67
732.54	243.51
732.87	243.35
733.20	243.21
733.53	243.06
733.86	242.91
734.19	242.74
734.52	242.62
734.85	242.55
735.18	242.37
735.51	242.26
735.84	242.12
736.17	242.02
736.50	241.83
736.83	241.83
737.16	241.70
737.49	241.57
737.82	241.44
738.15	241.32
738.48	241.19
738.81	241.04
739.14	240.90
739.47	240.77
739.80	240.62
740.13	240.50
740.46	240.35
740.79	240.20
741.12	240.07
741.45	239.92
741.78	239.72
742.11	239.63
742.44	239.47
742.77	239.37
743.10	239.22
743.43	239.09
743.75	238.84
744.08	238.92
744.41	238.79
744.74	238.66
745.07	238.52
745.40	238.43
745.73	238.37
746.06	238.26
746.39	238.18
746.71	238.06
747.04	237.95
747.37	237.85
747.70	237.77
748.03	237.68
748.36	237.61
748.68	237.50
749.01	237.37
749.34	237.27
749.67	237.18
750.00	237.10
750.33	237.10
750.65	237.01
750.98	236.73
751.31	236.64
751.64	236.57
751.97	236.54
752.29	236.44
752.62	236.29
752.95	236.20
753.28	236.09
753.60	236.00
753.93	235.94
754.26	235.86
754.59	235.74
754.91	235.63
755.24	235.53
755.57	235.50
755.90	235.41
756.22	235.31
756.55	235.19
756.88	235.09
757.20	234.92
757.53	234.81
757.86	234.73
758.19	234.66
758.51	234.57
758.84	234.42
759.17	234.33
759.49	234.27
759.82	234.25
760.15	234.19
760.47	234.11
760.80	234.01
761.13	233.96
761.45	233.90
761.78	233.83
762.11	233.78
762.43	233.65
762.76	233.58
763.08	233.54
763.41	233.49
763.74	233.44
764.06	233.38
764.39	233.32
764.71	233.27
765.04	233.19
765.37	233.13
765.69	233.08
766.02	233.02
766.34	232.95
766.67	232.85
767.00	232.82
767.32	232.83
767.65	232.86
767.97	232.79
768.30	232.75
768.62	232.69
768.95	232.62
769.27	232.57
769.60	232.53
769.92	232.46
770.25	232.39
770.57	232.31
770.90	232.26
771.22	232.20
771.55	232.16
771.87	232.12
772.20	232.07
772.52	232.14
772.85	232.25
773.17	232.21
773.50	232.17
773.82	232.10
774.15	232.01
774.47	231.89
774.80	231.84
775.12	231.78
775.45	231.75
775.77	231.72
776.09	231.70
776.42	231.66
776.74	231.67
777.07	231.63
777.39	231.62
777.72	231.58
778.04	231.57
778.36	231.52
778.69	231.49
779.01	231.47
779.33	231.31
779.66	231.15
779.98	231.10
780.31	231.08
780.63	231.09
780.95	231.09
781.28	231.06
781.60	231.02
781.92	231.00
782.25	230.97
782.57	230.94
782.89	230.90
783.22	230.85
783.54	230.79
783.86	230.78
784.19	230.74
784.51	230.74
784.83	230.72
785.16	230.69
785.48	230.67
785.80	230.65
786.12	230.64
786.45	230.61
786.77	230.59
787.09	230.55
787.42	230.49
787.74	230.46
788.06	230.43
788.38	230.41
788.71	230.38
789.03	230.35
789.35	230.35
789.67	230.31
789.99	230.30
790.32	230.27
790.64	230.26
790.96	230.36
791.28	230.30
791.61	230.26
791.93	230.26
792.25	230.22
792.57	230.29
792.89	230.25
793.21	230.23
793.54	230.21
793.86	230.18
794.18	230.17
794.50	230.12
794.82	230.11
795.14	230.10
795.47	230.11
795.79	230.09
796.11	230.05
796.43	230.03
796.75	230.01
797.07	230.00
797.39	229.98
797.71	229.85
798.04	229.84
798.36	229.83
798.68	229.80
799.00	229.81
799.32	229.72
799.64	229.72
799.96	229.70
800.28	229.71
800.60	229.69
800.92	229.68
801.24	229.66
801.56	229.64
801.89	229.62
802.21	229.60
802.53	229.57
802.85	229.59
803.17	229.63
803.49	229.59
803.81	229.56
804.13	229.55
804.45	229.52
804.77	229.51
805.09	229.49
805.41	229.47
805.73	229.42
806.05	229.37
806.37	229.35
806.69	229.33
807.01	229.30
807.33	229.29
807.65	229.23
807.97	229.28
808.28	229.26
808.60	229.24
808.92	229.21
809.24	229.27
809.56	229.25
809.88	229.18
810.20	229.18
810.52	229.19
810.84	229.16
811.16	229.14
811.48	229.12
811.80	229.17
812.12	229.16
812.43	229.18
812.75	229.19
813.07	229.16
813.39	229.16
813.71	229.14
814.03	229.11
814.35	229.11
814.67	229.04
814.98	229.02
815.30	229.02
815.62	229.00
815.94	228.90
816.26	228.90
816.58	228.87
816.89	228.89
817.21	228.84
817.53	228.84
817.85	228.83
818.17	228.81
818.48	228.74
