SpectraSuite Data File
++++++++++++++++++++++++++++++++++++
Date: Fri Oct 02 20:22:35 EDT 2015
User: lab3
Dark Spectrum Present: No
Reference Spectrum Present: No
Number of Sampled Component Spectra: 1
Spectrometers: USB2E7196
Integration Time (usec): 46000 (USB2E7196)
Spectra Averaged: 4500 (USB2E7196)
Boxcar Smoothing: 10 (USB2E7196)
Correct for Electrical Dark: No (USB2E7196)
Strobe/Lamp Enabled: No (USB2E7196)
Correct for Detector Non-linearity: No (USB2E7196)
Correct for Stray Light: No (USB2E7196)
Number of Pixels in Processed Spectrum: 2048
>>>>>Begin Processed Spectral Data<<<<<
339.09	0.00
339.48	215.29
339.86	216.81
340.24	218.04
340.63	219.52
341.01	222.80
341.39	222.24
341.78	223.66
342.16	224.84
342.54	225.18
342.93	213.65
343.31	224.45
343.69	224.99
344.07	225.44
344.46	225.88
344.84	226.27
345.22	226.50
345.60	226.76
345.99	226.95
346.37	227.08
346.75	227.19
347.13	227.27
347.52	227.33
347.90	227.42
348.28	227.46
348.66	227.52
349.05	227.51
349.43	227.57
349.81	227.62
350.19	227.68
350.57	227.74
350.96	227.82
351.34	227.92
351.72	228.01
352.10	228.12
352.48	228.18
352.87	228.23
353.25	228.30
353.63	228.35
354.01	228.42
354.39	228.49
354.77	228.57
355.15	228.68
355.54	228.73
355.92	228.76
356.30	228.84
356.68	228.99
357.06	229.06
357.44	229.11
357.82	229.17
358.20	229.29
358.58	229.35
358.97	229.41
359.35	229.49
359.73	229.58
360.11	229.63
360.49	229.69
360.87	229.74
361.25	229.80
361.63	229.89
362.01	229.94
362.39	229.97
362.77	230.02
363.15	230.04
363.53	230.07
363.91	230.10
364.29	230.12
364.67	230.02
365.05	230.04
365.43	230.08
365.81	230.11
366.19	230.12
366.57	230.18
366.95	230.18
367.33	230.15
367.71	230.14
368.09	230.16
368.47	230.15
368.85	230.14
369.23	230.15
369.61	230.09
369.99	230.11
370.37	230.11
370.75	230.18
371.13	230.15
371.51	230.11
371.89	230.09
372.27	230.07
372.65	230.05
373.03	230.01
373.41	229.96
373.78	229.91
374.16	229.82
374.54	229.73
374.92	229.68
375.30	229.64
375.68	229.57
376.06	229.52
376.44	229.47
376.82	229.43
377.19	229.38
377.57	229.33
377.95	229.24
378.33	229.18
378.71	229.02
379.09	228.97
379.47	228.94
379.84	228.87
380.22	228.81
380.60	228.74
380.98	228.68
381.36	228.63
381.73	228.57
382.11	228.54
382.49	228.50
382.87	228.44
383.25	228.40
383.62	228.50
384.00	228.43
384.38	228.39
384.76	228.38
385.13	228.37
385.51	228.34
385.89	228.29
386.27	228.26
386.64	228.24
387.02	228.19
387.40	228.15
387.78	228.12
388.15	228.10
388.53	228.07
388.91	228.05
389.29	228.02
389.66	228.01
390.04	227.97
390.42	227.97
390.79	227.95
391.17	227.93
391.55	227.77
391.92	227.76
392.30	227.77
392.68	227.72
393.05	227.70
393.43	227.70
393.81	227.71
394.18	227.70
394.56	227.70
394.94	227.73
395.31	227.73
395.69	227.77
396.06	227.80
396.44	227.82
396.82	227.83
397.19	227.92
397.57	227.93
397.95	227.98
398.32	227.97
398.70	228.01
399.07	228.08
399.45	228.12
399.82	228.17
400.20	228.20
400.58	228.26
400.95	228.27
401.33	228.36
401.70	228.50
402.08	228.60
402.45	228.68
402.83	228.80
403.20	228.91
403.58	229.00
403.95	229.14
404.33	229.29
404.71	229.43
405.08	229.63
405.46	229.80
405.83	229.97
406.21	230.17
406.58	230.38
406.96	230.59
407.33	230.83
407.70	231.10
408.08	231.48
408.45	231.80
408.83	232.15
409.20	232.46
409.58	232.75
409.95	233.14
410.33	233.56
410.70	233.96
411.08	234.44
411.45	234.94
411.82	235.44
412.20	236.03
412.57	236.72
412.95	237.25
413.32	237.96
413.69	238.68
414.07	239.45
414.44	240.28
414.82	241.14
415.19	242.14
415.56	243.15
415.94	244.20
416.31	245.38
416.68	246.57
417.06	247.94
417.43	249.22
417.81	250.69
418.18	252.20
418.55	253.83
418.93	255.53
419.30	257.31
419.67	259.20
420.04	261.14
420.42	263.15
420.79	265.50
421.16	267.85
421.54	270.26
421.91	272.76
422.28	275.35
422.66	278.14
423.03	280.82
423.40	283.62
423.77	286.61
424.15	289.67
424.52	292.87
424.89	296.34
425.26	299.77
425.64	302.97
426.01	306.57
426.38	310.25
426.75	314.03
427.13	317.92
427.50	321.98
427.87	326.21
428.24	330.49
428.61	334.59
428.99	339.04
429.36	343.89
429.73	348.54
430.10	353.20
430.47	357.96
430.85	362.87
431.22	368.14
431.59	373.56
431.96	378.84
432.33	384.71
432.70	390.29
433.08	396.88
433.45	403.13
433.82	409.27
434.19	416.14
434.56	422.92
434.93	429.45
435.30	435.92
435.68	443.24
436.05	450.39
436.42	457.50
436.79	464.00
437.16	471.01
437.53	478.52
437.90	486.04
438.27	493.39
438.64	501.32
439.01	508.50
439.38	515.06
439.75	521.39
440.13	528.51
440.50	535.29
440.87	540.66
441.24	546.54
441.61	552.95
441.98	557.61
442.35	563.14
442.72	568.77
443.09	574.13
443.46	577.50
443.83	579.95
444.20	581.96
444.57	585.01
444.94	586.69
445.31	588.45
445.68	589.90
446.05	590.93
446.42	590.44
446.79	589.77
447.16	589.18
447.53	588.61
447.90	586.19
448.27	583.86
448.64	580.40
449.01	577.96
449.37	573.23
449.74	568.94
450.11	563.44
450.48	557.45
450.85	551.47
451.22	546.33
451.59	541.33
451.96	536.81
452.33	530.29
452.70	524.50
453.07	517.44
453.43	510.42
453.80	503.61
454.17	497.11
454.54	491.11
454.91	484.37
455.28	478.06
455.65	472.09
456.02	465.83
456.38	460.77
456.75	454.26
457.12	449.04
457.49	443.77
457.86	438.81
458.23	434.48
458.59	429.68
458.96	424.76
459.33	420.44
459.70	416.04
460.07	412.71
460.43	408.78
460.80	405.13
461.17	401.96
461.54	398.51
461.91	395.29
462.27	392.03
462.64	389.40
463.01	386.34
463.38	383.28
463.74	380.51
464.11	378.07
464.48	375.90
464.85	373.51
465.21	371.73
465.58	369.72
465.95	367.41
466.32	365.57
466.68	363.77
467.05	361.95
467.42	360.18
467.78	358.26
468.15	356.49
468.52	355.22
468.88	353.49
469.25	351.91
469.62	350.66
469.98	349.29
470.35	348.06
470.72	346.96
471.08	345.84
471.45	344.90
471.82	343.85
472.18	342.72
472.55	342.00
472.92	341.09
473.28	340.37
473.65	339.60
474.02	338.87
474.38	338.26
474.75	337.91
475.11	337.41
475.48	337.18
475.85	336.93
476.21	336.79
476.58	336.70
476.94	336.83
477.31	336.89
477.67	336.98
478.04	337.17
478.41	337.46
478.77	337.87
479.14	338.12
479.50	338.61
479.87	339.25
480.23	339.89
480.60	340.51
480.96	341.15
481.33	342.10
481.69	343.04
482.06	343.98
482.42	344.84
482.79	345.91
483.15	347.15
483.52	348.56
483.88	349.90
484.25	351.36
484.61	352.86
484.98	354.50
485.34	356.34
485.71	358.26
486.07	360.32
486.44	362.37
486.80	364.65
487.17	367.03
487.53	369.63
487.90	372.35
488.26	375.31
488.62	378.44
488.99	381.56
489.35	384.85
489.72	388.42
490.08	392.18
490.44	396.05
490.81	400.08
491.17	404.22
491.54	408.68
491.90	413.29
492.26	418.20
492.63	423.34
492.99	428.71
493.36	434.27
493.72	440.12
494.08	446.12
494.45	452.49
494.81	459.11
495.17	465.91
495.54	473.09
495.90	480.56
496.26	488.20
496.63	496.09
496.99	504.30
497.35	512.89
497.72	521.76
498.08	530.82
498.44	540.21
498.80	550.15
499.17	560.35
499.53	570.82
499.89	581.71
500.26	592.79
500.62	604.18
500.98	616.17
501.34	628.35
501.71	641.02
502.07	653.91
502.43	667.32
502.79	680.92
503.16	694.98
503.52	709.26
503.88	723.96
504.24	739.09
504.60	754.44
504.97	770.28
505.33	786.54
505.69	803.69
506.05	821.12
506.41	838.49
506.78	856.08
507.14	874.21
507.50	892.75
507.86	911.68
508.22	930.79
508.59	949.77
508.95	969.57
509.31	990.12
509.67	1011.29
510.03	1032.47
510.39	1053.76
510.75	1075.28
511.12	1097.03
511.48	1118.93
511.84	1140.95
512.20	1163.38
512.56	1186.63
512.92	1209.89
513.28	1232.81
513.64	1256.04
514.00	1279.71
514.37	1303.63
514.73	1327.59
515.09	1351.48
515.45	1375.71
515.81	1400.07
516.17	1424.64
516.53	1448.67
516.89	1472.60
517.25	1496.76
517.61	1520.86
517.97	1545.42
518.33	1569.45
518.69	1593.46
519.05	1618.02
519.41	1642.83
519.77	1667.76
520.13	1692.05
520.49	1716.27
520.85	1740.89
521.21	1764.98
521.57	1789.52
521.93	1813.60
522.29	1838.14
522.65	1862.22
523.01	1886.25
523.37	1909.93
523.73	1934.27
524.09	1958.43
524.45	1982.39
524.81	2005.95
525.17	2029.36
525.53	2052.21
525.89	2075.54
526.25	2098.88
526.61	2121.22
526.97	2143.71
527.33	2166.21
527.68	2188.34
528.04	2209.74
528.40	2230.15
528.76	2251.05
529.12	2271.37
529.48	2291.29
529.84	2309.54
530.20	2328.41
530.56	2346.69
530.91	2365.18
531.27	2383.32
531.63	2400.58
531.99	2417.47
532.35	2433.73
532.71	2450.03
533.07	2466.97
533.42	2482.16
533.78	2498.36
534.14	2514.70
534.50	2530.02
534.86	2545.16
535.21	2558.48
535.57	2572.32
535.93	2585.92
536.29	2598.28
536.65	2610.62
537.00	2622.34
537.36	2634.89
537.72	2645.91
538.08	2656.56
538.44	2666.57
538.79	2676.13
539.15	2684.87
539.51	2693.18
539.87	2700.82
540.22	2706.67
540.58	2712.61
540.94	2719.79
541.29	2725.22
541.65	2728.91
542.01	2732.06
542.37	2734.51
542.72	2738.27
543.08	2740.33
543.44	2742.96
543.79	2744.53
544.15	2745.22
544.51	2746.35
544.87	2746.37
545.22	2745.67
545.58	2744.29
545.94	2742.92
546.29	2740.25
546.65	2737.59
547.01	2734.94
547.36	2732.97
547.72	2730.91
548.07	2727.20
548.43	2721.96
548.79	2715.93
549.14	2711.23
549.50	2706.61
549.86	2701.09
550.21	2694.46
550.57	2688.73
550.92	2680.79
551.28	2673.49
551.64	2666.40
551.99	2658.77
552.35	2650.55
552.70	2642.63
553.06	2634.96
553.41	2626.64
553.77	2618.09
554.13	2609.45
554.48	2599.92
554.84	2589.24
555.19	2579.22
555.55	2569.12
555.90	2559.03
556.26	2549.42
556.61	2538.71
556.97	2526.43
557.32	2514.67
557.68	2502.78
558.03	2490.76
558.39	2479.85
558.74	2469.18
559.10	2456.82
559.45	2444.78
559.81	2433.32
560.16	2421.15
560.52	2409.22
560.87	2397.58
561.23	2385.14
561.58	2372.94
561.94	2360.29
562.29	2347.07
562.64	2334.51
563.00	2321.65
563.35	2309.31
563.71	2296.73
564.06	2283.99
564.42	2271.96
564.77	2259.30
565.12	2246.58
565.48	2233.77
565.83	2220.98
566.19	2208.23
566.54	2195.48
566.89	2181.53
567.25	2167.81
567.60	2155.38
567.96	2142.09
568.31	2127.46
568.66	2113.65
569.02	2100.80
569.37	2087.95
569.72	2075.66
570.08	2062.03
570.43	2048.13
570.78	2033.93
571.14	2019.09
571.49	2004.97
571.84	1991.41
572.20	1976.54
572.55	1962.03
572.90	1947.26
573.26	1932.53
573.61	1917.29
573.96	1902.49
574.31	1887.98
574.67	1873.40
575.02	1857.87
575.37	1842.40
575.72	1827.84
576.08	1813.49
576.43	1798.03
576.78	1783.01
577.13	1768.27
577.49	1753.88
577.84	1740.04
578.19	1725.24
578.54	1710.71
578.90	1695.65
579.25	1680.43
579.60	1666.87
579.95	1653.08
580.30	1639.21
580.66	1625.08
581.01	1610.83
581.36	1596.61
581.71	1583.42
582.06	1570.07
582.42	1556.96
582.77	1543.85
583.12	1530.64
583.47	1517.36
583.82	1504.21
584.17	1490.73
584.53	1476.85
584.88	1463.36
585.23	1449.40
585.58	1436.36
585.93	1423.51
586.28	1411.43
586.63	1399.34
586.98	1386.72
587.34	1374.16
587.69	1361.32
588.04	1348.82
588.39	1336.76
588.74	1324.75
589.09	1312.51
589.44	1299.89
589.79	1287.95
590.14	1276.10
590.49	1264.23
590.84	1252.44
591.19	1241.09
591.54	1229.53
591.89	1218.12
592.25	1206.85
592.60	1195.29
592.95	1184.09
593.30	1173.07
593.65	1161.72
594.00	1150.48
594.35	1139.87
594.70	1128.87
595.05	1118.77
595.40	1108.52
595.75	1098.12
596.10	1088.28
596.45	1078.09
596.80	1068.25
597.15	1058.19
597.50	1048.27
597.85	1038.72
598.19	1029.03
598.54	1019.42
598.89	1010.23
599.24	1001.36
599.59	992.37
599.94	984.29
600.29	975.95
600.64	967.32
600.99	958.31
601.34	949.73
601.69	940.80
602.04	932.52
602.39	924.08
602.74	915.65
603.08	907.21
603.43	898.74
603.78	890.45
604.13	882.38
604.48	874.22
604.83	866.27
605.18	858.22
605.53	850.35
605.87	842.23
606.22	834.51
606.57	826.69
606.92	818.74
607.27	810.72
607.62	803.10
607.96	795.88
608.31	789.11
608.66	782.12
609.01	775.41
609.36	768.81
609.70	761.93
610.05	755.09
610.40	748.50
610.75	741.91
611.10	735.65
611.44	729.24
611.79	722.93
612.14	716.54
612.49	710.28
612.83	704.31
613.18	698.45
613.53	692.46
613.88	686.55
614.22	681.09
614.57	675.51
614.92	669.73
615.27	664.12
615.61	658.54
615.96	653.02
616.31	647.50
616.65	642.05
617.00	636.86
617.35	631.75
617.70	626.71
618.04	621.68
618.39	616.59
618.74	611.76
619.08	606.98
619.43	602.30
619.78	597.65
620.12	592.94
620.47	588.43
620.82	584.02
621.16	579.58
621.51	575.03
621.85	570.57
622.20	566.29
622.55	562.02
622.89	557.82
623.24	553.62
623.59	549.47
623.93	545.49
624.28	541.58
624.62	537.76
624.97	533.97
625.32	530.20
625.66	526.36
626.01	522.47
626.35	518.67
626.70	514.91
627.04	511.33
627.39	507.70
627.73	504.23
628.08	500.86
628.43	497.49
628.77	494.21
629.12	491.03
629.46	487.85
629.81	484.60
630.15	481.35
630.50	478.20
630.84	475.11
631.19	472.09
631.53	469.18
631.88	466.23
632.22	463.29
632.57	460.63
632.91	458.01
633.26	455.49
633.60	452.98
633.95	450.54
634.29	447.98
634.64	445.52
634.98	442.85
635.32	440.33
635.67	438.02
636.01	435.61
636.36	433.27
636.70	431.09
637.05	428.88
637.39	426.70
637.73	424.56
638.08	422.53
638.42	420.44
638.77	418.23
639.11	415.97
639.45	413.82
639.80	411.60
640.14	409.50
640.49	407.36
640.83	405.20
641.17	403.14
641.52	401.12
641.86	399.12
642.20	397.34
642.55	395.40
642.89	393.48
643.23	391.66
643.58	390.01
643.92	388.20
644.26	386.48
644.61	384.81
644.95	383.08
645.29	381.29
645.64	379.54
645.98	377.86
646.32	376.31
646.66	374.73
647.01	373.17
647.35	371.67
647.69	370.14
648.04	368.78
648.38	367.31
648.72	365.87
649.06	364.43
649.41	363.01
649.75	361.63
650.09	360.27
650.43	358.91
650.78	357.50
651.12	356.12
651.46	354.79
651.80	353.49
652.14	352.24
652.49	351.02
652.83	349.78
653.17	348.59
653.51	347.43
653.85	346.34
654.20	345.18
654.54	343.96
654.88	342.83
655.22	341.70
655.56	340.58
655.90	339.51
656.25	338.48
656.59	337.42
656.93	336.43
657.27	335.45
657.61	334.42
657.95	333.41
658.29	332.42
658.64	331.48
658.98	330.54
659.32	329.61
659.66	328.73
660.00	327.88
660.34	327.01
660.68	326.11
661.02	325.17
661.36	324.27
661.70	323.40
662.05	322.56
662.39	321.73
662.73	320.98
663.07	320.21
663.41	319.42
663.75	318.62
664.09	317.82
664.43	316.99
664.77	316.25
665.11	315.46
665.45	314.75
665.79	314.03
666.13	313.26
666.47	312.49
666.81	311.71
667.15	310.88
667.49	310.19
667.83	309.55
668.17	308.87
668.51	308.26
668.85	307.66
669.19	307.09
669.53	306.41
669.87	305.73
670.21	305.08
670.55	304.46
670.89	303.91
671.23	303.32
671.57	302.75
671.91	302.22
672.25	301.72
672.58	301.19
672.92	300.60
673.26	300.10
673.60	299.61
673.94	299.12
674.28	298.67
674.62	298.17
674.96	297.62
675.30	297.14
675.64	296.60
675.97	296.06
676.31	295.50
676.65	295.00
676.99	294.55
677.33	294.02
677.67	293.54
678.01	292.98
678.34	292.50
678.68	292.05
679.02	291.52
679.36	291.02
679.70	290.52
680.04	290.06
680.37	289.59
680.71	289.14
681.05	288.70
681.39	288.21
681.73	287.70
682.06	287.21
682.40	286.76
682.74	286.35
683.08	285.99
683.42	285.57
683.75	285.17
684.09	284.70
684.43	284.29
684.77	283.87
685.10	283.51
685.44	283.12
685.78	282.71
686.12	282.33
686.45	281.93
686.79	281.51
687.13	281.11
687.46	280.70
687.80	280.30
688.14	279.86
688.48	279.48
688.81	279.10
689.15	278.75
689.49	278.34
689.82	277.93
690.16	277.46
690.50	277.07
690.83	276.67
691.17	276.27
691.51	275.88
691.84	275.51
692.18	275.09
692.52	274.67
692.85	274.26
693.19	273.91
693.52	273.53
693.86	273.14
694.20	272.77
694.53	272.41
694.87	272.02
695.21	271.64
695.54	271.27
695.88	270.89
696.21	270.48
696.55	270.13
696.88	269.76
697.22	269.40
697.56	269.03
697.89	268.63
698.23	268.27
698.56	267.88
698.90	267.53
699.23	267.15
699.57	266.80
699.90	266.43
700.24	266.05
700.58	265.72
700.91	265.43
701.25	265.19
701.58	264.91
701.92	264.61
702.25	264.29
702.59	263.95
702.92	263.62
703.26	263.29
703.59	262.95
703.93	262.72
704.26	262.42
704.60	262.09
704.93	261.77
705.26	261.45
705.60	261.18
705.93	260.84
706.27	260.57
706.60	260.31
706.94	260.05
707.27	259.72
707.61	259.40
707.94	259.06
708.27	258.64
708.61	258.28
708.94	257.96
709.28	257.66
709.61	257.37
709.94	257.11
710.28	256.85
710.61	256.60
710.95	256.22
711.28	256.03
711.61	255.76
711.95	255.53
712.28	255.26
712.61	254.97
712.95	254.78
713.28	254.58
713.61	254.29
713.95	253.98
714.28	253.74
714.61	253.47
714.95	253.23
715.28	252.99
715.61	252.75
715.95	252.53
716.28	252.30
716.61	252.10
716.95	251.85
717.28	251.60
717.61	251.36
717.94	251.13
718.28	250.81
718.61	250.58
718.94	250.33
719.27	250.10
719.61	249.91
719.94	249.66
720.27	249.36
720.60	249.15
720.94	248.95
721.27	248.75
721.60	248.57
721.93	248.35
722.27	248.18
722.60	247.99
722.93	247.77
723.26	247.57
723.59	247.33
723.93	247.15
724.26	246.96
724.59	246.76
724.92	246.58
725.25	246.45
725.59	246.26
725.92	246.11
726.25	245.93
726.58	245.75
726.91	245.57
727.24	245.41
727.57	245.24
727.91	245.05
728.24	244.90
728.57	244.72
728.90	244.57
729.23	244.36
729.56	244.25
729.89	244.08
730.22	243.90
730.55	243.75
730.89	243.58
731.22	243.42
731.55	243.25
731.88	243.10
732.21	242.91
732.54	242.76
732.87	242.61
733.20	242.47
733.53	242.32
733.86	242.18
734.19	242.01
734.52	241.89
734.85	241.83
735.18	241.65
735.51	241.55
735.84	241.41
736.17	241.31
736.50	241.11
736.83	241.12
737.16	241.00
737.49	240.88
737.82	240.75
738.15	240.64
738.48	240.52
738.81	240.38
739.14	240.25
739.47	240.11
739.80	239.97
740.13	239.85
740.46	239.71
740.79	239.57
741.12	239.44
741.45	239.29
741.78	239.10
742.11	239.01
742.44	238.86
742.77	238.75
743.10	238.61
743.43	238.49
743.75	238.24
744.08	238.33
744.41	238.19
744.74	238.07
745.07	237.93
745.40	237.85
745.73	237.79
746.06	237.69
746.39	237.61
746.71	237.51
747.04	237.39
747.37	237.28
747.70	237.21
748.03	237.11
748.36	237.04
748.68	236.94
749.01	236.80
749.34	236.71
749.67	236.62
750.00	236.53
750.33	236.54
750.65	236.46
750.98	236.17
751.31	236.09
751.64	236.01
751.97	235.99
752.29	235.88
752.62	235.73
752.95	235.63
753.28	235.53
753.60	235.44
753.93	235.38
754.26	235.31
754.59	235.18
754.91	235.08
755.24	234.99
755.57	234.96
755.90	234.88
756.22	234.78
756.55	234.68
756.88	234.57
757.20	234.40
757.53	234.28
757.86	234.20
758.19	234.12
758.51	234.04
758.84	233.90
759.17	233.81
759.49	233.75
759.82	233.74
760.15	233.67
760.47	233.59
760.80	233.49
761.13	233.44
761.45	233.37
761.78	233.30
762.11	233.24
762.43	233.11
762.76	233.04
763.08	232.99
763.41	232.94
763.74	232.89
764.06	232.82
764.39	232.77
764.71	232.72
765.04	232.66
765.37	232.59
765.69	232.55
766.02	232.49
766.34	232.42
766.67	232.31
767.00	232.29
767.32	232.31
767.65	232.33
767.97	232.27
768.30	232.23
768.62	232.18
768.95	232.11
769.27	232.06
769.60	232.03
769.92	231.96
770.25	231.89
770.57	231.82
770.90	231.77
771.22	231.71
771.55	231.66
771.87	231.61
772.20	231.56
772.52	231.62
772.85	231.72
773.17	231.69
773.50	231.64
773.82	231.57
774.15	231.46
774.47	231.35
774.80	231.30
775.12	231.25
775.45	231.21
775.77	231.18
776.09	231.16
776.42	231.13
776.74	231.13
777.07	231.09
777.39	231.07
777.72	231.03
778.04	231.02
778.36	230.98
778.69	230.95
779.01	230.93
779.33	230.78
779.66	230.61
779.98	230.57
780.31	230.54
780.63	230.57
780.95	230.56
781.28	230.53
781.60	230.49
781.92	230.46
782.25	230.42
782.57	230.39
782.89	230.35
783.22	230.31
783.54	230.25
783.86	230.24
784.19	230.21
784.51	230.21
784.83	230.17
785.16	230.14
785.48	230.12
785.80	230.09
786.12	230.08
786.45	230.06
786.77	230.04
787.09	230.01
787.42	229.94
787.74	229.92
788.06	229.91
788.38	229.88
788.71	229.86
789.03	229.85
789.35	229.84
789.67	229.81
789.99	229.80
790.32	229.77
790.64	229.76
790.96	229.85
791.28	229.79
791.61	229.76
791.93	229.75
792.25	229.73
792.57	229.80
792.89	229.75
793.21	229.74
793.54	229.71
793.86	229.68
794.18	229.66
794.50	229.62
794.82	229.60
795.14	229.60
795.47	229.59
795.79	229.57
796.11	229.53
796.43	229.51
796.75	229.49
797.07	229.48
797.39	229.45
797.71	229.33
798.04	229.32
798.36	229.31
798.68	229.29
799.00	229.29
799.32	229.21
799.64	229.21
799.96	229.19
800.28	229.20
800.60	229.18
800.92	229.17
801.24	229.15
801.56	229.15
801.89	229.12
802.21	229.11
802.53	229.07
802.85	229.09
803.17	229.13
803.49	229.09
803.81	229.06
804.13	229.04
804.45	229.01
804.77	229.00
805.09	228.99
805.41	228.96
805.73	228.92
806.05	228.88
806.37	228.85
806.69	228.83
807.01	228.80
807.33	228.80
807.65	228.75
807.97	228.79
808.28	228.76
808.60	228.75
808.92	228.72
809.24	228.79
809.56	228.76
809.88	228.70
810.20	228.69
810.52	228.71
810.84	228.69
811.16	228.67
811.48	228.64
811.80	228.68
812.12	228.66
812.43	228.68
812.75	228.68
813.07	228.65
813.39	228.66
813.71	228.63
814.03	228.61
814.35	228.61
814.67	228.55
814.98	228.53
815.30	228.52
815.62	228.48
815.94	228.39
816.26	228.39
816.58	228.36
816.89	228.37
817.21	228.32
817.53	228.32
817.85	228.32
818.17	228.31
818.48	228.25
