SpectraSuite Data File
++++++++++++++++++++++++++++++++++++
Date: Fri Oct 02 17:05:40 EDT 2015
User: lab3
Dark Spectrum Present: No
Reference Spectrum Present: No
Number of Sampled Component Spectra: 1
Spectrometers: USB2E7196
Integration Time (usec): 46000 (USB2E7196)
Spectra Averaged: 1200 (USB2E7196)
Boxcar Smoothing: 10 (USB2E7196)
Correct for Electrical Dark: No (USB2E7196)
Strobe/Lamp Enabled: No (USB2E7196)
Correct for Detector Non-linearity: No (USB2E7196)
Correct for Stray Light: No (USB2E7196)
Number of Pixels in Processed Spectrum: 2048
>>>>>Begin Processed Spectral Data<<<<<
339.09	0.00
339.48	214.92
339.86	216.31
340.24	217.62
340.63	219.01
341.01	222.38
341.39	221.77
341.78	223.01
342.16	224.38
342.54	224.86
342.93	213.20
343.31	223.97
343.69	224.50
344.07	224.96
344.46	225.39
344.84	225.78
345.22	226.00
345.60	226.25
345.99	226.45
346.37	226.58
346.75	226.68
347.13	226.76
347.52	226.83
347.90	226.92
348.28	226.95
348.66	227.00
349.05	227.00
349.43	227.04
349.81	227.09
350.19	227.14
350.57	227.21
350.96	227.29
351.34	227.38
351.72	227.48
352.10	227.58
352.48	227.65
352.87	227.71
353.25	227.77
353.63	227.83
354.01	227.90
354.39	227.98
354.77	228.05
355.15	228.16
355.54	228.22
355.92	228.24
356.30	228.32
356.68	228.48
357.06	228.56
357.44	228.61
357.82	228.67
358.20	228.78
358.58	228.83
358.97	228.90
359.35	228.98
359.73	229.06
360.11	229.11
360.49	229.16
360.87	229.21
361.25	229.28
361.63	229.37
362.01	229.40
362.39	229.43
362.77	229.48
363.15	229.50
363.53	229.53
363.91	229.57
364.29	229.58
364.67	229.48
365.05	229.51
365.43	229.55
365.81	229.57
366.19	229.58
366.57	229.64
366.95	229.64
367.33	229.61
367.71	229.61
368.09	229.62
368.47	229.62
368.85	229.60
369.23	229.61
369.61	229.55
369.99	229.57
370.37	229.57
370.75	229.64
371.13	229.60
371.51	229.56
371.89	229.53
372.27	229.52
372.65	229.49
373.03	229.45
373.41	229.40
373.78	229.36
374.16	229.27
374.54	229.18
374.92	229.12
375.30	229.08
375.68	229.01
376.06	228.97
376.44	228.91
376.82	228.88
377.19	228.82
377.57	228.77
377.95	228.68
378.33	228.62
378.71	228.44
379.09	228.40
379.47	228.36
379.84	228.31
380.22	228.24
380.60	228.17
380.98	228.11
381.36	228.07
381.73	228.00
382.11	227.98
382.49	227.94
382.87	227.88
383.25	227.84
383.62	227.94
384.00	227.87
384.38	227.82
384.76	227.80
385.13	227.79
385.51	227.77
385.89	227.71
386.27	227.69
386.64	227.68
387.02	227.64
387.40	227.59
387.78	227.56
388.15	227.53
388.53	227.50
388.91	227.48
389.29	227.43
389.66	227.43
390.04	227.39
390.42	227.39
390.79	227.37
391.17	227.35
391.55	227.20
391.92	227.18
392.30	227.19
392.68	227.16
393.05	227.15
393.43	227.14
393.81	227.15
394.18	227.12
394.56	227.13
394.94	227.16
395.31	227.16
395.69	227.21
396.06	227.24
396.44	227.26
396.82	227.27
397.19	227.36
397.57	227.37
397.95	227.41
398.32	227.40
398.70	227.44
399.07	227.51
399.45	227.55
399.82	227.61
400.20	227.65
400.58	227.71
400.95	227.72
401.33	227.80
401.70	227.96
402.08	228.05
402.45	228.13
402.83	228.25
403.20	228.37
403.58	228.46
403.95	228.60
404.33	228.75
404.71	228.91
405.08	229.11
405.46	229.28
405.83	229.47
406.21	229.68
406.58	229.91
406.96	230.12
407.33	230.37
407.70	230.65
408.08	231.03
408.45	231.34
408.83	231.70
409.20	232.02
409.58	232.32
409.95	232.72
410.33	233.17
410.70	233.57
411.08	234.05
411.45	234.57
411.82	235.10
412.20	235.71
412.57	236.41
412.95	236.98
413.32	237.71
413.69	238.45
414.07	239.26
414.44	240.12
414.82	241.01
415.19	242.05
415.56	243.10
415.94	244.20
416.31	245.43
416.68	246.67
417.06	248.11
417.43	249.43
417.81	250.97
418.18	252.54
418.55	254.24
418.93	256.03
419.30	257.89
419.67	259.86
420.04	261.88
420.42	264.00
420.79	266.44
421.16	268.91
421.54	271.42
421.91	274.03
422.28	276.74
422.66	279.67
423.03	282.47
423.40	285.41
423.77	288.55
424.15	291.78
424.52	295.14
424.89	298.77
425.26	302.39
425.64	305.75
426.01	309.52
426.38	313.39
426.75	317.37
427.13	321.46
427.50	325.75
427.87	330.22
428.24	334.71
428.61	339.06
428.99	343.71
429.36	348.84
429.73	353.77
430.10	358.71
430.47	363.74
430.85	368.92
431.22	374.50
431.59	380.22
431.96	385.80
432.33	392.03
432.70	397.96
433.08	404.95
433.45	411.57
433.82	418.12
434.19	425.41
434.56	432.60
434.93	439.53
435.30	446.39
435.68	454.12
436.05	461.74
436.42	469.29
436.79	476.24
437.16	483.71
437.53	491.70
437.90	499.68
438.27	507.50
438.64	515.94
439.01	523.58
439.38	530.58
439.75	537.31
440.13	544.87
440.50	552.09
440.87	557.79
441.24	564.04
441.61	570.83
441.98	575.77
442.35	581.62
442.72	587.58
443.09	593.25
443.46	596.81
443.83	599.36
444.20	601.48
444.57	604.66
444.94	606.37
445.31	608.16
445.68	609.63
446.05	610.65
446.42	610.04
446.79	609.24
447.16	608.50
447.53	607.82
447.90	605.15
448.27	602.54
448.64	598.79
449.01	596.08
449.37	590.98
449.74	586.33
450.11	580.44
450.48	574.01
450.85	567.59
451.22	562.08
451.59	556.70
451.96	551.82
452.33	544.86
452.70	538.68
453.07	531.16
453.43	523.72
453.80	516.48
454.17	509.58
454.54	503.23
454.91	496.08
455.28	489.38
455.65	483.07
456.02	476.46
456.38	471.12
456.75	464.26
457.12	458.77
457.49	453.20
457.86	447.97
458.23	443.41
458.59	438.37
458.96	433.19
459.33	428.65
459.70	424.04
460.07	420.54
460.43	416.42
460.80	412.59
461.17	409.26
461.54	405.64
461.91	402.26
462.27	398.84
462.64	396.09
463.01	392.90
463.38	389.70
463.74	386.81
464.11	384.26
464.48	381.98
464.85	379.47
465.21	377.60
465.58	375.52
465.95	373.10
466.32	371.18
466.68	369.31
467.05	367.42
467.42	365.56
467.78	363.56
468.15	361.72
468.52	360.39
468.88	358.57
469.25	356.92
469.62	355.62
469.98	354.19
470.35	352.91
470.72	351.77
471.08	350.61
471.45	349.62
471.82	348.53
472.18	347.35
472.55	346.63
472.92	345.68
473.28	344.94
473.65	344.13
474.02	343.37
474.38	342.75
474.75	342.38
475.11	341.88
475.48	341.64
475.85	341.38
476.21	341.25
476.58	341.18
476.94	341.33
477.31	341.42
477.67	341.52
478.04	341.74
478.41	342.04
478.77	342.46
479.14	342.76
479.50	343.28
479.87	343.99
480.23	344.64
480.60	345.33
480.96	345.99
481.33	347.00
481.69	348.00
482.06	349.00
482.42	349.91
482.79	351.02
483.15	352.32
483.52	353.81
483.88	355.25
484.25	356.77
484.61	358.35
484.98	360.06
485.34	361.99
485.71	364.01
486.07	366.17
486.44	368.31
486.80	370.71
487.17	373.21
487.53	375.91
487.90	378.77
488.26	381.88
488.62	385.16
488.99	388.45
489.35	391.89
489.72	395.61
490.08	399.56
490.44	403.63
490.81	407.88
491.17	412.21
491.54	416.84
491.90	421.65
492.26	426.79
492.63	432.17
492.99	437.78
493.36	443.57
493.72	449.68
494.08	455.96
494.45	462.60
494.81	469.50
495.17	476.59
495.54	484.04
495.90	491.82
496.26	499.77
496.63	507.96
496.99	516.49
497.35	525.39
497.72	534.57
498.08	543.96
498.44	553.67
498.80	563.94
499.17	574.51
499.53	585.36
499.89	596.58
500.26	608.03
500.62	619.79
500.98	632.17
501.34	644.68
501.71	657.71
502.07	670.96
502.43	684.73
502.79	698.74
503.16	713.20
503.52	727.83
503.88	742.88
504.24	758.36
504.60	774.08
504.97	790.26
505.33	806.86
505.69	824.32
506.05	842.10
506.41	859.82
506.78	877.72
507.14	896.15
507.50	914.96
507.86	934.14
508.22	953.51
508.59	972.74
508.95	992.79
509.31	1013.58
509.67	1034.97
510.03	1056.34
510.39	1077.76
510.75	1099.38
511.12	1121.26
511.48	1143.25
511.84	1165.34
512.20	1187.76
512.56	1211.01
512.92	1234.25
513.28	1257.13
513.64	1280.19
514.00	1303.63
514.37	1327.35
514.73	1351.08
515.09	1374.73
515.45	1398.65
515.81	1422.66
516.17	1446.84
516.53	1470.48
516.89	1493.91
517.25	1517.57
517.61	1541.16
517.97	1565.18
518.33	1588.56
518.69	1611.87
519.05	1635.74
519.41	1659.74
519.77	1683.91
520.13	1707.33
520.49	1730.68
520.85	1754.36
521.21	1777.55
521.57	1801.17
521.93	1824.27
522.29	1847.77
522.65	1870.75
523.01	1893.66
523.37	1916.17
523.73	1939.35
524.09	1962.26
524.45	1984.92
524.81	2007.15
525.17	2029.10
525.53	2050.45
525.89	2072.32
526.25	2094.13
526.61	2114.86
526.97	2135.78
527.33	2156.61
527.68	2177.15
528.04	2196.88
528.40	2215.60
528.76	2234.56
529.12	2253.01
529.48	2271.10
529.84	2287.45
530.20	2304.39
530.56	2320.71
530.91	2337.20
531.27	2353.27
531.63	2368.50
531.99	2383.37
532.35	2397.58
532.71	2411.86
533.07	2426.67
533.42	2439.73
533.78	2453.70
534.14	2467.90
534.50	2481.13
534.86	2494.12
535.21	2505.26
535.57	2516.86
535.93	2528.28
536.29	2538.59
536.65	2548.75
537.00	2558.22
537.36	2568.59
537.72	2577.51
538.08	2585.97
538.44	2593.76
538.79	2601.19
539.15	2607.83
539.51	2614.05
539.87	2619.57
540.22	2623.32
540.58	2627.18
540.94	2632.26
541.29	2635.74
541.65	2637.50
542.01	2638.70
542.37	2639.17
542.72	2640.91
543.08	2641.14
543.44	2641.84
543.79	2641.55
544.15	2640.43
544.51	2639.66
544.87	2637.81
545.22	2635.30
545.58	2632.10
545.94	2628.95
546.29	2624.51
546.65	2620.14
547.01	2615.70
547.36	2611.93
547.72	2608.20
548.07	2602.94
548.43	2596.15
548.79	2588.61
549.14	2582.27
549.50	2576.07
549.86	2569.06
550.21	2561.04
550.57	2553.82
550.92	2544.51
551.28	2535.78
551.64	2527.30
551.99	2518.48
552.35	2509.08
552.70	2499.95
553.06	2491.22
553.41	2481.87
553.77	2472.32
554.13	2462.59
554.48	2452.16
554.84	2440.61
555.19	2429.59
555.55	2418.59
555.90	2407.72
556.26	2397.26
556.61	2385.79
556.97	2372.84
557.32	2360.47
557.68	2347.98
558.03	2335.34
558.39	2323.72
558.74	2312.40
559.10	2299.52
559.45	2286.83
559.81	2274.80
560.16	2262.18
560.52	2249.70
560.87	2237.52
561.23	2224.62
561.58	2211.98
561.94	2198.98
562.29	2185.54
562.64	2172.73
563.00	2159.61
563.35	2146.92
563.71	2134.06
564.06	2121.12
564.42	2108.82
564.77	2095.95
565.12	2083.06
565.48	2070.12
565.83	2057.27
566.19	2044.53
566.54	2031.77
566.89	2017.99
567.25	2004.32
567.60	1991.83
567.96	1978.66
568.31	1964.27
568.66	1950.59
569.02	1937.87
569.37	1925.10
569.72	1912.87
570.08	1899.38
570.43	1885.62
570.78	1871.67
571.14	1857.22
571.49	1843.39
571.84	1830.12
572.20	1815.73
572.55	1801.55
572.90	1787.31
573.26	1773.05
573.61	1758.34
573.96	1744.08
574.31	1730.04
574.67	1716.00
575.02	1701.14
575.37	1686.26
575.72	1672.25
576.08	1658.54
576.43	1643.81
576.78	1629.56
577.13	1615.55
577.49	1601.97
577.84	1588.88
578.19	1574.95
578.54	1561.19
578.90	1546.98
579.25	1532.69
579.60	1519.85
579.95	1506.95
580.30	1493.84
580.66	1480.54
581.01	1467.18
581.36	1453.81
581.71	1441.40
582.06	1428.92
582.42	1416.64
582.77	1404.43
583.12	1392.17
583.47	1379.81
583.82	1367.56
584.17	1354.95
584.53	1342.05
584.88	1329.50
585.23	1316.59
585.58	1304.49
585.93	1292.59
586.28	1281.37
586.63	1270.10
586.98	1258.43
587.34	1246.78
587.69	1234.97
588.04	1223.51
588.39	1212.43
588.74	1201.45
589.09	1190.23
589.44	1178.66
589.79	1167.70
590.14	1156.85
590.49	1145.93
590.84	1135.14
591.19	1124.71
591.54	1114.14
591.89	1103.73
592.25	1093.46
592.60	1082.97
592.95	1072.74
593.30	1062.70
593.65	1052.41
594.00	1042.23
594.35	1032.62
594.70	1022.63
595.05	1013.44
595.40	1004.10
595.75	994.66
596.10	985.72
596.45	976.56
596.80	967.71
597.15	958.62
597.50	949.69
597.85	941.11
598.19	932.40
598.54	923.76
598.89	915.49
599.24	907.53
599.59	899.42
599.94	892.12
600.29	884.70
600.64	877.00
600.99	868.96
601.34	861.30
601.69	853.25
602.04	845.86
602.39	838.32
602.74	830.87
603.08	823.39
603.43	815.88
603.78	808.48
604.13	801.26
604.48	794.02
604.83	786.98
605.18	779.85
605.53	772.86
605.87	765.69
606.22	758.87
606.57	751.94
606.92	744.93
607.27	737.88
607.62	731.11
607.96	724.69
608.31	718.71
608.66	712.55
609.01	706.64
609.36	700.86
609.70	694.85
610.05	688.81
610.40	683.01
610.75	677.19
611.10	671.71
611.44	666.08
611.79	660.53
612.14	654.91
612.49	649.39
612.83	644.15
613.18	639.05
613.53	633.83
613.88	628.65
614.22	623.87
614.57	618.99
614.92	613.97
615.27	609.06
615.61	604.19
615.96	599.38
616.31	594.58
616.65	589.82
617.00	585.25
617.35	580.80
617.70	576.39
618.04	572.05
618.39	567.61
618.74	563.43
619.08	559.29
619.43	555.24
619.78	551.21
620.12	547.12
620.47	543.20
620.82	539.38
621.16	535.58
621.51	531.68
621.85	527.83
622.20	524.15
622.55	520.49
622.89	516.89
623.24	513.29
623.59	509.76
623.93	506.35
624.28	503.01
624.62	499.77
624.97	496.55
625.32	493.32
625.66	490.05
626.01	486.73
626.35	483.46
626.70	480.23
627.04	477.18
627.39	474.09
627.73	471.12
628.08	468.24
628.43	465.35
628.77	462.52
629.12	459.80
629.46	457.09
629.81	454.33
630.15	451.58
630.50	448.89
630.84	446.25
631.19	443.65
631.53	441.16
631.88	438.62
632.22	436.11
632.57	433.86
632.91	431.62
633.26	429.48
633.60	427.37
633.95	425.31
634.29	423.16
634.64	421.07
634.98	418.80
635.32	416.68
635.67	414.75
636.01	412.72
636.36	410.74
636.70	408.90
637.05	407.02
637.39	405.18
637.73	403.36
638.08	401.64
638.42	399.91
638.77	398.09
639.11	396.18
639.45	394.35
639.80	392.45
640.14	390.68
640.49	388.88
640.83	387.05
641.17	385.30
641.52	383.59
641.86	381.90
642.20	380.43
642.55	378.76
642.89	377.12
643.23	375.57
643.58	374.17
643.92	372.64
644.26	371.17
644.61	369.75
644.95	368.29
645.29	366.77
645.64	365.26
645.98	363.80
646.32	362.48
646.66	361.14
647.01	359.82
647.35	358.53
647.69	357.24
648.04	356.07
648.38	354.83
648.72	353.59
649.06	352.35
649.41	351.13
649.75	349.96
650.09	348.80
650.43	347.65
650.78	346.43
651.12	345.26
651.46	344.13
651.80	343.02
652.14	341.93
652.49	340.89
652.83	339.84
653.17	338.81
653.51	337.81
653.85	336.87
654.20	335.86
654.54	334.79
654.88	333.79
655.22	332.82
655.56	331.83
655.90	330.90
656.25	329.99
656.59	329.07
656.93	328.21
657.27	327.36
657.61	326.44
657.95	325.57
658.29	324.69
658.64	323.87
658.98	323.02
659.32	322.22
659.66	321.44
660.00	320.69
660.34	319.95
660.68	319.17
661.02	318.35
661.36	317.56
661.70	316.82
662.05	316.09
662.39	315.36
662.73	314.70
663.07	314.06
663.41	313.37
663.75	312.67
664.09	311.97
664.43	311.22
664.77	310.57
665.11	309.87
665.45	309.24
665.79	308.60
666.13	307.94
666.47	307.24
666.81	306.53
667.15	305.78
667.49	305.15
667.83	304.57
668.17	303.96
668.51	303.40
668.85	302.85
669.19	302.33
669.53	301.71
669.87	301.09
670.21	300.49
670.55	299.92
670.89	299.40
671.23	298.87
671.57	298.35
671.91	297.86
672.25	297.41
672.58	296.93
672.92	296.37
673.26	295.91
673.60	295.44
673.94	295.00
674.28	294.59
674.62	294.12
674.96	293.60
675.30	293.15
675.64	292.66
675.97	292.17
676.31	291.63
676.65	291.17
676.99	290.76
677.33	290.24
677.67	289.79
678.01	289.26
678.34	288.81
678.68	288.39
679.02	287.89
679.36	287.41
679.70	286.94
680.04	286.50
680.37	286.04
680.71	285.61
681.05	285.19
681.39	284.72
681.73	284.25
682.06	283.78
682.40	283.35
682.74	282.96
683.08	282.61
683.42	282.21
683.75	281.84
684.09	281.38
684.43	281.01
684.77	280.60
685.10	280.25
685.44	279.86
685.78	279.45
686.12	279.09
686.45	278.69
686.79	278.28
687.13	277.92
687.46	277.52
687.80	277.15
688.14	276.72
688.48	276.35
688.81	275.96
689.15	275.62
689.49	275.22
689.82	274.82
690.16	274.35
690.50	273.98
690.83	273.59
691.17	273.19
691.51	272.81
691.84	272.44
692.18	272.05
692.52	271.65
692.85	271.27
693.19	270.93
693.52	270.55
693.86	270.18
694.20	269.82
694.53	269.46
694.87	269.08
695.21	268.70
695.54	268.34
695.88	267.98
696.21	267.59
696.55	267.23
696.88	266.89
697.22	266.55
697.56	266.19
697.89	265.78
698.23	265.45
698.56	265.08
698.90	264.75
699.23	264.38
699.57	264.03
699.90	263.68
700.24	263.31
700.58	262.99
700.91	262.71
701.25	262.48
701.58	262.22
701.92	261.94
702.25	261.64
702.59	261.33
702.92	261.03
703.26	260.71
703.59	260.39
703.93	260.16
704.26	259.86
704.60	259.57
704.93	259.27
705.26	258.96
705.60	258.70
705.93	258.35
706.27	258.10
706.60	257.85
706.94	257.60
707.27	257.29
707.61	256.99
707.94	256.66
708.27	256.26
708.61	255.91
708.94	255.60
709.28	255.31
709.61	255.02
709.94	254.76
710.28	254.51
710.61	254.27
710.95	253.92
711.28	253.74
711.61	253.47
711.95	253.25
712.28	253.00
712.61	252.71
712.95	252.54
713.28	252.36
713.61	252.08
713.95	251.80
714.28	251.58
714.61	251.34
714.95	251.11
715.28	250.88
715.61	250.65
715.95	250.43
716.28	250.21
716.61	250.03
716.95	249.79
717.28	249.57
717.61	249.34
717.94	249.12
718.28	248.82
718.61	248.60
718.94	248.35
719.27	248.15
719.61	247.97
719.94	247.73
720.27	247.44
720.60	247.24
720.94	247.02
721.27	246.83
721.60	246.64
721.93	246.44
722.27	246.28
722.60	246.10
722.93	245.91
723.26	245.72
723.59	245.49
723.93	245.32
724.26	245.13
724.59	244.94
724.92	244.77
725.25	244.64
725.59	244.46
725.92	244.32
726.25	244.15
726.58	243.98
726.91	243.81
727.24	243.66
727.57	243.50
727.91	243.33
728.24	243.19
728.57	243.02
728.90	242.89
729.23	242.69
729.56	242.58
729.89	242.42
730.22	242.25
730.55	242.12
730.89	241.96
731.22	241.80
731.55	241.65
731.88	241.49
732.21	241.33
732.54	241.18
732.87	241.03
733.20	240.90
733.53	240.76
733.86	240.63
734.19	240.47
734.52	240.35
734.85	240.32
735.18	240.15
735.51	240.06
735.84	239.92
736.17	239.82
736.50	239.63
736.83	239.65
737.16	239.53
737.49	239.41
737.82	239.28
738.15	239.20
738.48	239.09
738.81	238.97
739.14	238.84
739.47	238.72
739.80	238.60
740.13	238.49
740.46	238.35
740.79	238.22
741.12	238.10
741.45	237.96
741.78	237.77
742.11	237.68
742.44	237.54
742.77	237.44
743.10	237.32
743.43	237.22
743.75	236.99
744.08	237.08
744.41	236.97
744.74	236.87
745.07	236.73
745.40	236.63
745.73	236.58
746.06	236.49
746.39	236.41
746.71	236.31
747.04	236.20
747.37	236.10
747.70	236.03
748.03	235.94
748.36	235.88
748.68	235.79
749.01	235.67
749.34	235.59
749.67	235.50
750.00	235.42
750.33	235.41
750.65	235.34
750.98	235.06
751.31	234.98
751.64	234.91
751.97	234.89
752.29	234.81
752.62	234.66
752.95	234.57
753.28	234.47
753.60	234.39
753.93	234.34
754.26	234.28
754.59	234.16
754.91	234.06
755.24	233.96
755.57	233.94
755.90	233.86
756.22	233.75
756.55	233.66
756.88	233.56
757.20	233.40
757.53	233.28
757.86	233.20
758.19	233.13
758.51	233.05
758.84	232.92
759.17	232.84
759.49	232.79
759.82	232.78
760.15	232.73
760.47	232.66
760.80	232.56
761.13	232.52
761.45	232.46
761.78	232.42
762.11	232.36
762.43	232.23
762.76	232.18
763.08	232.14
763.41	232.09
763.74	232.04
764.06	231.99
764.39	231.93
764.71	231.89
765.04	231.82
765.37	231.76
765.69	231.71
766.02	231.65
766.34	231.58
766.67	231.47
767.00	231.44
767.32	231.45
767.65	231.48
767.97	231.41
768.30	231.36
768.62	231.30
768.95	231.24
769.27	231.20
769.60	231.17
769.92	231.10
770.25	231.03
770.57	230.96
770.90	230.92
771.22	230.87
771.55	230.82
771.87	230.79
772.20	230.74
772.52	230.80
772.85	230.90
773.17	230.87
773.50	230.83
773.82	230.76
774.15	230.65
774.47	230.52
774.80	230.48
775.12	230.44
775.45	230.41
775.77	230.38
776.09	230.36
776.42	230.32
776.74	230.33
777.07	230.29
777.39	230.27
777.72	230.22
778.04	230.21
778.36	230.17
778.69	230.13
779.01	230.11
779.33	229.97
779.66	229.80
779.98	229.77
780.31	229.75
780.63	229.78
780.95	229.77
781.28	229.75
781.60	229.70
781.92	229.68
782.25	229.65
782.57	229.62
782.89	229.58
783.22	229.55
783.54	229.49
783.86	229.48
784.19	229.45
784.51	229.47
784.83	229.42
785.16	229.40
785.48	229.38
785.80	229.37
786.12	229.36
786.45	229.33
786.77	229.31
787.09	229.28
787.42	229.22
787.74	229.20
788.06	229.19
788.38	229.18
788.71	229.15
789.03	229.14
789.35	229.14
789.67	229.10
789.99	229.09
790.32	229.05
790.64	229.06
790.96	229.16
791.28	229.09
791.61	229.08
791.93	229.07
792.25	229.03
792.57	229.10
792.89	229.06
793.21	229.05
793.54	229.02
793.86	228.99
794.18	228.99
794.50	228.94
794.82	228.92
795.14	228.92
795.47	228.93
795.79	228.91
796.11	228.87
796.43	228.85
796.75	228.82
797.07	228.83
797.39	228.80
797.71	228.67
798.04	228.66
798.36	228.66
798.68	228.63
799.00	228.63
799.32	228.56
799.64	228.57
799.96	228.56
800.28	228.58
800.60	228.56
800.92	228.54
801.24	228.53
801.56	228.53
801.89	228.50
802.21	228.49
802.53	228.46
802.85	228.47
803.17	228.51
803.49	228.48
803.81	228.45
804.13	228.43
804.45	228.41
804.77	228.42
805.09	228.40
805.41	228.38
805.73	228.34
806.05	228.29
806.37	228.27
806.69	228.23
807.01	228.21
807.33	228.21
807.65	228.15
807.97	228.20
808.28	228.17
808.60	228.17
808.92	228.13
809.24	228.20
809.56	228.16
809.88	228.10
810.20	228.11
810.52	228.11
810.84	228.09
811.16	228.07
811.48	228.04
811.80	228.08
812.12	228.07
812.43	228.08
812.75	228.07
813.07	228.06
813.39	228.05
813.71	228.02
814.03	228.00
814.35	228.00
814.67	227.94
814.98	227.92
815.30	227.90
815.62	227.87
815.94	227.78
816.26	227.79
816.58	227.77
816.89	227.76
817.21	227.73
817.53	227.72
817.85	227.71
818.17	227.70
818.48	227.65
