SpectraSuite Data File
++++++++++++++++++++++++++++++++++++
Date: Wed Sep 30 14:05:42 EDT 2015
User: lab3
Dark Spectrum Present: No
Reference Spectrum Present: No
Number of Sampled Component Spectra: 1
Spectrometers: USB2E7196
Integration Time (usec): 36000 (USB2E7196)
Spectra Averaged: 100 (USB2E7196)
Boxcar Smoothing: 10 (USB2E7196)
Correct for Electrical Dark: No (USB2E7196)
Strobe/Lamp Enabled: No (USB2E7196)
Correct for Detector Non-linearity: No (USB2E7196)
Correct for Stray Light: No (USB2E7196)
Number of Pixels in Processed Spectrum: 2048
>>>>>Begin Processed Spectral Data<<<<<
339.09	0.00
339.48	210.31
339.86	212.33
340.24	213.69
340.63	215.39
341.01	218.32
341.39	217.19
341.78	219.50
342.16	220.03
342.54	220.90
342.93	209.31
343.31	219.88
343.69	220.43
344.07	220.93
344.46	221.33
344.84	221.64
345.22	221.82
345.60	222.05
345.99	222.17
346.37	222.27
346.75	222.29
347.13	222.33
347.52	222.36
347.90	222.40
348.28	222.37
348.66	222.36
349.05	222.32
349.43	222.30
349.81	222.29
350.19	222.30
350.57	222.33
350.96	222.34
351.34	222.37
351.72	222.41
352.10	222.43
352.48	222.47
352.87	222.54
353.25	222.58
353.63	222.63
354.01	222.71
354.39	222.80
354.77	222.90
355.15	223.00
355.54	223.07
355.92	223.12
356.30	223.21
356.68	223.35
357.06	223.43
357.44	223.51
357.82	223.60
358.20	223.71
358.58	223.79
358.97	223.85
359.35	223.97
359.73	224.08
360.11	224.12
360.49	224.23
360.87	224.26
361.25	224.37
361.63	224.49
362.01	224.57
362.39	224.62
362.77	224.67
363.15	224.69
363.53	224.70
363.91	224.72
364.29	224.71
364.67	224.66
365.05	224.69
365.43	224.68
365.81	224.71
366.19	224.74
366.57	224.77
366.95	224.80
367.33	224.76
367.71	224.72
368.09	224.72
368.47	224.68
368.85	224.67
369.23	224.66
369.61	224.58
369.99	224.57
370.37	224.54
370.75	224.58
371.13	224.56
371.51	224.51
371.89	224.51
372.27	224.48
372.65	224.44
373.03	224.37
373.41	224.32
373.78	224.25
374.16	224.15
374.54	224.09
374.92	224.01
375.30	223.96
375.68	223.91
376.06	223.88
376.44	223.81
376.82	223.77
377.19	223.70
377.57	223.64
377.95	223.56
378.33	223.48
378.71	223.32
379.09	223.27
379.47	223.22
379.84	223.13
380.22	223.04
380.60	222.99
380.98	222.91
381.36	222.88
381.73	222.83
382.11	222.76
382.49	222.69
382.87	222.65
383.25	222.61
383.62	222.64
384.00	222.54
384.38	222.48
384.76	222.43
385.13	222.40
385.51	222.32
385.89	222.23
386.27	222.16
386.64	222.15
387.02	222.08
387.40	222.02
387.78	221.97
388.15	221.96
388.53	221.89
388.91	221.87
389.29	221.80
389.66	221.78
390.04	221.73
390.42	221.70
390.79	221.66
391.17	221.59
391.55	221.46
391.92	221.45
392.30	221.41
392.68	221.34
393.05	221.34
393.43	221.35
393.81	221.34
394.18	221.29
394.56	221.25
394.94	221.23
395.31	221.21
395.69	221.21
396.06	221.18
396.44	221.18
396.82	221.14
397.19	221.18
397.57	221.15
397.95	221.14
398.32	221.10
398.70	221.06
399.07	221.07
399.45	221.05
399.82	221.03
400.20	221.05
400.58	221.05
400.95	220.95
401.33	220.94
401.70	221.02
402.08	221.04
402.45	221.04
402.83	221.04
403.20	221.06
403.58	221.02
403.95	221.03
404.33	221.03
404.71	221.07
405.08	221.10
405.46	221.08
405.83	221.07
406.21	221.07
406.58	221.09
406.96	221.06
407.33	221.07
407.70	221.09
408.08	221.17
408.45	221.15
408.83	221.16
409.20	221.15
409.58	221.10
409.95	221.10
410.33	221.14
410.70	221.11
411.08	221.13
411.45	221.15
411.82	221.16
412.20	221.16
412.57	221.20
412.95	221.13
413.32	221.15
413.69	221.14
414.07	221.14
414.44	221.13
414.82	221.15
415.19	221.15
415.56	221.13
415.94	221.09
416.31	221.13
416.68	221.14
417.06	221.15
417.43	221.17
417.81	221.17
418.18	221.16
418.55	221.19
418.93	221.18
419.30	221.17
419.67	221.18
420.04	221.16
420.42	221.15
420.79	221.25
421.16	221.27
421.54	221.36
421.91	221.38
422.28	221.41
422.66	221.44
423.03	221.54
423.40	221.54
423.77	221.53
424.15	221.49
424.52	221.49
424.89	221.50
425.26	221.45
425.64	221.43
426.01	221.40
426.38	221.37
426.75	221.39
427.13	221.40
427.50	221.40
427.87	221.39
428.24	221.36
428.61	221.24
428.99	221.28
429.36	221.20
429.73	221.18
430.10	221.17
430.47	221.16
430.85	221.06
431.22	221.07
431.59	221.16
431.96	221.17
432.33	221.15
432.70	221.15
433.08	221.14
433.45	221.16
433.82	221.16
434.19	221.17
434.56	221.18
434.93	221.16
435.30	221.16
435.68	221.13
436.05	221.11
436.42	221.10
436.79	221.07
437.16	221.10
437.53	221.10
437.90	221.08
438.27	221.10
438.64	221.11
439.01	221.12
439.38	221.04
439.75	221.02
440.13	221.04
440.50	221.03
440.87	221.04
441.24	221.03
441.61	221.03
441.98	221.02
442.35	220.95
442.72	220.97
443.09	221.02
443.46	221.06
443.83	221.07
444.20	221.11
444.57	221.06
444.94	221.03
445.31	221.03
445.68	221.19
446.05	221.16
446.42	221.15
446.79	221.17
447.16	221.12
447.53	221.17
447.90	221.17
448.27	221.18
448.64	221.19
449.01	221.20
449.37	221.25
449.74	221.26
450.11	221.41
450.48	221.39
450.85	221.32
451.22	221.30
451.59	221.32
451.96	221.31
452.33	221.33
452.70	221.36
453.07	221.37
453.43	221.22
453.80	221.23
454.17	221.25
454.54	221.21
454.91	221.25
455.28	221.23
455.65	221.26
456.02	221.47
456.38	221.46
456.75	221.48
457.12	221.46
457.49	221.48
457.86	221.40
458.23	221.48
458.59	221.51
458.96	221.50
459.33	221.51
459.70	221.51
460.07	221.52
460.43	221.50
460.80	221.51
461.17	221.56
461.54	221.59
461.91	221.58
462.27	221.62
462.64	221.60
463.01	221.62
463.38	221.63
463.74	221.46
464.11	221.46
464.48	221.48
464.85	221.48
465.21	221.49
465.58	221.54
465.95	221.52
466.32	221.56
466.68	221.62
467.05	221.64
467.42	221.66
467.78	221.68
468.15	221.73
468.52	221.74
468.88	221.71
469.25	221.71
469.62	221.74
469.98	221.72
470.35	221.71
470.72	221.71
471.08	221.68
471.45	221.65
471.82	221.72
472.18	221.70
472.55	221.75
472.92	221.75
473.28	221.68
473.65	221.66
474.02	221.64
474.38	221.62
474.75	221.62
475.11	221.61
475.48	221.61
475.85	221.59
476.21	221.61
476.58	221.63
476.94	221.63
477.31	221.60
477.67	221.59
478.04	221.60
478.41	221.59
478.77	221.73
479.14	221.74
479.50	221.70
479.87	221.72
480.23	221.69
480.60	221.66
480.96	221.70
481.33	221.75
481.69	221.73
482.06	221.76
482.42	221.77
482.79	221.80
483.15	221.82
483.52	221.81
483.88	221.80
484.25	221.81
484.61	221.77
484.98	221.82
485.34	221.87
485.71	221.91
486.07	221.92
486.44	221.81
486.80	221.85
487.17	221.84
487.53	221.85
487.90	221.89
488.26	221.96
488.62	221.95
488.99	221.90
489.35	221.90
489.72	221.86
490.08	221.82
490.44	221.81
490.81	221.78
491.17	221.78
491.54	221.79
491.90	221.81
492.26	221.80
492.63	221.78
492.99	221.74
493.36	221.74
493.72	221.76
494.08	221.76
494.45	221.74
494.81	221.74
495.17	221.73
495.54	221.70
495.90	221.65
496.26	221.66
496.63	221.69
496.99	221.70
497.35	221.71
497.72	221.75
498.08	221.72
498.44	221.72
498.80	221.74
499.17	221.72
499.53	221.69
499.89	221.74
500.26	221.75
500.62	221.78
500.98	221.79
501.34	221.78
501.71	221.81
502.07	221.80
502.43	221.82
502.79	221.80
503.16	221.82
503.52	221.84
503.88	221.81
504.24	221.80
504.60	221.82
504.97	221.86
505.33	221.86
505.69	221.93
506.05	221.90
506.41	221.91
506.78	221.91
507.14	221.89
507.50	221.89
507.86	221.87
508.22	221.88
508.59	221.85
508.95	221.87
509.31	221.90
509.67	221.90
510.03	221.90
510.39	221.91
510.75	221.89
511.12	221.88
511.48	221.89
511.84	221.88
512.20	221.88
512.56	221.87
512.92	221.86
513.28	221.87
513.64	221.90
514.00	221.90
514.37	221.92
514.73	221.91
515.09	221.90
515.45	221.90
515.81	221.90
516.17	221.90
516.53	221.88
516.89	221.82
517.25	221.83
517.61	221.87
517.97	221.87
518.33	221.88
518.69	221.91
519.05	221.97
519.41	221.99
519.77	222.01
520.13	222.02
520.49	222.05
520.85	222.01
521.21	222.06
521.57	222.07
521.93	222.08
522.29	222.16
522.65	222.16
523.01	222.16
523.37	222.14
523.73	222.19
524.09	222.21
524.45	222.22
524.81	222.24
525.17	222.23
525.53	222.25
525.89	222.25
526.25	222.25
526.61	222.22
526.97	222.21
527.33	222.20
527.68	222.29
528.04	222.32
528.40	222.37
528.76	222.36
529.12	222.35
529.48	222.37
529.84	222.31
530.20	222.35
530.56	222.39
530.91	222.47
531.27	222.42
531.63	222.41
531.99	222.40
532.35	222.42
532.71	222.40
533.07	222.40
533.42	222.55
533.78	222.54
534.14	222.51
534.50	222.51
534.86	222.52
535.21	222.44
535.57	222.40
535.93	222.35
536.29	222.41
536.65	222.45
537.00	222.43
537.36	222.51
537.72	222.52
538.08	222.52
538.44	222.46
538.79	222.51
539.15	222.55
539.51	222.57
539.87	222.54
540.22	222.54
540.58	222.55
540.94	222.43
541.29	222.45
541.65	222.47
542.01	222.49
542.37	222.48
542.72	222.43
543.08	222.44
543.44	222.47
543.79	222.37
544.15	222.36
544.51	222.40
544.87	222.36
545.22	222.31
545.58	222.32
545.94	222.32
546.29	222.31
546.65	222.30
547.01	222.27
547.36	222.28
547.72	222.30
548.07	222.30
548.43	222.27
548.79	222.25
549.14	222.25
549.50	222.26
549.86	222.24
550.21	222.28
550.57	222.30
550.92	222.27
551.28	222.32
551.64	222.31
551.99	222.27
552.35	222.24
552.70	222.28
553.06	222.29
553.41	222.28
553.77	222.30
554.13	222.32
554.48	222.37
554.84	222.39
555.19	222.39
555.55	222.44
555.90	222.48
556.26	222.51
556.61	222.52
556.97	222.52
557.32	222.50
557.68	222.51
558.03	222.48
558.39	222.49
558.74	222.60
559.10	222.58
559.45	222.59
559.81	222.61
560.16	222.57
560.52	222.54
560.87	222.55
561.23	222.53
561.58	222.58
561.94	222.54
562.29	222.51
562.64	222.50
563.00	222.41
563.35	222.39
563.71	222.40
564.06	222.37
564.42	222.37
564.77	222.38
565.12	222.37
565.48	222.45
565.83	222.48
566.19	222.33
566.54	222.33
566.89	222.30
567.25	222.31
567.60	222.38
567.96	222.50
568.31	222.58
568.66	222.63
569.02	222.56
569.37	222.57
569.72	222.58
570.08	222.57
570.43	222.58
570.78	222.55
571.14	222.52
571.49	222.52
571.84	222.50
572.20	222.49
572.55	222.52
572.90	222.44
573.26	222.40
573.61	222.44
573.96	222.45
574.31	222.50
574.67	222.49
575.02	222.44
575.37	222.33
575.72	222.26
576.08	222.22
576.43	222.22
576.78	222.24
577.13	222.23
577.49	222.23
577.84	222.26
578.19	222.26
578.54	222.27
578.90	222.27
579.25	222.26
579.60	222.30
579.95	222.28
580.30	222.29
580.66	222.32
581.01	222.28
581.36	222.25
581.71	222.24
582.06	222.31
582.42	222.31
582.77	222.31
583.12	222.34
583.47	222.33
583.82	222.36
584.17	222.33
584.53	222.39
584.88	222.38
585.23	222.39
585.58	222.40
585.93	222.39
586.28	222.46
586.63	222.49
586.98	222.50
587.34	222.51
587.69	222.52
588.04	222.50
588.39	222.52
588.74	222.52
589.09	222.54
589.44	222.47
589.79	222.47
590.14	222.50
590.49	222.43
590.84	222.42
591.19	222.40
591.54	222.43
591.89	222.36
592.25	222.47
592.60	222.46
592.95	222.49
593.30	222.51
593.65	222.48
594.00	222.44
594.35	222.72
594.70	222.71
595.05	222.71
595.40	222.74
595.75	222.75
596.10	222.78
596.45	222.79
596.80	222.80
597.15	222.83
597.50	222.85
597.85	222.92
598.19	222.95
598.54	222.95
598.89	222.95
599.24	223.02
599.59	222.96
599.94	222.95
600.29	222.95
600.64	222.97
600.99	223.02
601.34	223.04
601.69	222.75
602.04	222.75
602.39	222.74
602.74	222.74
603.08	222.76
603.43	222.76
603.78	222.72
604.13	222.75
604.48	222.75
604.83	222.74
605.18	222.73
605.53	222.71
605.87	222.71
606.22	222.71
606.57	222.68
606.92	222.63
607.27	222.62
607.62	222.62
607.96	222.62
608.31	222.56
608.66	222.59
609.01	222.58
609.36	222.59
609.70	222.60
610.05	222.59
610.40	222.58
610.75	222.59
611.10	222.60
611.44	222.60
611.79	222.60
612.14	222.56
612.49	222.52
612.83	222.55
613.18	222.54
613.53	222.52
613.88	222.55
614.22	222.54
614.57	222.52
614.92	222.50
615.27	222.50
615.61	222.49
615.96	222.48
616.31	222.48
616.65	222.53
617.00	222.50
617.35	222.48
617.70	222.47
618.04	222.44
618.39	222.43
618.74	222.41
619.08	222.39
619.43	222.40
619.78	222.43
620.12	222.42
620.47	222.42
620.82	222.42
621.16	222.40
621.51	222.49
621.85	222.49
622.20	222.48
622.55	222.46
622.89	222.48
623.24	222.46
623.59	222.43
623.93	222.40
624.28	222.44
624.62	222.55
624.97	222.59
625.32	222.58
625.66	222.59
626.01	222.57
626.35	222.56
626.70	222.55
627.04	222.55
627.39	222.53
627.73	222.60
628.08	222.58
628.43	222.57
628.77	222.52
629.12	222.53
629.46	222.58
629.81	222.61
630.15	222.59
630.50	222.59
630.84	222.63
631.19	222.60
631.53	222.56
631.88	222.45
632.22	222.38
632.57	222.42
632.91	222.43
633.26	222.44
633.60	222.44
633.95	222.48
634.29	222.43
634.64	222.42
634.98	222.34
635.32	222.37
635.67	222.36
636.01	222.37
636.36	222.36
636.70	222.35
637.05	222.33
637.39	222.36
637.73	222.38
638.08	222.36
638.42	222.43
638.77	222.45
639.11	222.47
639.45	222.47
639.80	222.43
640.14	222.43
640.49	222.39
640.83	222.41
641.17	222.40
641.52	222.40
641.86	222.42
642.20	222.48
642.55	222.47
642.89	222.45
643.23	222.44
643.58	222.49
643.92	222.44
644.26	222.42
644.61	222.41
644.95	222.39
645.29	222.40
645.64	222.37
645.98	222.36
646.32	222.35
646.66	222.33
647.01	222.38
647.35	222.35
647.69	222.41
648.04	222.39
648.38	222.40
648.72	222.43
649.06	222.41
649.41	222.36
649.75	222.36
650.09	222.38
650.43	222.36
650.78	222.33
651.12	222.37
651.46	222.37
651.80	222.38
652.14	222.33
652.49	222.36
652.83	222.33
653.17	222.34
653.51	222.35
653.85	222.39
654.20	222.36
654.54	222.39
654.88	222.37
655.22	222.44
655.56	222.45
655.90	222.45
656.25	222.48
656.59	222.49
656.93	222.50
657.27	222.51
657.61	222.49
657.95	222.50
658.29	222.51
658.64	222.57
658.98	222.53
659.32	222.58
659.66	222.53
660.00	222.51
660.34	222.54
660.68	222.52
661.02	222.51
661.36	222.51
661.70	222.51
662.05	222.54
662.39	222.52
662.73	222.53
663.07	222.59
663.41	222.59
663.75	222.59
664.09	222.59
664.43	222.58
664.77	222.65
665.11	222.63
665.45	222.62
665.79	222.62
666.13	222.62
666.47	222.61
666.81	222.64
667.15	222.64
667.49	222.65
667.83	222.69
668.17	222.68
668.51	222.69
668.85	222.69
669.19	222.71
669.53	222.68
669.87	222.62
670.21	222.55
670.55	222.57
670.89	222.58
671.23	222.57
671.57	222.59
671.91	222.54
672.25	222.52
672.58	222.57
672.92	222.54
673.26	222.57
673.60	222.58
673.94	222.57
674.28	222.60
674.62	222.58
674.96	222.53
675.30	222.55
675.64	222.55
675.97	222.51
676.31	222.46
676.65	222.45
676.99	222.47
677.33	222.47
677.67	222.48
678.01	222.45
678.34	222.47
678.68	222.47
679.02	222.48
679.36	222.50
679.70	222.45
680.04	222.46
680.37	222.45
680.71	222.45
681.05	222.49
681.39	222.52
681.73	222.52
682.06	222.53
682.40	222.57
682.74	222.57
683.08	222.61
683.42	222.61
683.75	222.66
684.09	222.64
684.43	222.64
684.77	222.59
685.10	222.62
685.44	222.64
685.78	222.62
686.12	222.62
686.45	222.63
686.79	222.61
687.13	222.62
687.46	222.60
687.80	222.65
688.14	222.61
688.48	222.59
688.81	222.61
689.15	222.67
689.49	222.63
689.82	222.63
690.16	222.61
690.50	222.64
690.83	222.64
691.17	222.65
691.51	222.70
691.84	222.76
692.18	222.73
692.52	222.70
692.85	222.75
693.19	222.78
693.52	222.79
693.86	222.81
694.20	222.78
694.53	222.80
694.87	222.75
695.21	222.74
695.54	222.74
695.88	222.69
696.21	222.65
696.55	222.64
696.88	222.63
697.22	222.64
697.56	222.63
697.89	222.60
698.23	222.63
698.56	222.56
698.90	222.54
699.23	222.55
699.57	222.53
699.90	222.51
700.24	222.45
700.58	222.46
700.91	222.47
701.25	222.57
701.58	222.60
701.92	222.64
702.25	222.64
702.59	222.64
702.92	222.67
703.26	222.67
703.59	222.66
703.93	222.75
704.26	222.74
704.60	222.75
704.93	222.73
705.26	222.69
705.60	222.74
705.93	222.71
706.27	222.74
706.60	222.79
706.94	222.82
707.27	222.84
707.61	222.83
707.94	222.82
708.27	222.73
708.61	222.68
708.94	222.66
709.28	222.64
709.61	222.65
709.94	222.66
710.28	222.65
710.61	222.65
710.95	222.58
711.28	222.64
711.61	222.65
711.95	222.68
712.28	222.68
712.61	222.68
712.95	222.76
713.28	222.79
713.61	222.77
713.95	222.74
714.28	222.73
714.61	222.71
714.95	222.73
715.28	222.73
715.61	222.76
715.95	222.76
716.28	222.77
716.61	222.75
716.95	222.76
717.28	222.77
717.61	222.79
717.94	222.77
718.28	222.73
718.61	222.73
718.94	222.69
719.27	222.70
719.61	222.69
719.94	222.61
720.27	222.58
720.60	222.58
720.94	222.57
721.27	222.59
721.60	222.61
721.93	222.61
722.27	222.64
722.60	222.65
722.93	222.65
723.26	222.66
723.59	222.67
723.93	222.64
724.26	222.66
724.59	222.66
724.92	222.69
725.25	222.68
725.59	222.69
725.92	222.71
726.25	222.69
726.58	222.69
726.91	222.71
727.24	222.68
727.57	222.66
727.91	222.66
728.24	222.67
728.57	222.65
728.90	222.67
729.23	222.63
729.56	222.68
729.89	222.70
730.22	222.72
730.55	222.70
730.89	222.75
731.22	222.72
731.55	222.71
731.88	222.70
732.21	222.68
732.54	222.64
732.87	222.69
733.20	222.72
733.53	222.71
733.86	222.76
734.19	222.74
734.52	222.78
734.85	222.84
735.18	222.82
735.51	222.85
735.84	222.86
736.17	222.87
736.50	222.81
736.83	222.90
737.16	222.88
737.49	222.90
737.82	222.85
738.15	222.87
738.48	222.86
738.81	222.86
739.14	222.87
739.47	222.88
739.80	222.85
740.13	222.85
740.46	222.86
740.79	222.80
741.12	222.82
741.45	222.82
741.78	222.76
742.11	222.77
742.44	222.72
742.77	222.72
743.10	222.72
743.43	222.74
743.75	222.63
744.08	222.78
744.41	222.77
744.74	222.80
745.07	222.78
745.40	222.80
745.73	222.83
746.06	222.84
746.39	222.83
746.71	222.79
747.04	222.78
747.37	222.76
747.70	222.80
748.03	222.81
748.36	222.78
748.68	222.77
749.01	222.78
749.34	222.82
749.67	222.79
750.00	222.78
750.33	222.84
750.65	222.88
750.98	222.72
751.31	222.71
751.64	222.69
751.97	222.75
752.29	222.73
752.62	222.69
752.95	222.68
753.28	222.68
753.60	222.69
753.93	222.73
754.26	222.72
754.59	222.67
754.91	222.63
755.24	222.66
755.57	222.70
755.90	222.70
756.22	222.65
756.55	222.64
756.88	222.65
757.20	222.56
757.53	222.50
757.86	222.48
758.19	222.51
758.51	222.51
758.84	222.48
759.17	222.49
759.49	222.50
759.82	222.54
760.15	222.54
760.47	222.53
760.80	222.50
761.13	222.53
761.45	222.55
761.78	222.60
762.11	222.57
762.43	222.53
762.76	222.52
763.08	222.53
763.41	222.55
763.74	222.56
764.06	222.59
764.39	222.58
764.71	222.60
765.04	222.58
765.37	222.55
765.69	222.50
766.02	222.52
766.34	222.54
766.67	222.50
767.00	222.53
767.32	222.59
767.65	222.64
767.97	222.62
768.30	222.59
768.62	222.59
768.95	222.58
769.27	222.55
769.60	222.57
769.92	222.58
770.25	222.54
770.57	222.51
770.90	222.50
771.22	222.48
771.55	222.49
771.87	222.49
772.20	222.54
772.52	222.67
772.85	222.78
773.17	222.75
773.50	222.74
773.82	222.74
774.15	222.69
774.47	222.63
774.80	222.61
775.12	222.64
775.45	222.64
775.77	222.65
776.09	222.68
776.42	222.67
776.74	222.71
777.07	222.71
777.39	222.72
777.72	222.71
778.04	222.76
778.36	222.74
778.69	222.73
779.01	222.70
779.33	222.60
779.66	222.48
779.98	222.49
780.31	222.49
780.63	222.51
780.95	222.50
781.28	222.52
781.60	222.55
781.92	222.54
782.25	222.51
782.57	222.52
782.89	222.50
783.22	222.49
783.54	222.48
783.86	222.50
784.19	222.52
784.51	222.53
784.83	222.49
785.16	222.49
785.48	222.49
785.80	222.49
786.12	222.50
786.45	222.50
786.77	222.51
787.09	222.51
787.42	222.50
787.74	222.53
788.06	222.54
788.38	222.53
788.71	222.55
789.03	222.54
789.35	222.58
789.67	222.59
789.99	222.59
790.32	222.58
790.64	222.59
790.96	222.68
791.28	222.68
791.61	222.69
791.93	222.71
792.25	222.73
792.57	222.84
792.89	222.79
793.21	222.80
793.54	222.80
793.86	222.81
794.18	222.81
794.50	222.81
794.82	222.79
795.14	222.81
795.47	222.81
795.79	222.88
796.11	222.82
796.43	222.82
796.75	222.80
797.07	222.82
797.39	222.82
797.71	222.73
798.04	222.75
798.36	222.75
798.68	222.74
799.00	222.74
799.32	222.66
799.64	222.70
799.96	222.69
800.28	222.71
800.60	222.68
800.92	222.69
801.24	222.67
801.56	222.67
801.89	222.67
802.21	222.65
802.53	222.59
802.85	222.63
803.17	222.67
803.49	222.69
803.81	222.68
804.13	222.69
804.45	222.68
804.77	222.68
805.09	222.67
805.41	222.66
805.73	222.64
806.05	222.62
806.37	222.62
806.69	222.62
807.01	222.57
807.33	222.60
807.65	222.58
807.97	222.62
808.28	222.63
808.60	222.61
808.92	222.61
809.24	222.66
809.56	222.67
809.88	222.62
810.20	222.63
810.52	222.63
810.84	222.58
811.16	222.59
811.48	222.57
811.80	222.60
812.12	222.63
812.43	222.66
812.75	222.65
813.07	222.65
813.39	222.67
813.71	222.68
814.03	222.64
814.35	222.59
814.67	222.56
814.98	222.53
815.30	222.52
815.62	222.52
815.94	222.46
816.26	222.44
816.58	222.44
816.89	222.42
817.21	222.40
817.53	222.43
817.85	222.42
818.17	222.45
818.48	222.42
818.80	222.41
819.12	222.37
819.44	222.38
819.76	222.39
820.07	222.36
820.39	222.38
820.71	222.40
821.03	222.43
821.34	222.41
821.66	222.47
821.98	222.47
822.30	222.46
822.61	222.52
822.93	222.52
823.25	222.52
823.57	222.50
823.88	222.52
824.20	222.51
