SpectraSuite Data File
++++++++++++++++++++++++++++++++++++
Date: Thu Oct 01 04:34:17 EDT 2015
User: lab3
Dark Spectrum Present: No
Reference Spectrum Present: No
Number of Sampled Component Spectra: 1
Spectrometers: USB2E7196
Integration Time (usec): 36000 (USB2E7196)
Spectra Averaged: 10000 (USB2E7196)
Boxcar Smoothing: 10 (USB2E7196)
Correct for Electrical Dark: No (USB2E7196)
Strobe/Lamp Enabled: No (USB2E7196)
Correct for Detector Non-linearity: No (USB2E7196)
Correct for Stray Light: No (USB2E7196)
Number of Pixels in Processed Spectrum: 2048
>>>>>Begin Processed Spectral Data<<<<<
339.09	0.00
339.48	210.16
339.86	211.67
340.24	213.09
340.63	214.47
341.01	217.41
341.39	217.13
341.78	218.49
342.16	219.73
342.54	220.16
342.93	208.78
343.31	219.34
343.69	219.88
344.07	220.34
344.46	220.76
344.84	221.15
345.22	221.39
345.60	221.65
345.99	221.84
346.37	221.98
346.75	222.09
347.13	222.16
347.52	222.24
347.90	222.32
348.28	222.36
348.66	222.42
349.05	222.42
349.43	222.47
349.81	222.53
350.19	222.58
350.57	222.64
350.96	222.73
351.34	222.82
351.72	222.91
352.10	223.02
352.48	223.10
352.87	223.15
353.25	223.22
353.63	223.28
354.01	223.34
354.39	223.42
354.77	223.50
355.15	223.60
355.54	223.65
355.92	223.69
356.30	223.76
356.68	223.90
357.06	223.98
357.44	224.03
357.82	224.09
358.20	224.20
358.58	224.26
358.97	224.33
359.35	224.41
359.73	224.49
360.11	224.53
360.49	224.59
360.87	224.64
361.25	224.70
361.63	224.78
362.01	224.83
362.39	224.86
362.77	224.90
363.15	224.93
363.53	224.96
363.91	224.99
364.29	225.02
364.67	224.94
365.05	224.96
365.43	224.99
365.81	225.02
366.19	225.04
366.57	225.08
366.95	225.08
367.33	225.05
367.71	225.04
368.09	225.06
368.47	225.05
368.85	225.05
369.23	225.05
369.61	225.00
369.99	225.02
370.37	225.01
370.75	225.07
371.13	225.04
371.51	225.00
371.89	224.97
372.27	224.94
372.65	224.92
373.03	224.88
373.41	224.83
373.78	224.78
374.16	224.69
374.54	224.61
374.92	224.56
375.30	224.52
375.68	224.45
376.06	224.40
376.44	224.35
376.82	224.30
377.19	224.25
377.57	224.20
377.95	224.11
378.33	224.05
378.71	223.91
379.09	223.86
379.47	223.82
379.84	223.76
380.22	223.70
380.60	223.63
380.98	223.58
381.36	223.53
381.73	223.46
382.11	223.43
382.49	223.39
382.87	223.33
383.25	223.28
383.62	223.36
384.00	223.29
384.38	223.25
384.76	223.23
385.13	223.22
385.51	223.17
385.89	223.12
386.27	223.09
386.64	223.07
387.02	223.02
387.40	222.97
387.78	222.95
388.15	222.92
388.53	222.89
388.91	222.86
389.29	222.83
389.66	222.82
390.04	222.78
390.42	222.77
390.79	222.76
391.17	222.74
391.55	222.61
391.92	222.60
392.30	222.60
392.68	222.56
393.05	222.54
393.43	222.54
393.81	222.55
394.18	222.53
394.56	222.53
394.94	222.55
395.31	222.55
395.69	222.59
396.06	222.61
396.44	222.63
396.82	222.64
397.19	222.71
397.57	222.72
397.95	222.76
398.32	222.76
398.70	222.80
399.07	222.86
399.45	222.90
399.82	222.94
400.20	222.97
400.58	223.03
400.95	223.04
401.33	223.12
401.70	223.25
402.08	223.34
402.45	223.42
402.83	223.52
403.20	223.62
403.58	223.71
403.95	223.83
404.33	223.96
404.71	224.09
405.08	224.27
405.46	224.42
405.83	224.59
406.21	224.76
406.58	224.95
406.96	225.13
407.33	225.35
407.70	225.59
408.08	225.92
408.45	226.21
408.83	226.52
409.20	226.80
409.58	227.06
409.95	227.40
410.33	227.78
410.70	228.14
411.08	228.56
411.45	229.00
411.82	229.45
412.20	229.96
412.57	230.57
412.95	231.05
413.32	231.68
413.69	232.32
414.07	233.00
414.44	233.74
414.82	234.50
415.19	235.38
415.56	236.28
415.94	237.21
416.31	238.25
416.68	239.30
417.06	240.52
417.43	241.66
417.81	242.97
418.18	244.31
418.55	245.78
418.93	247.29
419.30	248.88
419.67	250.57
420.04	252.31
420.42	254.13
420.79	256.23
421.16	258.35
421.54	260.50
421.91	262.75
422.28	265.09
422.66	267.62
423.03	270.02
423.40	272.55
423.77	275.26
424.15	278.03
424.52	280.91
424.89	284.03
425.26	287.13
425.64	290.01
426.01	293.25
426.38	296.56
426.75	299.96
427.13	303.45
427.50	307.10
427.87	310.88
428.24	314.70
428.61	318.35
428.99	322.28
429.36	326.61
429.73	330.74
430.10	334.85
430.47	339.04
430.85	343.36
431.22	347.95
431.59	352.67
431.96	357.27
432.33	362.35
432.70	367.17
433.08	372.88
433.45	378.27
433.82	383.55
434.19	389.46
434.56	395.28
434.93	400.88
435.30	406.42
435.68	412.66
436.05	418.77
436.42	424.87
436.79	430.42
437.16	436.42
437.53	442.85
437.90	449.28
438.27	455.56
438.64	462.38
439.01	468.55
439.38	474.20
439.75	479.65
440.13	485.89
440.50	491.82
440.87	496.52
441.24	501.68
441.61	507.38
441.98	511.56
442.35	516.54
442.72	521.66
443.09	526.56
443.46	529.75
443.83	532.13
444.20	534.17
444.57	537.11
444.94	538.91
445.31	540.76
445.68	542.43
446.05	543.73
446.42	543.68
446.79	543.54
447.16	543.45
447.53	543.39
447.90	541.67
448.27	540.07
448.64	537.45
449.01	535.76
449.37	531.95
449.74	528.49
450.11	524.02
450.48	519.06
450.85	514.07
451.22	509.84
451.59	505.71
451.96	501.95
452.33	496.40
452.70	491.44
453.07	485.39
453.43	479.31
453.80	473.43
454.17	467.77
454.54	462.51
454.91	456.57
455.28	450.97
455.65	445.68
456.02	440.04
456.38	435.50
456.75	429.63
457.12	424.89
457.49	420.11
457.86	415.54
458.23	411.54
458.59	407.11
458.96	402.55
459.33	398.53
459.70	394.43
460.07	391.31
460.43	387.63
460.80	384.19
461.17	381.14
461.54	377.86
461.91	374.81
462.27	371.70
462.64	369.15
463.01	366.23
463.38	363.29
463.74	360.64
464.11	358.27
464.48	356.12
464.85	353.82
465.21	352.07
465.58	350.13
465.95	347.88
466.32	346.09
466.68	344.34
467.05	342.58
467.42	340.88
467.78	339.06
468.15	337.37
468.52	336.12
468.88	334.48
469.25	332.97
469.62	331.77
469.98	330.48
470.35	329.32
470.72	328.28
471.08	327.23
471.45	326.35
471.82	325.39
472.18	324.39
472.55	323.74
472.92	322.94
473.28	322.31
473.65	321.67
474.02	321.06
474.38	320.57
474.75	320.29
475.11	319.87
475.48	319.71
475.85	319.56
476.21	319.51
476.58	319.52
476.94	319.72
477.31	319.84
477.67	320.00
478.04	320.27
478.41	320.61
478.77	321.08
479.14	321.41
479.50	321.97
479.87	322.67
480.23	323.37
480.60	324.04
480.96	324.74
481.33	325.71
481.69	326.67
482.06	327.62
482.42	328.51
482.79	329.60
483.15	330.84
483.52	332.22
483.88	333.57
484.25	335.00
484.61	336.48
484.98	338.08
485.34	339.87
485.71	341.72
486.07	343.70
486.44	345.68
486.80	347.87
487.17	350.10
487.53	352.57
487.90	355.13
488.26	357.91
488.62	360.85
488.99	363.78
489.35	366.84
489.72	370.16
490.08	373.65
490.44	377.22
490.81	380.95
491.17	384.79
491.54	388.88
491.90	393.06
492.26	397.58
492.63	402.33
492.99	407.28
493.36	412.34
493.72	417.68
494.08	423.15
494.45	428.95
494.81	434.94
495.17	441.06
495.54	447.51
495.90	454.29
496.26	461.20
496.63	468.35
496.99	475.79
497.35	483.58
497.72	491.68
498.08	499.94
498.44	508.47
498.80	517.54
499.17	526.84
499.53	536.49
499.89	546.36
500.26	556.41
500.62	566.73
500.98	577.72
501.34	588.85
501.71	600.54
502.07	612.43
502.43	624.73
502.79	637.38
503.16	650.43
503.52	663.67
503.88	677.29
504.24	691.32
504.60	705.65
504.97	720.36
505.33	735.45
505.69	751.46
506.05	767.66
506.41	783.86
506.78	800.37
507.14	817.36
507.50	834.95
507.86	852.92
508.22	871.17
508.59	889.46
508.95	908.45
509.31	927.87
509.67	947.98
510.03	968.32
510.39	988.87
510.75	1009.67
511.12	1030.75
511.48	1052.17
511.84	1073.66
512.20	1095.48
512.56	1118.38
512.92	1141.50
513.28	1164.33
513.64	1187.49
514.00	1211.05
514.37	1234.96
514.73	1258.88
515.09	1282.60
515.45	1306.77
515.81	1331.49
516.17	1356.27
516.53	1380.71
516.89	1405.23
517.25	1429.94
517.61	1454.82
517.97	1479.91
518.33	1504.70
518.69	1529.67
519.05	1554.88
519.41	1580.22
519.77	1605.82
520.13	1630.64
520.49	1655.62
520.85	1680.81
521.21	1705.93
521.57	1731.65
521.93	1756.63
522.29	1782.47
522.65	1808.03
523.01	1833.37
523.37	1857.97
523.73	1883.19
524.09	1908.59
524.45	1933.92
524.81	1958.77
525.17	1983.54
525.53	2007.85
525.89	2032.19
526.25	2056.73
526.61	2080.72
526.97	2105.01
527.33	2129.21
527.68	2153.27
528.04	2176.49
528.40	2199.56
528.76	2222.80
529.12	2244.97
529.48	2267.52
529.84	2288.21
530.20	2309.51
530.56	2330.43
530.91	2351.43
531.27	2371.94
531.63	2391.79
531.99	2411.10
532.35	2430.03
532.71	2449.08
533.07	2468.73
533.42	2486.83
533.78	2505.36
534.14	2523.85
534.50	2541.50
534.86	2559.77
535.21	2576.15
535.57	2592.49
535.93	2608.07
536.29	2622.48
536.65	2637.71
537.00	2651.82
537.36	2666.46
537.72	2680.02
538.08	2693.27
538.44	2705.36
538.79	2717.64
539.15	2728.27
539.51	2738.87
539.87	2749.12
540.22	2757.25
540.58	2765.44
540.94	2774.24
541.29	2781.45
541.65	2787.70
542.01	2793.43
542.37	2797.29
542.72	2803.09
543.08	2808.38
543.44	2813.52
543.79	2817.79
544.15	2821.24
544.51	2824.63
544.87	2827.11
545.22	2829.19
545.58	2830.32
545.94	2831.92
546.29	2832.04
546.65	2832.33
547.01	2832.61
547.36	2833.03
547.72	2833.59
548.07	2832.69
548.43	2831.11
548.79	2828.90
549.14	2826.74
549.50	2825.18
549.86	2822.81
550.21	2817.96
550.57	2813.55
550.92	2807.78
551.28	2802.61
551.64	2797.32
551.99	2792.44
552.35	2787.17
552.70	2781.47
553.06	2776.46
553.41	2770.98
553.77	2764.99
554.13	2759.62
554.48	2753.39
554.84	2745.48
555.19	2737.73
555.55	2729.40
555.90	2721.66
556.26	2714.96
556.61	2707.62
556.97	2698.09
557.32	2689.40
557.68	2681.22
558.03	2672.33
558.39	2664.13
558.74	2656.09
559.10	2646.82
559.45	2637.22
559.81	2627.96
560.16	2618.03
560.52	2607.61
560.87	2598.24
561.23	2588.48
561.58	2578.21
561.94	2567.67
562.29	2556.67
562.64	2546.28
563.00	2536.25
563.35	2526.09
563.71	2515.01
564.06	2503.38
564.42	2492.79
564.77	2481.83
565.12	2470.97
565.48	2459.86
565.83	2449.38
566.19	2438.93
566.54	2428.10
566.89	2416.39
567.25	2404.60
567.60	2393.68
567.96	2382.35
568.31	2369.57
568.66	2356.73
569.02	2344.96
569.37	2332.97
569.72	2321.49
570.08	2309.27
570.43	2296.52
570.78	2283.47
571.14	2270.21
571.49	2257.77
571.84	2245.62
572.20	2232.15
572.55	2219.06
572.90	2205.88
573.26	2191.80
573.61	2177.17
573.96	2162.80
574.31	2148.82
574.67	2135.04
575.02	2120.82
575.37	2106.17
575.72	2091.82
576.08	2078.07
576.43	2063.28
576.78	2048.54
577.13	2034.64
577.49	2020.78
577.84	2007.28
578.19	1992.94
578.54	1978.23
578.90	1963.01
579.25	1947.51
579.60	1933.46
579.95	1919.01
580.30	1904.62
580.66	1890.51
581.01	1876.00
581.36	1861.86
581.71	1848.25
582.06	1834.17
582.42	1820.15
582.77	1806.90
583.12	1793.30
583.47	1779.73
583.82	1766.29
584.17	1752.75
584.53	1739.01
584.88	1725.29
585.23	1711.25
585.58	1697.70
585.93	1684.61
586.28	1672.34
586.63	1659.89
586.98	1646.73
587.34	1633.82
587.69	1620.39
588.04	1607.18
588.39	1594.67
588.74	1581.70
589.09	1568.44
589.44	1555.16
589.79	1542.47
590.14	1529.60
590.49	1516.98
590.84	1504.21
591.19	1492.11
591.54	1479.46
591.89	1466.68
592.25	1454.26
592.60	1441.43
592.95	1429.16
593.30	1417.17
593.65	1404.96
594.00	1392.95
594.35	1381.76
594.70	1369.75
595.05	1358.82
595.40	1347.74
595.75	1336.05
596.10	1325.14
596.45	1314.45
596.80	1304.22
597.15	1293.76
597.50	1283.33
597.85	1273.06
598.19	1263.00
598.54	1252.34
598.89	1242.44
599.24	1232.86
599.59	1223.02
599.94	1214.20
600.29	1205.27
600.64	1196.11
600.99	1186.40
601.34	1177.13
601.69	1167.26
602.04	1158.47
602.39	1149.48
602.74	1140.75
603.08	1132.28
603.43	1123.30
603.78	1114.22
604.13	1105.30
604.48	1096.32
604.83	1087.60
605.18	1078.80
605.53	1069.92
605.87	1061.17
606.22	1052.68
606.57	1043.93
606.92	1035.28
607.27	1026.50
607.62	1017.81
607.96	1009.29
608.31	1001.75
608.66	993.79
609.01	986.27
609.36	978.70
609.70	970.90
610.05	962.94
610.40	955.31
610.75	947.81
611.10	940.60
611.44	932.98
611.79	925.66
612.14	917.99
612.49	910.44
612.83	903.37
613.18	896.37
613.53	889.17
613.88	882.04
614.22	875.51
614.57	868.80
614.92	862.07
615.27	855.39
615.61	848.55
615.96	841.96
616.31	835.28
616.65	828.48
617.00	821.94
617.35	815.53
617.70	809.17
618.04	802.86
618.39	796.57
618.74	790.62
619.08	784.48
619.43	778.60
619.78	772.75
620.12	766.71
620.47	760.84
620.82	755.04
621.16	749.56
621.51	743.74
621.85	737.91
622.20	732.12
622.55	726.53
622.89	720.87
623.24	715.26
623.59	709.73
623.93	704.24
624.28	698.89
624.62	693.54
624.97	688.17
625.32	682.90
625.66	677.50
626.01	672.11
626.35	666.84
626.70	661.60
627.04	656.55
627.39	651.56
627.73	646.69
628.08	642.03
628.43	637.25
628.77	632.53
629.12	627.95
629.46	623.55
629.81	618.95
630.15	614.25
630.50	609.70
630.84	605.35
631.19	601.18
631.53	597.05
631.88	592.81
632.22	588.67
632.57	584.76
632.91	580.81
633.26	576.94
633.60	573.15
633.95	569.45
634.29	565.61
634.64	561.74
634.98	557.76
635.32	553.96
635.67	550.28
636.01	546.56
636.36	542.86
636.70	539.32
637.05	535.77
637.39	532.42
637.73	528.95
638.08	525.53
638.42	522.08
638.77	518.50
639.11	514.94
639.45	511.40
639.80	507.84
640.14	504.48
640.49	501.07
640.83	497.57
641.17	494.11
641.52	490.81
641.86	487.50
642.20	484.36
642.55	481.07
642.89	477.86
643.23	474.85
643.58	472.06
643.92	469.16
644.26	466.28
644.61	463.40
644.95	460.52
645.29	457.60
645.64	454.64
645.98	451.82
646.32	449.17
646.66	446.52
647.01	443.85
647.35	441.22
647.69	438.49
648.04	435.90
648.38	433.35
648.72	430.76
649.06	428.25
649.41	425.76
649.75	423.26
650.09	420.79
650.43	418.32
650.78	415.84
651.12	413.35
651.46	410.96
651.80	408.66
652.14	406.43
652.49	404.22
652.83	402.06
653.17	399.89
653.51	397.77
653.85	395.73
654.20	393.64
654.54	391.46
654.88	389.47
655.22	387.53
655.56	385.56
655.90	383.68
656.25	381.81
656.59	379.94
656.93	378.18
657.27	376.44
657.61	374.62
657.95	372.85
658.29	371.09
658.64	369.36
658.98	367.61
659.32	365.89
659.66	364.26
660.00	362.66
660.34	361.08
660.68	359.45
661.02	357.76
661.36	356.17
661.70	354.66
662.05	353.12
662.39	351.57
662.73	350.12
663.07	348.69
663.41	347.27
663.75	345.89
664.09	344.51
664.43	343.05
664.77	341.68
665.11	340.25
665.45	338.91
665.79	337.56
666.13	336.20
666.47	334.83
666.81	333.43
667.15	332.00
667.49	330.68
667.83	329.40
668.17	328.17
668.51	326.96
668.85	325.76
669.19	324.63
669.53	323.44
669.87	322.21
670.21	321.03
670.55	319.85
670.89	318.75
671.23	317.61
671.57	316.49
671.91	315.43
672.25	314.42
672.58	313.41
672.92	312.36
673.26	311.38
673.60	310.41
673.94	309.43
674.28	308.51
674.62	307.57
674.96	306.60
675.30	305.69
675.64	304.75
675.97	303.83
676.31	302.88
676.65	301.96
676.99	301.09
677.33	300.16
677.67	299.29
678.01	298.33
678.34	297.46
678.68	296.64
679.02	295.79
679.36	294.94
679.70	294.09
680.04	293.28
680.37	292.46
680.71	291.67
681.05	290.93
681.39	290.14
681.73	289.33
682.06	288.55
682.40	287.77
682.74	287.04
683.08	286.32
683.42	285.58
683.75	284.91
684.09	284.17
684.43	283.47
684.77	282.76
685.10	282.11
685.44	281.42
685.78	280.73
686.12	280.08
686.45	279.42
686.79	278.76
687.13	278.12
687.46	277.46
687.80	276.82
688.14	276.14
688.48	275.51
688.81	274.89
689.15	274.32
689.49	273.70
689.82	273.10
690.16	272.44
690.50	271.85
690.83	271.26
691.17	270.68
691.51	270.12
691.84	269.58
692.18	269.01
692.52	268.42
692.85	267.86
693.19	267.33
693.52	266.79
693.86	266.25
694.20	265.72
694.53	265.22
694.87	264.70
695.21	264.21
695.54	263.72
695.88	263.21
696.21	262.67
696.55	262.19
696.88	261.70
697.22	261.23
697.56	260.76
697.89	260.24
698.23	259.75
698.56	259.24
698.90	258.78
699.23	258.31
699.57	257.87
699.90	257.43
700.24	256.96
700.58	256.54
700.91	256.13
701.25	255.80
701.58	255.43
701.92	255.05
702.25	254.65
702.59	254.24
702.92	253.85
703.26	253.47
703.59	253.08
703.93	252.78
704.26	252.42
704.60	252.05
704.93	251.70
705.26	251.35
705.60	251.04
705.93	250.67
706.27	250.37
706.60	250.06
706.94	249.75
707.27	249.39
707.61	249.04
707.94	248.69
708.27	248.27
708.61	247.90
708.94	247.56
709.28	247.23
709.61	246.92
709.94	246.63
710.28	246.34
710.61	246.07
710.95	245.69
711.28	245.47
711.61	245.19
711.95	244.94
712.28	244.66
712.61	244.37
712.95	244.17
713.28	243.95
713.61	243.67
713.95	243.39
714.28	243.16
714.61	242.91
714.95	242.67
715.28	242.42
715.61	242.18
715.95	241.96
716.28	241.72
716.61	241.51
716.95	241.28
717.28	241.06
717.61	240.83
717.94	240.62
718.28	240.33
718.61	240.11
718.94	239.88
719.27	239.68
719.61	239.49
719.94	239.26
720.27	239.01
720.60	238.80
720.94	238.61
721.27	238.43
721.60	238.26
721.93	238.08
722.27	237.93
722.60	237.77
722.93	237.58
723.26	237.42
723.59	237.22
723.93	237.06
724.26	236.90
724.59	236.73
724.92	236.58
725.25	236.45
725.59	236.29
725.92	236.16
726.25	236.01
726.58	235.86
726.91	235.70
727.24	235.57
727.57	235.42
727.91	235.26
728.24	235.13
728.57	234.98
728.90	234.85
729.23	234.68
729.56	234.59
729.89	234.45
730.22	234.31
730.55	234.18
730.89	234.04
731.22	233.90
731.55	233.77
731.88	233.64
732.21	233.49
732.54	233.37
732.87	233.25
733.20	233.13
733.53	233.02
733.86	232.91
734.19	232.78
734.52	232.69
734.85	232.65
735.18	232.51
735.51	232.44
735.84	232.33
736.17	232.25
736.50	232.09
736.83	232.11
737.16	232.02
737.49	231.93
737.82	231.83
738.15	231.75
738.48	231.66
738.81	231.55
739.14	231.45
739.47	231.34
739.80	231.25
740.13	231.16
740.46	231.05
740.79	230.94
741.12	230.85
741.45	230.74
741.78	230.60
742.11	230.55
742.44	230.43
742.77	230.36
743.10	230.25
743.43	230.16
743.75	229.97
744.08	230.04
744.41	229.95
744.74	229.86
745.07	229.76
745.40	229.70
745.73	229.67
746.06	229.60
746.39	229.54
746.71	229.45
747.04	229.37
747.37	229.29
747.70	229.24
748.03	229.17
748.36	229.12
748.68	229.05
749.01	228.95
749.34	228.88
749.67	228.81
750.00	228.75
750.33	228.77
750.65	228.71
750.98	228.49
751.31	228.44
751.64	228.38
751.97	228.37
752.29	228.29
752.62	228.18
752.95	228.11
753.28	228.03
753.60	227.96
753.93	227.92
754.26	227.87
754.59	227.77
754.91	227.70
755.24	227.62
755.57	227.61
755.90	227.55
756.22	227.48
756.55	227.40
756.88	227.32
757.20	227.19
757.53	227.11
757.86	227.04
758.19	227.00
758.51	226.94
758.84	226.84
759.17	226.77
759.49	226.73
759.82	226.73
760.15	226.69
760.47	226.64
760.80	226.56
761.13	226.53
761.45	226.49
761.78	226.45
762.11	226.41
762.43	226.31
762.76	226.27
763.08	226.24
763.41	226.20
763.74	226.16
764.06	226.11
764.39	226.08
764.71	226.03
765.04	225.98
765.37	225.93
765.69	225.89
766.02	225.85
766.34	225.80
766.67	225.72
767.00	225.70
767.32	225.72
767.65	225.75
767.97	225.70
768.30	225.67
768.62	225.63
768.95	225.57
769.27	225.53
769.60	225.51
769.92	225.46
770.25	225.40
770.57	225.35
770.90	225.32
771.22	225.27
771.55	225.24
771.87	225.22
772.20	225.19
772.52	225.24
772.85	225.33
773.17	225.30
773.50	225.26
773.82	225.22
774.15	225.13
774.47	225.03
774.80	224.99
775.12	224.96
775.45	224.93
775.77	224.91
776.09	224.90
776.42	224.87
776.74	224.88
777.07	224.85
777.39	224.83
777.72	224.80
778.04	224.78
778.36	224.75
778.69	224.73
779.01	224.71
779.33	224.60
779.66	224.45
779.98	224.42
780.31	224.41
780.63	224.43
780.95	224.43
781.28	224.41
781.60	224.38
781.92	224.36
782.25	224.34
782.57	224.32
782.89	224.28
783.22	224.26
783.54	224.21
783.86	224.20
784.19	224.18
784.51	224.19
784.83	224.16
785.16	224.14
785.48	224.12
785.80	224.10
786.12	224.09
786.45	224.08
786.77	224.07
787.09	224.04
787.42	223.98
787.74	223.97
788.06	223.96
788.38	223.94
788.71	223.92
789.03	223.90
789.35	223.90
789.67	223.88
789.99	223.87
790.32	223.84
790.64	223.84
790.96	223.92
791.28	223.87
791.61	223.85
791.93	223.85
792.25	223.82
792.57	223.88
792.89	223.85
793.21	223.84
793.54	223.82
793.86	223.80
794.18	223.79
794.50	223.76
794.82	223.75
795.14	223.75
795.47	223.75
795.79	223.74
796.11	223.70
796.43	223.68
796.75	223.67
797.07	223.67
797.39	223.65
797.71	223.55
798.04	223.55
798.36	223.54
798.68	223.53
799.00	223.53
799.32	223.46
799.64	223.47
799.96	223.45
800.28	223.46
800.60	223.45
800.92	223.44
801.24	223.43
801.56	223.42
801.89	223.40
802.21	223.39
802.53	223.37
802.85	223.38
803.17	223.43
803.49	223.40
803.81	223.38
804.13	223.36
804.45	223.34
804.77	223.34
805.09	223.33
805.41	223.31
805.73	223.28
806.05	223.24
806.37	223.22
806.69	223.21
807.01	223.19
807.33	223.19
807.65	223.14
807.97	223.18
808.28	223.16
808.60	223.15
808.92	223.13
809.24	223.19
809.56	223.16
809.88	223.11
810.20	223.11
810.52	223.13
810.84	223.11
811.16	223.09
811.48	223.08
811.80	223.11
812.12	223.10
812.43	223.12
812.75	223.12
813.07	223.11
813.39	223.11
813.71	223.09
814.03	223.08
814.35	223.08
814.67	223.03
814.98	223.02
815.30	223.01
815.62	222.99
815.94	222.92
816.26	222.93
816.58	222.91
816.89	222.91
817.21	222.88
817.53	222.88
817.85	222.88
