SpectraSuite Data File
++++++++++++++++++++++++++++++++++++
Date: Thu Oct 01 02:55:59 EDT 2015
User: lab3
Dark Spectrum Present: No
Reference Spectrum Present: No
Number of Sampled Component Spectra: 1
Spectrometers: USB2E7196
Integration Time (usec): 36000 (USB2E7196)
Spectra Averaged: 10000 (USB2E7196)
Boxcar Smoothing: 10 (USB2E7196)
Correct for Electrical Dark: No (USB2E7196)
Strobe/Lamp Enabled: No (USB2E7196)
Correct for Detector Non-linearity: No (USB2E7196)
Correct for Stray Light: No (USB2E7196)
Number of Pixels in Processed Spectrum: 2048
>>>>>Begin Processed Spectral Data<<<<<
339.09	0.00
339.48	209.62
339.86	211.11
340.24	212.45
340.63	213.87
341.01	216.90
341.39	216.60
341.78	217.91
342.16	219.13
342.54	219.57
342.93	208.23
343.31	218.76
343.69	219.29
344.07	219.76
344.46	220.19
344.84	220.57
345.22	220.81
345.60	221.06
345.99	221.26
346.37	221.39
346.75	221.50
347.13	221.58
347.52	221.65
347.90	221.73
348.28	221.76
348.66	221.82
349.05	221.82
349.43	221.88
349.81	221.93
350.19	221.99
350.57	222.06
350.96	222.14
351.34	222.23
351.72	222.32
352.10	222.43
352.48	222.50
352.87	222.56
353.25	222.62
353.63	222.69
354.01	222.75
354.39	222.83
354.77	222.90
355.15	223.01
355.54	223.06
355.92	223.10
356.30	223.17
356.68	223.31
357.06	223.39
357.44	223.44
357.82	223.50
358.20	223.60
358.58	223.67
358.97	223.74
359.35	223.82
359.73	223.90
360.11	223.95
360.49	224.01
360.87	224.06
361.25	224.12
361.63	224.20
362.01	224.25
362.39	224.28
362.77	224.33
363.15	224.35
363.53	224.39
363.91	224.42
364.29	224.45
364.67	224.37
365.05	224.39
365.43	224.42
365.81	224.45
366.19	224.47
366.57	224.52
366.95	224.52
367.33	224.49
367.71	224.49
368.09	224.51
368.47	224.50
368.85	224.49
369.23	224.50
369.61	224.45
369.99	224.46
370.37	224.46
370.75	224.51
371.13	224.48
371.51	224.44
371.89	224.42
372.27	224.39
372.65	224.37
373.03	224.33
373.41	224.29
373.78	224.23
374.16	224.14
374.54	224.06
374.92	224.01
375.30	223.97
375.68	223.90
376.06	223.85
376.44	223.80
376.82	223.75
377.19	223.71
377.57	223.65
377.95	223.57
378.33	223.51
378.71	223.37
379.09	223.32
379.47	223.28
379.84	223.22
380.22	223.16
380.60	223.09
380.98	223.03
381.36	222.98
381.73	222.92
382.11	222.89
382.49	222.84
382.87	222.78
383.25	222.74
383.62	222.81
384.00	222.74
384.38	222.70
384.76	222.68
385.13	222.67
385.51	222.63
385.89	222.58
386.27	222.53
386.64	222.51
387.02	222.46
387.40	222.42
387.78	222.39
388.15	222.37
388.53	222.33
388.91	222.30
389.29	222.27
389.66	222.26
390.04	222.22
390.42	222.22
390.79	222.20
391.17	222.18
391.55	222.05
391.92	222.04
392.30	222.04
392.68	222.00
393.05	221.98
393.43	221.97
393.81	221.98
394.18	221.96
394.56	221.96
394.94	221.99
395.31	221.99
395.69	222.03
396.06	222.05
396.44	222.07
396.82	222.08
397.19	222.16
397.57	222.17
397.95	222.21
398.32	222.20
398.70	222.24
399.07	222.30
399.45	222.33
399.82	222.38
400.20	222.41
400.58	222.46
400.95	222.48
401.33	222.55
401.70	222.69
402.08	222.78
402.45	222.85
402.83	222.96
403.20	223.06
403.58	223.14
403.95	223.26
404.33	223.40
404.71	223.53
405.08	223.70
405.46	223.85
405.83	224.01
406.21	224.18
406.58	224.37
406.96	224.56
407.33	224.77
407.70	225.01
408.08	225.34
408.45	225.63
408.83	225.94
409.20	226.22
409.58	226.48
409.95	226.83
410.33	227.20
410.70	227.55
411.08	227.97
411.45	228.41
411.82	228.86
412.20	229.36
412.57	229.97
412.95	230.44
413.32	231.07
413.69	231.70
414.07	232.38
414.44	233.11
414.82	233.86
415.19	234.74
415.56	235.63
415.94	236.56
416.31	237.60
416.68	238.64
417.06	239.85
417.43	240.98
417.81	242.28
418.18	243.62
418.55	245.07
418.93	246.58
419.30	248.16
419.67	249.84
420.04	251.57
420.42	253.38
420.79	255.46
421.16	257.57
421.54	259.71
421.91	261.94
422.28	264.27
422.66	266.78
423.03	269.17
423.40	271.68
423.77	274.37
424.15	277.12
424.52	279.98
424.89	283.08
425.26	286.16
425.64	289.02
426.01	292.23
426.38	295.51
426.75	298.90
427.13	302.36
427.50	305.98
427.87	309.74
428.24	313.54
428.61	317.17
428.99	321.07
429.36	325.37
429.73	329.48
430.10	333.57
430.47	337.75
430.85	342.04
431.22	346.60
431.59	351.30
431.96	355.88
432.33	360.94
432.70	365.74
433.08	371.42
433.45	376.78
433.82	382.04
434.19	387.93
434.56	393.71
434.93	399.28
435.30	404.79
435.68	411.00
436.05	417.07
436.42	423.14
436.79	428.68
437.16	434.65
437.53	441.05
437.90	447.44
438.27	453.68
438.64	460.47
439.01	466.62
439.38	472.24
439.75	477.66
440.13	483.85
440.50	489.76
440.87	494.42
441.24	499.54
441.61	505.21
441.98	509.38
442.35	514.32
442.72	519.41
443.09	524.28
443.46	527.45
443.83	529.82
444.20	531.84
444.57	534.77
444.94	536.55
445.31	538.39
445.68	540.05
446.05	541.33
446.42	541.29
446.79	541.14
447.16	541.04
447.53	540.99
447.90	539.28
448.27	537.68
448.64	535.08
449.01	533.41
449.37	529.62
449.74	526.18
450.11	521.73
450.48	516.80
450.85	511.84
451.22	507.64
451.59	503.53
451.96	499.79
452.33	494.26
452.70	489.33
453.07	483.31
453.43	477.27
453.80	471.41
454.17	465.79
454.54	460.58
454.91	454.67
455.28	449.10
455.65	443.85
456.02	438.25
456.38	433.74
456.75	427.90
457.12	423.20
457.49	418.45
457.86	413.90
458.23	409.93
458.59	405.53
458.96	401.01
459.33	397.01
459.70	392.94
460.07	389.83
460.43	386.18
460.80	382.76
461.17	379.74
461.54	376.49
461.91	373.44
462.27	370.34
462.64	367.80
463.01	364.91
463.38	361.98
463.74	359.34
464.11	356.98
464.48	354.84
464.85	352.56
465.21	350.82
465.58	348.89
465.95	346.66
466.32	344.87
466.68	343.13
467.05	341.39
467.42	339.71
467.78	337.89
468.15	336.21
468.52	334.96
468.88	333.32
469.25	331.82
469.62	330.63
469.98	329.35
470.35	328.20
470.72	327.16
471.08	326.11
471.45	325.23
471.82	324.27
472.18	323.27
472.55	322.62
472.92	321.82
473.28	321.19
473.65	320.55
474.02	319.94
474.38	319.43
474.75	319.16
475.11	318.74
475.48	318.58
475.85	318.41
476.21	318.37
476.58	318.38
476.94	318.56
477.31	318.68
477.67	318.84
478.04	319.10
478.41	319.44
478.77	319.90
479.14	320.24
479.50	320.80
479.87	321.48
480.23	322.18
480.60	322.85
480.96	323.55
481.33	324.51
481.69	325.47
482.06	326.42
482.42	327.32
482.79	328.39
483.15	329.63
483.52	331.01
483.88	332.35
484.25	333.77
484.61	335.26
484.98	336.85
485.34	338.64
485.71	340.48
486.07	342.46
486.44	344.42
486.80	346.60
487.17	348.84
487.53	351.29
487.90	353.84
488.26	356.61
488.62	359.52
488.99	362.44
489.35	365.49
489.72	368.78
490.08	372.25
490.44	375.81
490.81	379.52
491.17	383.33
491.54	387.40
491.90	391.58
492.26	396.07
492.63	400.79
492.99	405.72
493.36	410.77
493.72	416.08
494.08	421.53
494.45	427.29
494.81	433.27
495.17	439.35
495.54	445.79
495.90	452.54
496.26	459.42
496.63	466.54
496.99	473.94
497.35	481.71
497.72	489.78
498.08	498.01
498.44	506.51
498.80	515.54
499.17	524.81
499.53	534.42
499.89	544.26
500.26	554.26
500.62	564.53
500.98	575.48
501.34	586.58
501.71	598.21
502.07	610.06
502.43	622.29
502.79	634.90
503.16	647.89
503.52	661.09
503.88	674.65
504.24	688.64
504.60	702.93
504.97	717.60
505.33	732.64
505.69	748.58
506.05	764.71
506.41	780.87
506.78	797.33
507.14	814.27
507.50	831.81
507.86	849.73
508.22	867.91
508.59	886.12
508.95	905.05
509.31	924.39
509.67	944.43
510.03	964.72
510.39	985.19
510.75	1005.91
511.12	1026.92
511.48	1048.29
511.84	1069.71
512.20	1091.43
512.56	1114.24
512.92	1137.33
513.28	1160.14
513.64	1183.23
514.00	1206.72
514.37	1230.57
514.73	1254.40
515.09	1278.06
515.45	1302.17
515.81	1326.83
516.17	1351.57
516.53	1375.97
516.89	1400.44
517.25	1425.10
517.61	1449.93
517.97	1474.97
518.33	1499.73
518.69	1524.66
519.05	1549.83
519.41	1575.13
519.77	1600.70
520.13	1625.51
520.49	1650.44
520.85	1675.57
521.21	1700.68
521.57	1726.37
521.93	1751.34
522.29	1777.19
522.65	1802.75
523.01	1828.06
523.37	1852.69
523.73	1877.88
524.09	1903.25
524.45	1928.60
524.81	1953.46
525.17	1978.22
525.53	2002.55
525.89	2026.92
526.25	2051.47
526.61	2075.46
526.97	2099.78
527.33	2123.99
527.68	2148.08
528.04	2171.29
528.40	2194.38
528.76	2217.63
529.12	2239.84
529.48	2262.44
529.84	2283.15
530.20	2304.48
530.56	2325.50
530.91	2346.53
531.27	2367.09
531.63	2387.01
531.99	2406.36
532.35	2425.36
532.71	2444.44
533.07	2464.20
533.42	2482.33
533.78	2500.93
534.14	2519.46
534.50	2537.18
534.86	2555.52
535.21	2571.98
535.57	2588.49
535.93	2604.14
536.29	2618.65
536.65	2633.91
537.00	2648.05
537.36	2662.75
537.72	2676.31
538.08	2689.64
538.44	2701.83
538.79	2714.17
539.15	2724.90
539.51	2735.57
539.87	2745.90
540.22	2754.18
540.58	2762.41
540.94	2771.35
541.29	2778.61
541.65	2784.99
542.01	2790.81
542.37	2794.76
542.72	2800.56
543.08	2805.86
543.44	2811.12
543.79	2815.41
544.15	2819.00
544.51	2822.47
544.87	2825.08
545.22	2827.25
545.58	2828.39
545.94	2829.98
546.29	2830.18
546.65	2830.58
547.01	2830.89
547.36	2831.39
547.72	2832.02
548.07	2831.21
548.43	2829.72
548.79	2827.59
549.14	2825.56
549.50	2823.99
549.86	2821.79
550.21	2817.05
550.57	2812.75
550.92	2807.02
551.28	2801.96
551.64	2796.68
551.99	2791.91
552.35	2786.71
552.70	2781.09
553.06	2776.20
553.41	2770.86
553.77	2764.96
554.13	2759.59
554.48	2753.51
554.84	2745.67
555.19	2737.95
555.55	2729.67
555.90	2721.92
556.26	2715.26
556.61	2707.92
556.97	2698.51
557.32	2689.80
557.68	2681.69
558.03	2672.82
558.39	2664.64
558.74	2656.70
559.10	2647.47
559.45	2637.96
559.81	2628.73
560.16	2618.91
560.52	2608.53
560.87	2599.13
561.23	2589.44
561.58	2579.26
561.94	2568.76
562.29	2557.82
562.64	2547.47
563.00	2537.48
563.35	2527.39
563.71	2516.39
564.06	2504.80
564.42	2494.28
564.77	2483.38
565.12	2472.58
565.48	2461.52
565.83	2451.11
566.19	2440.67
566.54	2429.99
566.89	2418.25
567.25	2406.51
567.60	2395.60
567.96	2384.32
568.31	2371.66
568.66	2358.81
569.02	2347.04
569.37	2335.09
569.72	2323.64
570.08	2311.46
570.43	2298.73
570.78	2285.76
571.14	2272.52
571.49	2260.11
571.84	2247.98
572.20	2234.54
572.55	2221.48
572.90	2208.32
573.26	2194.35
573.61	2179.79
573.96	2165.39
574.31	2151.43
574.67	2137.70
575.02	2123.51
575.37	2108.93
575.72	2094.61
576.08	2080.94
576.43	2066.23
576.78	2051.49
577.13	2037.61
577.49	2023.83
577.84	2010.40
578.19	1996.10
578.54	1981.41
578.90	1966.23
579.25	1950.77
579.60	1936.73
579.95	1922.34
580.30	1907.97
580.66	1893.84
581.01	1879.34
581.36	1865.21
581.71	1851.64
582.06	1837.59
582.42	1823.55
582.77	1810.30
583.12	1796.77
583.47	1783.18
583.82	1769.73
584.17	1756.19
584.53	1742.46
584.88	1728.70
585.23	1714.66
585.58	1701.12
585.93	1688.04
586.28	1675.76
586.63	1663.33
586.98	1650.17
587.34	1637.26
587.69	1623.82
588.04	1610.58
588.39	1598.07
588.74	1585.10
589.09	1571.84
589.44	1558.52
589.79	1545.82
590.14	1532.94
590.49	1520.24
590.84	1507.47
591.19	1495.36
591.54	1482.73
591.89	1469.96
592.25	1457.57
592.60	1444.71
592.95	1432.43
593.30	1420.41
593.65	1408.19
594.00	1396.13
594.35	1384.96
594.70	1372.90
595.05	1361.96
595.40	1350.91
595.75	1339.19
596.10	1328.25
596.45	1317.51
596.80	1307.27
597.15	1296.79
597.50	1286.35
597.85	1276.08
598.19	1266.00
598.54	1255.31
598.89	1245.36
599.24	1235.76
599.59	1225.86
599.94	1217.01
600.29	1208.05
600.64	1198.87
600.99	1189.14
601.34	1179.88
601.69	1169.97
602.04	1161.18
602.39	1152.17
602.74	1143.41
603.08	1134.93
603.43	1125.95
603.78	1116.85
604.13	1107.92
604.48	1098.90
604.83	1090.16
605.18	1081.31
605.53	1072.42
605.87	1063.66
606.22	1055.17
606.57	1046.41
606.92	1037.72
607.27	1028.94
607.62	1020.21
607.96	1011.68
608.31	1004.08
608.66	996.08
609.01	988.52
609.36	980.92
609.70	973.11
610.05	965.11
610.40	957.47
610.75	949.97
611.10	942.75
611.44	935.11
611.79	927.81
612.14	920.12
612.49	912.55
612.83	905.47
613.18	898.45
613.53	891.23
613.88	884.08
614.22	877.53
614.57	870.81
614.92	864.08
615.27	857.39
615.61	850.56
615.96	843.97
616.31	837.27
616.65	830.47
617.00	823.92
617.35	817.50
617.70	811.11
618.04	804.78
618.39	798.48
618.74	792.51
619.08	786.34
619.43	780.45
619.78	774.61
620.12	768.55
620.47	762.66
620.82	756.82
621.16	751.32
621.51	745.48
621.85	739.63
622.20	733.82
622.55	728.19
622.89	722.53
623.24	716.88
623.59	711.33
623.93	705.82
624.28	700.45
624.62	695.07
624.97	689.67
625.32	684.40
625.66	678.98
626.01	673.57
626.35	668.30
626.70	663.05
627.04	657.97
627.39	652.96
627.73	648.06
628.08	643.39
628.43	638.62
628.77	633.90
629.12	629.29
629.46	624.88
629.81	620.31
630.15	615.59
630.50	611.03
630.84	606.64
631.19	602.46
631.53	598.33
631.88	594.07
632.22	589.91
632.57	585.99
632.91	582.03
633.26	578.15
633.60	574.35
633.95	570.63
634.29	566.79
634.64	562.90
634.98	558.91
635.32	555.09
635.67	551.40
636.01	547.66
636.36	543.96
636.70	540.39
637.05	536.81
637.39	533.44
637.73	529.96
638.08	526.53
638.42	523.08
638.77	519.47
639.11	515.90
639.45	512.34
639.80	508.76
640.14	505.38
640.49	501.96
640.83	498.44
641.17	494.95
641.52	491.64
641.86	488.33
642.20	485.17
642.55	481.87
642.89	478.63
643.23	475.61
643.58	472.82
643.92	469.90
644.26	467.03
644.61	464.13
644.95	461.25
645.29	458.31
645.64	455.34
645.98	452.51
646.32	449.84
646.66	447.18
647.01	444.51
647.35	441.87
647.69	439.13
648.04	436.52
648.38	433.95
648.72	431.34
649.06	428.80
649.41	426.30
649.75	423.79
650.09	421.31
650.43	418.83
650.78	416.33
651.12	413.82
651.46	411.41
651.80	409.09
652.14	406.86
652.49	404.63
652.83	402.46
653.17	400.28
653.51	398.16
653.85	396.10
654.20	394.00
654.54	391.80
654.88	389.80
655.22	387.86
655.56	385.89
655.90	384.01
656.25	382.13
656.59	380.26
656.93	378.48
657.27	376.74
657.61	374.92
657.95	373.14
658.29	371.37
658.64	369.64
658.98	367.88
659.32	366.15
659.66	364.52
660.00	362.90
660.34	361.32
660.68	359.68
661.02	357.99
661.36	356.39
661.70	354.87
662.05	353.33
662.39	351.78
662.73	350.32
663.07	348.87
663.41	347.45
663.75	346.06
664.09	344.67
664.43	343.20
664.77	341.82
665.11	340.39
665.45	339.03
665.79	337.67
666.13	336.31
666.47	334.93
666.81	333.52
667.15	332.09
667.49	330.75
667.83	329.46
668.17	328.22
668.51	326.99
668.85	325.79
669.19	324.64
669.53	323.44
669.87	322.21
670.21	321.01
670.55	319.83
670.89	318.71
671.23	317.57
671.57	316.44
671.91	315.36
672.25	314.36
672.58	313.34
672.92	312.29
673.26	311.30
673.60	310.32
673.94	309.34
674.28	308.41
674.62	307.47
674.96	306.51
675.30	305.59
675.64	304.66
675.97	303.74
676.31	302.78
676.65	301.84
676.99	300.98
677.33	300.05
677.67	299.18
678.01	298.22
678.34	297.34
678.68	296.52
679.02	295.66
679.36	294.81
679.70	293.96
680.04	293.15
680.37	292.32
680.71	291.53
681.05	290.79
681.39	290.00
681.73	289.19
682.06	288.40
682.40	287.62
682.74	286.88
683.08	286.15
683.42	285.41
683.75	284.74
684.09	283.99
684.43	283.30
684.77	282.58
685.10	281.92
685.44	281.24
685.78	280.55
686.12	279.90
686.45	279.23
686.79	278.57
687.13	277.93
687.46	277.26
687.80	276.61
688.14	275.92
688.48	275.29
688.81	274.66
689.15	274.09
689.49	273.47
689.82	272.87
690.16	272.22
690.50	271.62
690.83	271.03
691.17	270.45
691.51	269.88
691.84	269.34
692.18	268.76
692.52	268.17
692.85	267.61
693.19	267.08
693.52	266.54
693.86	266.00
694.20	265.47
694.53	264.96
694.87	264.44
695.21	263.94
695.54	263.45
695.88	262.94
696.21	262.40
696.55	261.90
696.88	261.41
697.22	260.93
697.56	260.47
697.89	259.93
698.23	259.44
698.56	258.94
698.90	258.47
699.23	258.00
699.57	257.56
699.90	257.12
700.24	256.64
700.58	256.20
700.91	255.80
701.25	255.47
701.58	255.10
701.92	254.72
702.25	254.32
702.59	253.91
702.92	253.52
703.26	253.13
703.59	252.75
703.93	252.45
704.26	252.09
704.60	251.71
704.93	251.36
705.26	251.00
705.60	250.69
705.93	250.32
706.27	250.01
706.60	249.69
706.94	249.38
707.27	249.02
707.61	248.67
707.94	248.31
708.27	247.88
708.61	247.51
708.94	247.16
709.28	246.83
709.61	246.52
709.94	246.22
710.28	245.92
710.61	245.64
710.95	245.27
711.28	245.04
711.61	244.76
711.95	244.51
712.28	244.22
712.61	243.93
712.95	243.72
713.28	243.50
713.61	243.22
713.95	242.94
714.28	242.71
714.61	242.45
714.95	242.21
715.28	241.96
715.61	241.72
715.95	241.49
716.28	241.26
716.61	241.05
716.95	240.81
717.28	240.59
717.61	240.36
717.94	240.14
718.28	239.85
718.61	239.63
718.94	239.40
719.27	239.19
719.61	239.00
719.94	238.77
720.27	238.51
720.60	238.32
720.94	238.12
721.27	237.94
721.60	237.77
721.93	237.59
722.27	237.44
722.60	237.28
722.93	237.09
723.26	236.92
723.59	236.73
723.93	236.57
724.26	236.41
724.59	236.25
724.92	236.10
725.25	235.97
725.59	235.81
725.92	235.68
726.25	235.54
726.58	235.38
726.91	235.23
727.24	235.09
727.57	234.94
727.91	234.78
728.24	234.65
728.57	234.50
728.90	234.38
729.23	234.20
729.56	234.11
729.89	233.97
730.22	233.83
730.55	233.70
730.89	233.56
731.22	233.42
731.55	233.29
731.88	233.16
732.21	233.01
732.54	232.88
732.87	232.76
733.20	232.65
733.53	232.54
733.86	232.43
734.19	232.31
734.52	232.21
734.85	232.18
735.18	232.05
735.51	231.97
735.84	231.86
736.17	231.78
736.50	231.62
736.83	231.65
737.16	231.55
737.49	231.46
737.82	231.36
738.15	231.28
738.48	231.18
738.81	231.08
739.14	230.98
739.47	230.88
739.80	230.77
740.13	230.68
740.46	230.57
740.79	230.46
741.12	230.37
741.45	230.26
741.78	230.11
742.11	230.05
742.44	229.94
742.77	229.86
743.10	229.76
743.43	229.67
743.75	229.47
744.08	229.55
744.41	229.45
744.74	229.36
745.07	229.25
745.40	229.19
745.73	229.16
746.06	229.09
746.39	229.03
746.71	228.94
747.04	228.86
747.37	228.79
747.70	228.73
748.03	228.66
748.36	228.61
748.68	228.54
749.01	228.44
749.34	228.37
749.67	228.30
750.00	228.25
750.33	228.26
750.65	228.20
750.98	227.98
751.31	227.92
751.64	227.87
751.97	227.86
752.29	227.78
752.62	227.67
752.95	227.59
753.28	227.51
753.60	227.45
753.93	227.41
754.26	227.36
754.59	227.26
754.91	227.18
755.24	227.10
755.57	227.09
755.90	227.03
756.22	226.96
756.55	226.88
756.88	226.80
757.20	226.67
757.53	226.58
757.86	226.53
758.19	226.48
758.51	226.42
758.84	226.31
759.17	226.25
759.49	226.20
759.82	226.21
760.15	226.17
760.47	226.11
760.80	226.03
761.13	226.00
761.45	225.96
761.78	225.91
762.11	225.87
762.43	225.77
762.76	225.73
763.08	225.70
763.41	225.66
763.74	225.62
764.06	225.57
764.39	225.54
764.71	225.49
765.04	225.43
765.37	225.38
765.69	225.34
766.02	225.30
766.34	225.25
766.67	225.17
767.00	225.15
767.32	225.16
767.65	225.19
767.97	225.14
768.30	225.11
768.62	225.07
768.95	225.03
769.27	224.99
769.60	224.97
769.92	224.91
770.25	224.86
770.57	224.81
770.90	224.77
771.22	224.73
771.55	224.69
771.87	224.67
772.20	224.64
772.52	224.70
772.85	224.79
773.17	224.77
773.50	224.73
773.82	224.68
774.15	224.60
774.47	224.50
774.80	224.46
775.12	224.43
775.45	224.40
775.77	224.38
776.09	224.36
776.42	224.33
776.74	224.34
777.07	224.31
777.39	224.28
777.72	224.26
778.04	224.25
778.36	224.21
778.69	224.19
779.01	224.17
779.33	224.06
779.66	223.92
779.98	223.89
780.31	223.87
780.63	223.89
780.95	223.89
781.28	223.87
781.60	223.84
781.92	223.82
782.25	223.80
782.57	223.78
782.89	223.75
783.22	223.73
783.54	223.68
783.86	223.67
784.19	223.65
784.51	223.66
784.83	223.63
785.16	223.61
785.48	223.59
785.80	223.57
786.12	223.56
786.45	223.54
786.77	223.54
787.09	223.51
787.42	223.46
787.74	223.44
788.06	223.43
788.38	223.41
788.71	223.39
789.03	223.37
789.35	223.37
789.67	223.34
789.99	223.33
790.32	223.30
790.64	223.30
790.96	223.38
791.28	223.33
791.61	223.31
791.93	223.30
792.25	223.28
792.57	223.34
792.89	223.31
793.21	223.30
793.54	223.27
793.86	223.25
794.18	223.24
794.50	223.21
794.82	223.20
795.14	223.20
795.47	223.21
795.79	223.20
796.11	223.17
796.43	223.16
796.75	223.14
797.07	223.14
797.39	223.12
797.71	223.02
798.04	223.02
798.36	223.02
798.68	223.00
799.00	223.00
799.32	222.93
799.64	222.94
799.96	222.93
800.28	222.94
800.60	222.93
800.92	222.92
801.24	222.90
801.56	222.90
801.89	222.87
802.21	222.87
802.53	222.84
802.85	222.85
803.17	222.89
803.49	222.86
803.81	222.85
804.13	222.83
804.45	222.80
804.77	222.80
805.09	222.79
805.41	222.77
805.73	222.74
806.05	222.70
806.37	222.68
806.69	222.67
807.01	222.65
807.33	222.65
807.65	222.60
807.97	222.64
808.28	222.62
808.60	222.61
808.92	222.58
809.24	222.63
809.56	222.61
809.88	222.57
810.20	222.56
810.52	222.58
810.84	222.56
811.16	222.54
811.48	222.53
811.80	222.55
812.12	222.54
812.43	222.56
812.75	222.56
813.07	222.54
813.39	222.54
813.71	222.52
814.03	222.51
814.35	222.51
814.67	222.46
814.98	222.44
815.30	222.44
815.62	222.42
815.94	222.34
816.26	222.35
816.58	222.32
816.89	222.33
817.21	222.29
817.53	222.29
817.85	222.29
