SpectraSuite Data File
++++++++++++++++++++++++++++++++++++
Date: Thu Oct 01 07:14:01 EDT 2015
User: lab3
Dark Spectrum Present: No
Reference Spectrum Present: No
Number of Sampled Component Spectra: 1
Spectrometers: USB2E7196
Integration Time (usec): 36000 (USB2E7196)
Spectra Averaged: 10000 (USB2E7196)
Boxcar Smoothing: 10 (USB2E7196)
Correct for Electrical Dark: No (USB2E7196)
Strobe/Lamp Enabled: No (USB2E7196)
Correct for Detector Non-linearity: No (USB2E7196)
Correct for Stray Light: No (USB2E7196)
Number of Pixels in Processed Spectrum: 2048
>>>>>Begin Processed Spectral Data<<<<<
339.09	0.00
339.48	210.16
339.86	211.64
340.24	213.00
340.63	214.46
341.01	217.36
341.39	217.12
341.78	218.43
342.16	219.69
342.54	220.15
342.93	208.75
343.31	219.30
343.69	219.84
344.07	220.30
344.46	220.73
344.84	221.12
345.22	221.36
345.60	221.61
345.99	221.81
346.37	221.95
346.75	222.06
347.13	222.14
347.52	222.20
347.90	222.29
348.28	222.32
348.66	222.38
349.05	222.38
349.43	222.43
349.81	222.48
350.19	222.54
350.57	222.60
350.96	222.68
351.34	222.78
351.72	222.87
352.10	222.98
352.48	223.05
352.87	223.11
353.25	223.17
353.63	223.23
354.01	223.29
354.39	223.37
354.77	223.44
355.15	223.55
355.54	223.60
355.92	223.63
356.30	223.71
356.68	223.85
357.06	223.92
357.44	223.97
357.82	224.04
358.20	224.15
358.58	224.21
358.97	224.28
359.35	224.36
359.73	224.44
360.11	224.49
360.49	224.56
360.87	224.60
361.25	224.67
361.63	224.75
362.01	224.81
362.39	224.84
362.77	224.88
363.15	224.91
363.53	224.94
363.91	224.98
364.29	225.00
364.67	224.93
365.05	224.95
365.43	224.99
365.81	225.02
366.19	225.03
366.57	225.09
366.95	225.08
367.33	225.06
367.71	225.05
368.09	225.07
368.47	225.06
368.85	225.05
369.23	225.06
369.61	225.00
369.99	225.02
370.37	225.01
370.75	225.07
371.13	225.04
371.51	225.00
371.89	224.98
372.27	224.95
372.65	224.92
373.03	224.88
373.41	224.83
373.78	224.78
374.16	224.69
374.54	224.61
374.92	224.56
375.30	224.52
375.68	224.46
376.06	224.41
376.44	224.36
376.82	224.31
377.19	224.27
377.57	224.21
377.95	224.13
378.33	224.06
378.71	223.92
379.09	223.87
379.47	223.84
379.84	223.77
380.22	223.71
380.60	223.64
380.98	223.59
381.36	223.53
381.73	223.47
382.11	223.44
382.49	223.40
382.87	223.34
383.25	223.29
383.62	223.36
384.00	223.30
384.38	223.25
384.76	223.23
385.13	223.22
385.51	223.18
385.89	223.12
386.27	223.09
386.64	223.07
387.02	223.01
387.40	222.97
387.78	222.94
388.15	222.91
388.53	222.88
388.91	222.85
389.29	222.82
389.66	222.81
390.04	222.78
390.42	222.77
390.79	222.75
391.17	222.73
391.55	222.60
391.92	222.59
392.30	222.59
392.68	222.56
393.05	222.53
393.43	222.53
393.81	222.54
394.18	222.52
394.56	222.52
394.94	222.55
395.31	222.55
395.69	222.59
396.06	222.62
396.44	222.64
396.82	222.65
397.19	222.72
397.57	222.73
397.95	222.77
398.32	222.76
398.70	222.81
399.07	222.87
399.45	222.91
399.82	222.95
400.20	222.98
400.58	223.03
400.95	223.05
401.33	223.13
401.70	223.26
402.08	223.35
402.45	223.43
402.83	223.53
403.20	223.63
403.58	223.72
403.95	223.84
404.33	223.97
404.71	224.10
405.08	224.29
405.46	224.43
405.83	224.60
406.21	224.77
406.58	224.96
406.96	225.15
407.33	225.37
407.70	225.62
408.08	225.95
408.45	226.23
408.83	226.55
409.20	226.83
409.58	227.09
409.95	227.44
410.33	227.82
410.70	228.18
411.08	228.61
411.45	229.05
411.82	229.51
412.20	230.02
412.57	230.64
412.95	231.12
413.32	231.75
413.69	232.40
414.07	233.09
414.44	233.84
414.82	234.60
415.19	235.49
415.56	236.40
415.94	237.34
416.31	238.40
416.68	239.47
417.06	240.70
417.43	241.85
417.81	243.18
418.18	244.54
418.55	246.02
418.93	247.56
419.30	249.17
419.67	250.88
420.04	252.65
420.42	254.49
420.79	256.61
421.16	258.76
421.54	260.93
421.91	263.21
422.28	265.58
422.66	268.14
423.03	270.56
423.40	273.11
423.77	275.85
424.15	278.65
424.52	281.56
424.89	284.71
425.26	287.85
425.64	290.75
426.01	294.02
426.38	297.36
426.75	300.80
427.13	304.33
427.50	308.00
427.87	311.82
428.24	315.68
428.61	319.38
428.99	323.35
429.36	327.71
429.73	331.88
430.10	336.04
430.47	340.27
430.85	344.63
431.22	349.28
431.59	354.04
431.96	358.68
432.33	363.82
432.70	368.69
433.08	374.45
433.45	379.90
433.82	385.24
434.19	391.23
434.56	397.10
434.93	402.76
435.30	408.36
435.68	414.67
436.05	420.84
436.42	427.01
436.79	432.62
437.16	438.69
437.53	445.21
437.90	451.71
438.27	458.06
438.64	464.96
439.01	471.21
439.38	476.92
439.75	482.44
440.13	488.75
440.50	494.77
440.87	499.52
441.24	504.74
441.61	510.51
441.98	514.75
442.35	519.79
442.72	524.97
443.09	529.94
443.46	533.18
443.83	535.59
444.20	537.66
444.57	540.65
444.94	542.48
445.31	544.35
445.68	546.05
446.05	547.36
446.42	547.33
446.79	547.19
447.16	547.09
447.53	547.04
447.90	545.31
448.27	543.68
448.64	541.03
449.01	539.32
449.37	535.46
449.74	531.95
450.11	527.42
450.48	522.41
450.85	517.36
451.22	513.07
451.59	508.88
451.96	505.06
452.33	499.42
452.70	494.39
453.07	488.26
453.43	482.10
453.80	476.13
454.17	470.40
454.54	465.08
454.91	459.06
455.28	453.38
455.65	448.03
456.02	442.31
456.38	437.71
456.75	431.77
457.12	426.97
457.49	422.13
457.86	417.50
458.23	413.45
458.59	408.96
458.96	404.34
459.33	400.27
459.70	396.12
460.07	392.96
460.43	389.24
460.80	385.75
461.17	382.68
461.54	379.36
461.91	376.26
462.27	373.10
462.64	370.52
463.01	367.57
463.38	364.59
463.74	361.91
464.11	359.51
464.48	357.34
464.85	355.02
465.21	353.24
465.58	351.27
465.95	349.01
466.32	347.20
466.68	345.43
467.05	343.66
467.42	341.95
467.78	340.11
468.15	338.40
468.52	337.13
468.88	335.48
469.25	333.96
469.62	332.76
469.98	331.45
470.35	330.28
470.72	329.24
471.08	328.18
471.45	327.29
471.82	326.33
472.18	325.32
472.55	324.66
472.92	323.86
473.28	323.23
473.65	322.58
474.02	321.96
474.38	321.46
474.75	321.18
475.11	320.76
475.48	320.61
475.85	320.46
476.21	320.41
476.58	320.42
476.94	320.61
477.31	320.74
477.67	320.91
478.04	321.18
478.41	321.52
478.77	321.99
479.14	322.33
479.50	322.90
479.87	323.61
480.23	324.31
480.60	324.99
480.96	325.70
481.33	326.68
481.69	327.66
482.06	328.62
482.42	329.53
482.79	330.62
483.15	331.87
483.52	333.27
483.88	334.63
484.25	336.07
484.61	337.56
484.98	339.18
485.34	340.98
485.71	342.86
486.07	344.86
486.44	346.85
486.80	349.06
487.17	351.31
487.53	353.79
487.90	356.38
488.26	359.17
488.62	362.12
488.99	365.08
489.35	368.16
489.72	371.49
490.08	374.99
490.44	378.60
490.81	382.36
491.17	386.23
491.54	390.34
491.90	394.56
492.26	399.10
492.63	403.90
492.99	408.87
493.36	413.97
493.72	419.34
494.08	424.86
494.45	430.68
494.81	436.72
495.17	442.88
495.54	449.39
495.90	456.21
496.26	463.17
496.63	470.38
496.99	477.87
497.35	485.73
497.72	493.90
498.08	502.21
498.44	510.80
498.80	519.94
499.17	529.30
499.53	539.02
499.89	548.96
500.26	559.07
500.62	569.46
500.98	580.52
501.34	591.75
501.71	603.52
502.07	615.51
502.43	627.89
502.79	640.63
503.16	653.77
503.52	667.10
503.88	680.81
504.24	694.93
504.60	709.36
504.97	724.17
505.33	739.36
505.69	755.48
506.05	771.79
506.41	788.11
506.78	804.75
507.14	821.85
507.50	839.57
507.86	857.66
508.22	876.05
508.59	894.46
508.95	913.56
509.31	933.11
509.67	953.35
510.03	973.82
510.39	994.50
510.75	1015.44
511.12	1036.66
511.48	1058.22
511.84	1079.85
512.20	1101.79
512.56	1124.82
512.92	1148.09
513.28	1171.06
513.64	1194.34
514.00	1218.04
514.37	1242.08
514.73	1266.12
515.09	1289.95
515.45	1314.24
515.81	1339.08
516.17	1363.98
516.53	1388.57
516.89	1413.19
517.25	1438.02
517.61	1463.03
517.97	1488.22
518.33	1513.11
518.69	1538.17
519.05	1563.46
519.41	1588.91
519.77	1614.62
520.13	1639.53
520.49	1664.60
520.85	1689.87
521.21	1715.07
521.57	1740.86
521.93	1765.92
522.29	1791.83
522.65	1817.45
523.01	1842.84
523.37	1867.49
523.73	1892.77
524.09	1918.20
524.45	1943.58
524.81	1968.45
525.17	1993.25
525.53	2017.60
525.89	2041.96
526.25	2066.51
526.61	2090.53
526.97	2114.83
527.33	2139.05
527.68	2163.13
528.04	2186.33
528.40	2209.40
528.76	2232.64
529.12	2254.81
529.48	2277.33
529.84	2298.01
530.20	2319.30
530.56	2340.22
530.91	2361.18
531.27	2381.64
531.63	2401.46
531.99	2420.72
532.35	2439.61
532.71	2458.60
533.07	2478.21
533.42	2496.26
533.78	2514.73
534.14	2533.16
534.50	2550.75
534.86	2568.96
535.21	2585.26
535.57	2601.55
535.93	2617.06
536.29	2631.40
536.65	2646.56
537.00	2660.58
537.36	2675.13
537.72	2688.59
538.08	2701.75
538.44	2713.75
538.79	2725.93
539.15	2736.47
539.51	2746.98
539.87	2757.15
540.22	2765.20
540.58	2773.27
540.94	2781.96
541.29	2789.05
541.65	2795.19
542.01	2800.83
542.37	2804.59
542.72	2810.26
543.08	2815.44
543.44	2820.47
543.79	2824.63
544.15	2827.94
544.51	2831.20
544.87	2833.59
545.22	2835.57
545.58	2836.59
545.94	2838.07
546.29	2838.08
546.65	2838.23
547.01	2838.39
547.36	2838.67
547.72	2839.11
548.07	2838.09
548.43	2836.40
548.79	2834.08
549.14	2831.81
549.50	2830.14
549.86	2827.67
550.21	2822.74
550.57	2818.20
550.92	2812.31
551.28	2807.01
551.64	2801.63
551.99	2796.66
552.35	2791.27
552.70	2785.45
553.06	2780.34
553.41	2774.78
553.77	2768.70
554.13	2763.23
554.48	2756.91
554.84	2748.93
555.19	2741.07
555.55	2732.66
555.90	2724.82
556.26	2718.04
556.61	2710.59
556.97	2700.93
557.32	2692.13
557.68	2683.82
558.03	2674.84
558.39	2666.54
558.74	2658.40
559.10	2649.00
559.45	2639.29
559.81	2629.92
560.16	2619.89
560.52	2609.39
560.87	2599.89
561.23	2590.02
561.58	2579.64
561.94	2568.99
562.29	2557.86
562.64	2547.38
563.00	2537.27
563.35	2527.01
563.71	2515.84
564.06	2504.09
564.42	2493.43
564.77	2482.37
565.12	2471.43
565.48	2460.22
565.83	2449.64
566.19	2439.09
566.54	2428.20
566.89	2416.40
567.25	2404.54
567.60	2393.51
567.96	2382.10
568.31	2369.26
568.66	2356.32
569.02	2344.47
569.37	2332.38
569.72	2320.81
570.08	2308.50
570.43	2295.65
570.78	2282.52
571.14	2269.17
571.49	2256.67
571.84	2244.42
572.20	2230.86
572.55	2217.71
572.90	2204.48
573.26	2190.34
573.61	2175.65
573.96	2161.19
574.31	2147.14
574.67	2133.29
575.02	2119.03
575.37	2104.31
575.72	2089.87
576.08	2076.06
576.43	2061.21
576.78	2046.44
577.13	2032.52
577.49	2018.59
577.84	2005.04
578.19	1990.65
578.54	1975.89
578.90	1960.62
579.25	1945.08
579.60	1930.97
579.95	1916.47
580.30	1902.00
580.66	1887.86
581.01	1873.30
581.36	1859.10
581.71	1845.46
582.06	1831.34
582.42	1817.26
582.77	1803.97
583.12	1790.34
583.47	1776.75
583.82	1763.27
584.17	1749.70
584.53	1735.92
584.88	1722.16
585.23	1708.07
585.58	1694.49
585.93	1681.38
586.28	1669.09
586.63	1656.61
586.98	1643.44
587.34	1630.50
587.69	1617.06
588.04	1603.83
588.39	1591.30
588.74	1578.33
589.09	1565.06
589.44	1551.76
589.79	1539.03
590.14	1526.17
590.49	1513.54
590.84	1500.76
591.19	1488.63
591.54	1475.99
591.89	1463.21
592.25	1450.80
592.60	1437.98
592.95	1425.71
593.30	1413.71
593.65	1401.51
594.00	1389.51
594.35	1378.31
594.70	1366.30
595.05	1355.37
595.40	1344.28
595.75	1332.59
596.10	1321.68
596.45	1310.98
596.80	1300.75
597.15	1290.32
597.50	1279.89
597.85	1269.63
598.19	1259.59
598.54	1248.95
598.89	1239.04
599.24	1229.48
599.59	1219.64
599.94	1210.84
600.29	1201.91
600.64	1192.76
600.99	1183.04
601.34	1173.79
601.69	1163.95
602.04	1155.17
602.39	1146.20
602.74	1137.49
603.08	1129.03
603.43	1120.06
603.78	1111.01
604.13	1102.10
604.48	1093.13
604.83	1084.42
605.18	1075.61
605.53	1066.73
605.87	1058.00
606.22	1049.54
606.57	1040.79
606.92	1032.14
607.27	1023.38
607.62	1014.71
607.96	1006.20
608.31	998.68
608.66	990.73
609.01	983.21
609.36	975.64
609.70	967.85
610.05	959.89
610.40	952.28
610.75	944.81
611.10	937.60
611.44	930.00
611.79	922.70
612.14	915.03
612.49	907.51
612.83	900.46
613.18	893.47
613.53	886.28
613.88	879.17
614.22	872.64
614.57	865.94
614.92	859.23
615.27	852.56
615.61	845.74
615.96	839.15
616.31	832.49
616.65	825.72
617.00	819.21
617.35	812.84
617.70	806.48
618.04	800.18
618.39	793.90
618.74	787.96
619.08	781.84
619.43	775.99
619.78	770.17
620.12	764.13
620.47	758.27
620.82	752.49
621.16	747.03
621.51	741.23
621.85	735.42
622.20	729.64
622.55	724.04
622.89	718.41
623.24	712.81
623.59	707.28
623.93	701.80
624.28	696.46
624.62	691.12
624.97	685.76
625.32	680.52
625.66	675.14
626.01	669.76
626.35	664.51
626.70	659.29
627.04	654.26
627.39	649.28
627.73	644.43
628.08	639.78
628.43	635.01
628.77	630.31
629.12	625.75
629.46	621.36
629.81	616.81
630.15	612.12
630.50	607.60
630.84	603.26
631.19	599.10
631.53	594.99
631.88	590.76
632.22	586.63
632.57	582.74
632.91	578.79
633.26	574.93
633.60	571.16
633.95	567.46
634.29	563.63
634.64	559.76
634.98	555.81
635.32	552.02
635.67	548.35
636.01	544.64
636.36	540.96
636.70	537.42
637.05	533.88
637.39	530.54
637.73	527.08
638.08	523.68
638.42	520.26
638.77	516.69
639.11	513.14
639.45	509.62
639.80	506.08
640.14	502.74
640.49	499.35
640.83	495.86
641.17	492.41
641.52	489.12
641.86	485.83
642.20	482.70
642.55	479.43
642.89	476.23
643.23	473.24
643.58	470.47
643.92	467.58
644.26	464.72
644.61	461.85
644.95	458.99
645.29	456.07
645.64	453.13
645.98	450.32
646.32	447.67
646.66	445.04
647.01	442.39
647.35	439.77
647.69	437.06
648.04	434.48
648.38	431.95
648.72	429.38
649.06	426.88
649.41	424.40
649.75	421.91
650.09	419.46
650.43	417.00
650.78	414.54
651.12	412.06
651.46	409.68
651.80	407.40
652.14	405.18
652.49	402.97
652.83	400.82
653.17	398.66
653.51	396.56
653.85	394.53
654.20	392.45
654.54	390.27
654.88	388.29
655.22	386.38
655.56	384.42
655.90	382.54
656.25	380.68
656.59	378.83
656.93	377.08
657.27	375.36
657.61	373.54
657.95	371.78
658.29	370.04
658.64	368.32
658.98	366.58
659.32	364.87
659.66	363.26
660.00	361.66
660.34	360.09
660.68	358.47
661.02	356.79
661.36	355.22
661.70	353.72
662.05	352.19
662.39	350.65
662.73	349.21
663.07	347.79
663.41	346.39
663.75	345.01
664.09	343.63
664.43	342.18
664.77	340.83
665.11	339.41
665.45	338.07
665.79	336.73
666.13	335.38
666.47	334.01
666.81	332.62
667.15	331.21
667.49	329.89
667.83	328.62
668.17	327.39
668.51	326.19
668.85	324.99
669.19	323.87
669.53	322.68
669.87	321.47
670.21	320.28
670.55	319.11
670.89	318.01
671.23	316.88
671.57	315.77
671.91	314.71
672.25	313.72
672.58	312.71
672.92	311.67
673.26	310.69
673.60	309.73
673.94	308.76
674.28	307.83
674.62	306.91
674.96	305.94
675.30	305.04
675.64	304.11
675.97	303.19
676.31	302.24
676.65	301.32
676.99	300.46
677.33	299.54
677.67	298.68
678.01	297.73
678.34	296.85
678.68	296.04
679.02	295.19
679.36	294.34
679.70	293.51
680.04	292.70
680.37	291.89
680.71	291.11
681.05	290.37
681.39	289.59
681.73	288.78
682.06	288.00
682.40	287.24
682.74	286.50
683.08	285.79
683.42	285.06
683.75	284.40
684.09	283.66
684.43	282.97
684.77	282.26
685.10	281.61
685.44	280.94
685.78	280.25
686.12	279.60
686.45	278.94
686.79	278.27
687.13	277.64
687.46	276.97
687.80	276.33
688.14	275.65
688.48	275.03
688.81	274.41
689.15	273.84
689.49	273.22
689.82	272.62
690.16	271.97
690.50	271.38
690.83	270.79
691.17	270.22
691.51	269.65
691.84	269.12
692.18	268.54
692.52	267.96
692.85	267.40
693.19	266.88
693.52	266.34
693.86	265.81
694.20	265.28
694.53	264.79
694.87	264.27
695.21	263.79
695.54	263.29
695.88	262.79
696.21	262.25
696.55	261.77
696.88	261.29
697.22	260.82
697.56	260.35
697.89	259.82
698.23	259.34
698.56	258.84
698.90	258.38
699.23	257.92
699.57	257.49
699.90	257.05
700.24	256.58
700.58	256.15
700.91	255.75
701.25	255.43
701.58	255.06
701.92	254.68
702.25	254.28
702.59	253.87
702.92	253.49
703.26	253.12
703.59	252.73
703.93	252.44
704.26	252.08
704.60	251.71
704.93	251.37
705.26	251.02
705.60	250.71
705.93	250.35
706.27	250.05
706.60	249.74
706.94	249.44
707.27	249.08
707.61	248.74
707.94	248.39
708.27	247.97
708.61	247.60
708.94	247.26
709.28	246.95
709.61	246.64
709.94	246.35
710.28	246.06
710.61	245.79
710.95	245.42
711.28	245.21
711.61	244.94
711.95	244.69
712.28	244.41
712.61	244.13
712.95	243.92
713.28	243.71
713.61	243.43
713.95	243.16
714.28	242.93
714.61	242.68
714.95	242.44
715.28	242.20
715.61	241.96
715.95	241.74
716.28	241.51
716.61	241.30
716.95	241.07
717.28	240.86
717.61	240.63
717.94	240.42
718.28	240.13
718.61	239.92
718.94	239.69
719.27	239.49
719.61	239.30
719.94	239.08
720.27	238.82
720.60	238.63
720.94	238.44
721.27	238.26
721.60	238.10
721.93	237.92
722.27	237.78
722.60	237.62
722.93	237.43
723.26	237.26
723.59	237.07
723.93	236.92
724.26	236.76
724.59	236.60
724.92	236.44
725.25	236.32
725.59	236.16
725.92	236.03
726.25	235.88
726.58	235.73
726.91	235.58
727.24	235.45
727.57	235.30
727.91	235.14
728.24	235.01
728.57	234.86
728.90	234.73
729.23	234.56
729.56	234.47
729.89	234.34
730.22	234.19
730.55	234.06
730.89	233.93
731.22	233.79
731.55	233.66
731.88	233.53
732.21	233.39
732.54	233.27
732.87	233.15
733.20	233.04
733.53	232.93
733.86	232.82
734.19	232.69
734.52	232.60
734.85	232.57
735.18	232.43
735.51	232.36
735.84	232.25
736.17	232.17
736.50	232.01
736.83	232.04
737.16	231.94
737.49	231.85
737.82	231.75
738.15	231.67
738.48	231.58
738.81	231.48
739.14	231.37
739.47	231.27
739.80	231.17
740.13	231.08
740.46	230.97
740.79	230.87
741.12	230.78
741.45	230.67
741.78	230.52
742.11	230.46
742.44	230.35
742.77	230.28
743.10	230.18
743.43	230.09
743.75	229.89
744.08	229.97
744.41	229.87
744.74	229.78
745.07	229.68
745.40	229.62
745.73	229.58
746.06	229.51
746.39	229.45
746.71	229.37
747.04	229.28
747.37	229.21
747.70	229.17
748.03	229.10
748.36	229.05
748.68	228.98
749.01	228.87
749.34	228.81
749.67	228.74
750.00	228.69
750.33	228.70
750.65	228.64
750.98	228.42
751.31	228.36
751.64	228.31
751.97	228.31
752.29	228.23
752.62	228.12
752.95	228.05
753.28	227.97
753.60	227.91
753.93	227.87
754.26	227.81
754.59	227.71
754.91	227.64
755.24	227.56
755.57	227.55
755.90	227.49
756.22	227.42
756.55	227.34
756.88	227.27
757.20	227.14
757.53	227.05
757.86	227.00
758.19	226.95
758.51	226.89
758.84	226.79
759.17	226.72
759.49	226.68
759.82	226.68
760.15	226.64
760.47	226.60
760.80	226.52
761.13	226.48
761.45	226.44
761.78	226.40
762.11	226.36
762.43	226.26
762.76	226.21
763.08	226.18
763.41	226.14
763.74	226.11
764.06	226.07
764.39	226.03
764.71	225.99
765.04	225.93
765.37	225.88
765.69	225.85
766.02	225.81
766.34	225.76
766.67	225.68
767.00	225.66
767.32	225.67
767.65	225.70
767.97	225.65
768.30	225.62
768.62	225.58
768.95	225.53
769.27	225.50
769.60	225.48
769.92	225.43
770.25	225.38
770.57	225.33
770.90	225.29
771.22	225.24
771.55	225.21
771.87	225.18
772.20	225.15
772.52	225.21
772.85	225.30
773.17	225.28
773.50	225.24
773.82	225.19
774.15	225.10
774.47	225.01
774.80	224.97
775.12	224.94
775.45	224.91
775.77	224.89
776.09	224.87
776.42	224.84
776.74	224.85
777.07	224.82
777.39	224.80
777.72	224.77
778.04	224.76
778.36	224.72
778.69	224.70
779.01	224.69
779.33	224.57
779.66	224.43
779.98	224.40
780.31	224.39
780.63	224.41
780.95	224.41
781.28	224.39
781.60	224.36
781.92	224.35
782.25	224.33
782.57	224.31
782.89	224.28
783.22	224.25
783.54	224.21
783.86	224.20
784.19	224.18
784.51	224.19
784.83	224.16
785.16	224.14
785.48	224.12
785.80	224.10
786.12	224.09
786.45	224.07
786.77	224.06
787.09	224.04
787.42	223.98
787.74	223.97
788.06	223.96
788.38	223.94
788.71	223.92
789.03	223.91
789.35	223.90
789.67	223.88
789.99	223.87
790.32	223.84
790.64	223.84
790.96	223.93
791.28	223.88
791.61	223.86
791.93	223.86
792.25	223.84
792.57	223.90
792.89	223.86
793.21	223.86
793.54	223.84
793.86	223.81
794.18	223.81
794.50	223.77
794.82	223.76
795.14	223.76
795.47	223.77
795.79	223.75
796.11	223.72
796.43	223.70
796.75	223.69
797.07	223.69
797.39	223.66
797.71	223.56
798.04	223.55
798.36	223.55
798.68	223.54
799.00	223.53
799.32	223.47
799.64	223.48
799.96	223.47
800.28	223.48
800.60	223.46
800.92	223.46
801.24	223.44
801.56	223.44
801.89	223.42
802.21	223.41
802.53	223.38
802.85	223.39
803.17	223.43
803.49	223.40
803.81	223.39
804.13	223.37
804.45	223.35
804.77	223.35
805.09	223.34
805.41	223.32
805.73	223.29
806.05	223.26
806.37	223.24
806.69	223.22
807.01	223.20
807.33	223.20
807.65	223.15
807.97	223.19
808.28	223.17
808.60	223.16
808.92	223.14
809.24	223.20
809.56	223.17
809.88	223.13
810.20	223.13
810.52	223.14
810.84	223.12
811.16	223.10
811.48	223.09
811.80	223.12
812.12	223.11
812.43	223.12
812.75	223.13
813.07	223.11
813.39	223.11
813.71	223.10
814.03	223.08
814.35	223.08
814.67	223.03
814.98	223.02
815.30	223.01
815.62	222.99
815.94	222.91
816.26	222.92
816.58	222.89
816.89	222.90
817.21	222.87
817.53	222.87
817.85	222.87
