SpectraSuite Data File
++++++++++++++++++++++++++++++++++++
Date: Thu Oct 01 00:53:07 EDT 2015
User: lab3
Dark Spectrum Present: No
Reference Spectrum Present: No
Number of Sampled Component Spectra: 1
Spectrometers: USB2E7196
Integration Time (usec): 36000 (USB2E7196)
Spectra Averaged: 10000 (USB2E7196)
Boxcar Smoothing: 10 (USB2E7196)
Correct for Electrical Dark: No (USB2E7196)
Strobe/Lamp Enabled: No (USB2E7196)
Correct for Detector Non-linearity: No (USB2E7196)
Correct for Stray Light: No (USB2E7196)
Number of Pixels in Processed Spectrum: 2048
>>>>>Begin Processed Spectral Data<<<<<
339.09	0.00
339.48	209.88
339.86	211.34
340.24	212.70
340.63	214.11
341.01	217.08
341.39	216.77
341.78	218.18
342.16	219.37
342.54	219.81
342.93	208.44
343.31	218.98
343.69	219.51
344.07	219.97
344.46	220.40
344.84	220.79
345.22	221.03
345.60	221.29
345.99	221.48
346.37	221.61
346.75	221.72
347.13	221.80
347.52	221.87
347.90	221.95
348.28	221.98
348.66	222.04
349.05	222.04
349.43	222.09
349.81	222.15
350.19	222.20
350.57	222.27
350.96	222.35
351.34	222.45
351.72	222.55
352.10	222.65
352.48	222.73
352.87	222.78
353.25	222.85
353.63	222.91
354.01	222.98
354.39	223.06
354.77	223.14
355.15	223.24
355.54	223.29
355.92	223.33
356.30	223.41
356.68	223.54
357.06	223.62
357.44	223.67
357.82	223.73
358.20	223.85
358.58	223.91
358.97	223.98
359.35	224.06
359.73	224.14
360.11	224.19
360.49	224.25
360.87	224.30
361.25	224.36
361.63	224.44
362.01	224.49
362.39	224.52
362.77	224.57
363.15	224.59
363.53	224.62
363.91	224.66
364.29	224.68
364.67	224.61
365.05	224.63
365.43	224.67
365.81	224.70
366.19	224.71
366.57	224.76
366.95	224.76
367.33	224.74
367.71	224.73
368.09	224.75
368.47	224.74
368.85	224.73
369.23	224.74
369.61	224.69
369.99	224.70
370.37	224.70
370.75	224.75
371.13	224.72
371.51	224.68
371.89	224.66
372.27	224.63
372.65	224.61
373.03	224.57
373.41	224.52
373.78	224.48
374.16	224.38
374.54	224.30
374.92	224.26
375.30	224.21
375.68	224.14
376.06	224.10
376.44	224.04
376.82	224.00
377.19	223.95
377.57	223.90
377.95	223.81
378.33	223.75
378.71	223.61
379.09	223.56
379.47	223.53
379.84	223.47
380.22	223.41
380.60	223.33
380.98	223.29
381.36	223.24
381.73	223.17
382.11	223.15
382.49	223.10
382.87	223.04
383.25	223.00
383.62	223.07
384.00	223.01
384.38	222.97
384.76	222.94
385.13	222.93
385.51	222.89
385.89	222.84
386.27	222.80
386.64	222.77
387.02	222.72
387.40	222.68
387.78	222.65
388.15	222.62
388.53	222.59
388.91	222.56
389.29	222.52
389.66	222.51
390.04	222.47
390.42	222.46
390.79	222.45
391.17	222.42
391.55	222.29
391.92	222.27
392.30	222.27
392.68	222.24
393.05	222.21
393.43	222.21
393.81	222.22
394.18	222.20
394.56	222.20
394.94	222.22
395.31	222.22
395.69	222.26
396.06	222.28
396.44	222.31
396.82	222.32
397.19	222.39
397.57	222.40
397.95	222.44
398.32	222.44
398.70	222.48
399.07	222.53
399.45	222.57
399.82	222.61
400.20	222.64
400.58	222.69
400.95	222.71
401.33	222.78
401.70	222.91
402.08	223.00
402.45	223.07
402.83	223.18
403.20	223.28
403.58	223.36
403.95	223.48
404.33	223.61
404.71	223.73
405.08	223.91
405.46	224.05
405.83	224.21
406.21	224.38
406.58	224.57
406.96	224.76
407.33	224.98
407.70	225.22
408.08	225.55
408.45	225.83
408.83	226.14
409.20	226.42
409.58	226.67
409.95	227.02
410.33	227.39
410.70	227.75
411.08	228.16
411.45	228.60
411.82	229.04
412.20	229.54
412.57	230.15
412.95	230.62
413.32	231.24
413.69	231.87
414.07	232.54
414.44	233.27
414.82	234.01
415.19	234.89
415.56	235.77
415.94	236.69
416.31	237.72
416.68	238.75
417.06	239.96
417.43	241.08
417.81	242.38
418.18	243.70
418.55	245.15
418.93	246.65
419.30	248.21
419.67	249.89
420.04	251.60
420.42	253.40
420.79	255.48
421.16	257.58
421.54	259.71
421.91	261.93
422.28	264.25
422.66	266.74
423.03	269.12
423.40	271.62
423.77	274.30
424.15	277.04
424.52	279.89
424.89	282.97
425.26	286.04
425.64	288.89
426.01	292.09
426.38	295.36
426.75	298.75
427.13	302.21
427.50	305.82
427.87	309.57
428.24	313.37
428.61	316.99
428.99	320.89
429.36	325.17
429.73	329.28
430.10	333.36
430.47	337.54
430.85	341.83
431.22	346.40
431.59	351.09
431.96	355.67
432.33	360.73
432.70	365.52
433.08	371.20
433.45	376.56
433.82	381.83
434.19	387.71
434.56	393.48
434.93	399.06
435.30	404.57
435.68	410.77
436.05	416.84
436.42	422.91
436.79	428.45
437.16	434.41
437.53	440.80
437.90	447.19
438.27	453.43
438.64	460.21
439.01	466.34
439.38	471.93
439.75	477.34
440.13	483.52
440.50	489.40
440.87	494.04
441.24	499.14
441.61	504.77
441.98	508.91
442.35	513.83
442.72	518.88
443.09	523.71
443.46	526.85
443.83	529.17
444.20	531.15
444.57	534.03
444.94	535.78
445.31	537.57
445.68	539.19
446.05	540.41
446.42	540.33
446.79	540.13
447.16	539.99
447.53	539.89
447.90	538.14
448.27	536.50
448.64	533.87
449.01	532.16
449.37	528.35
449.74	524.88
450.11	520.40
450.48	515.46
450.85	510.49
451.22	506.27
451.59	502.14
451.96	498.39
452.33	492.87
452.70	487.94
453.07	481.92
453.43	475.89
453.80	470.05
454.17	464.43
454.54	459.23
454.91	453.34
455.28	447.79
455.65	442.56
456.02	436.98
456.38	432.49
456.75	426.69
457.12	422.00
457.49	417.28
457.86	412.77
458.23	408.81
458.59	404.45
458.96	399.95
459.33	395.98
459.70	391.94
460.07	388.86
460.43	385.23
460.80	381.83
461.17	378.83
461.54	375.60
461.91	372.59
462.27	369.51
462.64	367.00
463.01	364.13
463.38	361.23
463.74	358.60
464.11	356.25
464.48	354.13
464.85	351.87
465.21	350.13
465.58	348.21
465.95	346.00
466.32	344.23
466.68	342.49
467.05	340.76
467.42	339.08
467.78	337.27
468.15	335.60
468.52	334.35
468.88	332.72
469.25	331.23
469.62	330.05
469.98	328.76
470.35	327.62
470.72	326.58
471.08	325.53
471.45	324.67
471.82	323.71
472.18	322.72
472.55	322.07
472.92	321.28
473.28	320.66
473.65	320.02
474.02	319.41
474.38	318.92
474.75	318.64
475.11	318.23
475.48	318.07
475.85	317.91
476.21	317.86
476.58	317.87
476.94	318.06
477.31	318.17
477.67	318.33
478.04	318.58
478.41	318.92
478.77	319.38
479.14	319.71
479.50	320.27
479.87	320.96
480.23	321.65
480.60	322.31
480.96	323.00
481.33	323.96
481.69	324.91
482.06	325.85
482.42	326.74
482.79	327.81
483.15	329.05
483.52	330.42
483.88	331.75
484.25	333.17
484.61	334.64
484.98	336.24
485.34	338.02
485.71	339.87
486.07	341.83
486.44	343.79
486.80	345.97
487.17	348.19
487.53	350.63
487.90	353.19
488.26	355.94
488.62	358.85
488.99	361.77
489.35	364.81
489.72	368.10
490.08	371.56
490.44	375.11
490.81	378.83
491.17	382.65
491.54	386.71
491.90	390.87
492.26	395.36
492.63	400.08
492.99	404.99
493.36	410.03
493.72	415.33
494.08	420.78
494.45	426.52
494.81	432.48
495.17	438.56
495.54	444.97
495.90	451.71
496.26	458.58
496.63	465.69
496.99	473.08
497.35	480.83
497.72	488.89
498.08	497.10
498.44	505.56
498.80	514.58
499.17	523.83
499.53	533.41
499.89	543.24
500.26	553.21
500.62	563.48
500.98	574.41
501.34	585.49
501.71	597.10
502.07	608.93
502.43	621.16
502.79	633.74
503.16	646.71
503.52	659.86
503.88	673.40
504.24	687.36
504.60	701.62
504.97	716.26
505.33	731.27
505.69	747.18
506.05	763.30
506.41	779.41
506.78	795.83
507.14	812.74
507.50	830.24
507.86	848.14
508.22	866.30
508.59	884.47
508.95	903.37
509.31	922.70
509.67	942.73
510.03	962.99
510.39	983.47
510.75	1004.17
511.12	1025.17
511.48	1046.50
511.84	1067.91
512.20	1089.62
512.56	1112.42
512.92	1135.46
513.28	1158.21
513.64	1181.29
514.00	1204.78
514.37	1228.61
514.73	1252.45
515.09	1276.11
515.45	1300.18
515.81	1324.84
516.17	1349.56
516.53	1373.96
516.89	1398.42
517.25	1423.07
517.61	1447.90
517.97	1472.92
518.33	1497.71
518.69	1522.65
519.05	1547.82
519.41	1573.14
519.77	1598.73
520.13	1623.57
520.49	1648.55
520.85	1673.74
521.21	1698.89
521.57	1724.63
521.93	1749.65
522.29	1775.52
522.65	1801.14
523.01	1826.51
523.37	1851.17
523.73	1876.48
524.09	1901.94
524.45	1927.30
524.81	1952.20
525.17	1977.00
525.53	2001.40
525.89	2025.84
526.25	2050.45
526.61	2074.53
526.97	2098.93
527.33	2123.23
527.68	2147.35
528.04	2170.64
528.40	2193.81
528.76	2217.13
529.12	2239.40
529.48	2262.06
529.84	2282.91
530.20	2304.31
530.56	2325.41
530.91	2346.55
531.27	2367.12
531.63	2387.10
531.99	2406.56
532.35	2425.69
532.71	2444.94
533.07	2464.78
533.42	2483.03
533.78	2501.72
534.14	2520.37
534.50	2538.16
534.86	2556.60
535.21	2573.22
535.57	2589.81
535.93	2605.60
536.29	2620.24
536.65	2635.66
537.00	2649.93
537.36	2664.71
537.72	2678.43
538.08	2691.88
538.44	2704.16
538.79	2716.68
539.15	2727.56
539.51	2738.34
539.87	2748.77
540.22	2757.07
540.58	2765.42
540.94	2774.38
541.29	2781.82
541.65	2788.29
542.01	2794.24
542.37	2798.31
542.72	2804.28
543.08	2809.72
543.44	2815.03
543.79	2819.44
544.15	2823.04
544.51	2826.62
544.87	2829.32
545.22	2831.61
545.58	2832.87
545.94	2834.59
546.29	2834.87
546.65	2835.30
547.01	2835.74
547.36	2836.31
547.72	2837.07
548.07	2836.36
548.43	2835.03
548.79	2833.01
549.14	2831.02
549.50	2829.61
549.86	2827.38
550.21	2822.67
550.57	2818.43
550.92	2812.85
551.28	2807.86
551.64	2802.75
551.99	2798.05
552.35	2792.95
552.70	2787.38
553.06	2782.56
553.41	2777.32
553.77	2771.43
554.13	2766.21
554.48	2760.13
554.84	2752.40
555.19	2744.80
555.55	2736.61
555.90	2729.00
556.26	2722.40
556.61	2715.19
556.97	2705.82
557.32	2697.27
557.68	2689.19
558.03	2680.39
558.39	2672.25
558.74	2664.34
559.10	2655.20
559.45	2645.71
559.81	2636.54
560.16	2626.71
560.52	2616.43
560.87	2607.16
561.23	2597.56
561.58	2587.42
561.94	2576.99
562.29	2566.12
562.64	2555.81
563.00	2545.85
563.35	2535.70
563.71	2524.67
564.06	2513.13
564.42	2502.62
564.77	2491.74
565.12	2481.01
565.48	2470.01
565.83	2459.66
566.19	2449.31
566.54	2438.61
566.89	2426.96
567.25	2415.24
567.60	2404.38
567.96	2393.08
568.31	2380.37
568.66	2367.60
569.02	2355.88
569.37	2343.96
569.72	2332.56
570.08	2320.43
570.43	2307.75
570.78	2294.78
571.14	2281.61
571.49	2269.21
571.84	2257.12
572.20	2243.76
572.55	2230.72
572.90	2217.56
573.26	2203.51
573.61	2188.88
573.96	2174.51
574.31	2160.53
574.67	2146.82
575.02	2132.66
575.37	2118.07
575.72	2103.74
576.08	2090.05
576.43	2075.29
576.78	2060.57
577.13	2046.64
577.49	2032.78
577.84	2019.31
578.19	2004.98
578.54	1990.26
578.90	1975.05
579.25	1959.52
579.60	1945.45
579.95	1931.05
580.30	1916.66
580.66	1902.56
581.01	1888.09
581.36	1873.97
581.71	1860.42
582.06	1846.34
582.42	1832.33
582.77	1819.07
583.12	1805.48
583.47	1791.89
583.82	1778.44
584.17	1764.88
584.53	1751.16
584.88	1737.44
585.23	1723.36
585.58	1709.83
585.93	1696.73
586.28	1684.44
586.63	1671.97
586.98	1658.76
587.34	1645.79
587.69	1632.33
588.04	1619.09
588.39	1606.55
588.74	1593.49
589.09	1580.17
589.44	1566.83
589.79	1554.06
590.14	1541.14
590.49	1528.41
590.84	1515.57
591.19	1503.41
591.54	1490.72
591.89	1477.89
592.25	1465.42
592.60	1452.54
592.95	1440.21
593.30	1428.19
593.65	1415.95
594.00	1403.92
594.35	1392.69
594.70	1380.60
595.05	1369.61
595.40	1358.47
595.75	1346.69
596.10	1335.71
596.45	1324.95
596.80	1314.66
597.15	1304.16
597.50	1293.67
597.85	1283.39
598.19	1273.29
598.54	1262.54
598.89	1252.55
599.24	1242.87
599.59	1232.93
599.94	1224.04
600.29	1215.03
600.64	1205.78
600.99	1195.97
601.34	1186.63
601.69	1176.66
602.04	1167.81
602.39	1158.78
602.74	1150.01
603.08	1141.48
603.43	1132.49
603.78	1123.35
604.13	1114.37
604.48	1105.31
604.83	1096.52
605.18	1087.63
605.53	1078.68
605.87	1069.87
606.22	1061.34
606.57	1052.55
606.92	1043.82
607.27	1034.97
607.62	1026.19
607.96	1017.60
608.31	1010.01
608.66	1001.98
609.01	994.40
609.36	986.76
609.70	978.90
610.05	970.86
610.40	963.17
610.75	955.60
611.10	948.32
611.44	940.63
611.79	933.27
612.14	925.51
612.49	917.91
612.83	910.80
613.18	903.75
613.53	896.47
613.88	889.29
614.22	882.72
614.57	875.98
614.92	869.22
615.27	862.49
615.61	855.60
615.96	848.96
616.31	842.21
616.65	835.35
617.00	828.76
617.35	822.31
617.70	815.89
618.04	809.52
618.39	803.18
618.74	797.18
619.08	790.98
619.43	785.04
619.78	779.13
620.12	773.01
620.47	767.07
620.82	761.22
621.16	755.70
621.51	749.82
621.85	743.92
622.20	738.08
622.55	732.42
622.89	726.72
623.24	721.05
623.59	715.47
623.93	709.93
624.28	704.52
624.62	699.12
624.97	693.68
625.32	688.36
625.66	682.90
626.01	677.44
626.35	672.13
626.70	666.85
627.04	661.74
627.39	656.70
627.73	651.77
628.08	647.07
628.43	642.23
628.77	637.47
629.12	632.84
629.46	628.40
629.81	623.76
630.15	619.01
630.50	614.42
630.84	610.02
631.19	605.81
631.53	601.64
631.88	597.35
632.22	593.17
632.57	589.23
632.91	585.24
633.26	581.33
633.60	577.51
633.95	573.78
634.29	569.93
634.64	566.02
634.98	562.01
635.32	558.17
635.67	554.46
636.01	550.69
636.36	546.96
636.70	543.37
637.05	539.78
637.39	536.40
637.73	532.89
638.08	529.43
638.42	525.95
638.77	522.32
639.11	518.71
639.45	515.13
639.80	511.52
640.14	508.12
640.49	504.68
640.83	501.12
641.17	497.60
641.52	494.25
641.86	490.90
642.20	487.72
642.55	484.39
642.89	481.14
643.23	478.08
643.58	475.27
643.92	472.32
644.26	469.41
644.61	466.49
644.95	463.58
645.29	460.61
645.64	457.62
645.98	454.76
646.32	452.08
646.66	449.41
647.01	446.70
647.35	444.05
647.69	441.28
648.04	438.66
648.38	436.08
648.72	433.45
649.06	430.91
649.41	428.39
649.75	425.86
650.09	423.37
650.43	420.87
650.78	418.35
651.12	415.82
651.46	413.40
651.80	411.08
652.14	408.82
652.49	406.58
652.83	404.39
653.17	402.20
653.51	400.06
653.85	397.99
654.20	395.87
654.54	393.65
654.88	391.64
655.22	389.68
655.56	387.68
655.90	385.78
656.25	383.88
656.59	381.98
656.93	380.19
657.27	378.43
657.61	376.58
657.95	374.80
658.29	373.02
658.64	371.26
658.98	369.48
659.32	367.74
659.66	366.09
660.00	364.46
660.34	362.85
660.68	361.20
661.02	359.48
661.36	357.87
661.70	356.34
662.05	354.78
662.39	353.21
662.73	351.74
663.07	350.29
663.41	348.85
663.75	347.44
664.09	346.04
664.43	344.56
664.77	343.17
665.11	341.72
665.45	340.35
665.79	338.99
666.13	337.62
666.47	336.22
666.81	334.81
667.15	333.37
667.49	332.02
667.83	330.72
668.17	329.47
668.51	328.24
668.85	327.02
669.19	325.88
669.53	324.67
669.87	323.43
670.21	322.23
670.55	321.03
670.89	319.91
671.23	318.76
671.57	317.62
671.91	316.54
672.25	315.53
672.58	314.50
672.92	313.44
673.26	312.45
673.60	311.46
673.94	310.46
674.28	309.53
674.62	308.58
674.96	307.60
675.30	306.68
675.64	305.74
675.97	304.81
676.31	303.84
676.65	302.90
676.99	302.02
677.33	301.09
677.67	300.21
678.01	299.24
678.34	298.36
678.68	297.53
679.02	296.66
679.36	295.80
679.70	294.95
680.04	294.12
680.37	293.28
680.71	292.49
681.05	291.73
681.39	290.94
681.73	290.11
682.06	289.32
682.40	288.54
682.74	287.79
683.08	287.06
683.42	286.32
683.75	285.65
684.09	284.89
684.43	284.19
684.77	283.47
685.10	282.80
685.44	282.12
685.78	281.42
686.12	280.76
686.45	280.09
686.79	279.42
687.13	278.77
687.46	278.09
687.80	277.44
688.14	276.75
688.48	276.12
688.81	275.48
689.15	274.90
689.49	274.27
689.82	273.66
690.16	273.00
690.50	272.40
690.83	271.79
691.17	271.20
691.51	270.63
691.84	270.08
692.18	269.49
692.52	268.90
692.85	268.33
693.19	267.80
693.52	267.25
693.86	266.70
694.20	266.17
694.53	265.66
694.87	265.14
695.21	264.64
695.54	264.14
695.88	263.63
696.21	263.08
696.55	262.58
696.88	262.09
697.22	261.61
697.56	261.13
697.89	260.60
698.23	260.10
698.56	259.59
698.90	259.12
699.23	258.64
699.57	258.20
699.90	257.75
700.24	257.26
700.58	256.82
700.91	256.41
701.25	256.07
701.58	255.69
701.92	255.31
702.25	254.90
702.59	254.48
702.92	254.09
703.26	253.70
703.59	253.31
703.93	253.00
704.26	252.63
704.60	252.25
704.93	251.90
705.26	251.54
705.60	251.22
705.93	250.85
706.27	250.54
706.60	250.22
706.94	249.91
707.27	249.55
707.61	249.20
707.94	248.84
708.27	248.41
708.61	248.03
708.94	247.68
709.28	247.35
709.61	247.03
709.94	246.74
710.28	246.44
710.61	246.16
710.95	245.78
711.28	245.56
711.61	245.28
711.95	245.02
712.28	244.73
712.61	244.44
712.95	244.23
713.28	244.01
713.61	243.73
713.95	243.44
714.28	243.21
714.61	242.95
714.95	242.71
715.28	242.46
715.61	242.22
715.95	241.99
716.28	241.75
716.61	241.54
716.95	241.30
717.28	241.08
717.61	240.84
717.94	240.63
718.28	240.33
718.61	240.12
718.94	239.88
719.27	239.67
719.61	239.48
719.94	239.25
720.27	238.99
720.60	238.79
720.94	238.60
721.27	238.41
721.60	238.24
721.93	238.05
722.27	237.90
722.60	237.74
722.93	237.54
723.26	237.37
723.59	237.18
723.93	237.01
724.26	236.85
724.59	236.68
724.92	236.52
725.25	236.40
725.59	236.24
725.92	236.10
726.25	235.95
726.58	235.79
726.91	235.63
727.24	235.49
727.57	235.35
727.91	235.18
728.24	235.05
728.57	234.89
728.90	234.75
729.23	234.57
729.56	234.47
729.89	234.34
730.22	234.19
730.55	234.05
730.89	233.91
731.22	233.78
731.55	233.64
731.88	233.51
732.21	233.36
732.54	233.23
732.87	233.10
733.20	232.98
733.53	232.87
733.86	232.76
734.19	232.63
734.52	232.54
734.85	232.50
735.18	232.36
735.51	232.28
735.84	232.17
736.17	232.09
736.50	231.94
736.83	231.95
737.16	231.86
737.49	231.76
737.82	231.66
738.15	231.58
738.48	231.48
738.81	231.38
739.14	231.27
739.47	231.16
739.80	231.06
740.13	230.97
740.46	230.86
740.79	230.75
741.12	230.66
741.45	230.55
741.78	230.40
742.11	230.34
742.44	230.22
742.77	230.14
743.10	230.04
743.43	229.95
743.75	229.75
744.08	229.82
744.41	229.72
744.74	229.63
745.07	229.52
745.40	229.46
745.73	229.42
746.06	229.35
746.39	229.29
746.71	229.20
747.04	229.11
747.37	229.04
747.70	228.98
748.03	228.91
748.36	228.85
748.68	228.78
749.01	228.68
749.34	228.61
749.67	228.55
750.00	228.49
750.33	228.50
750.65	228.45
750.98	228.23
751.31	228.17
751.64	228.11
751.97	228.11
752.29	228.03
752.62	227.91
752.95	227.84
753.28	227.76
753.60	227.69
753.93	227.65
754.26	227.59
754.59	227.50
754.91	227.42
755.24	227.35
755.57	227.33
755.90	227.27
756.22	227.20
756.55	227.11
756.88	227.03
757.20	226.90
757.53	226.82
757.86	226.76
758.19	226.71
758.51	226.65
758.84	226.54
759.17	226.48
759.49	226.44
759.82	226.44
760.15	226.41
760.47	226.36
760.80	226.28
761.13	226.25
761.45	226.21
761.78	226.16
762.11	226.11
762.43	226.01
762.76	225.97
763.08	225.94
763.41	225.91
763.74	225.87
764.06	225.83
764.39	225.79
764.71	225.75
765.04	225.69
765.37	225.64
765.69	225.60
766.02	225.56
766.34	225.50
766.67	225.42
767.00	225.40
767.32	225.42
767.65	225.44
767.97	225.39
768.30	225.37
768.62	225.33
768.95	225.28
769.27	225.24
769.60	225.22
769.92	225.16
770.25	225.11
770.57	225.05
770.90	225.02
771.22	224.97
771.55	224.94
771.87	224.92
772.20	224.89
772.52	224.95
772.85	225.04
773.17	225.02
773.50	224.98
773.82	224.93
774.15	224.85
774.47	224.75
774.80	224.71
775.12	224.68
775.45	224.65
775.77	224.63
776.09	224.61
776.42	224.59
776.74	224.60
777.07	224.57
777.39	224.55
777.72	224.52
778.04	224.51
778.36	224.47
778.69	224.45
779.01	224.43
779.33	224.31
779.66	224.17
779.98	224.14
780.31	224.13
780.63	224.15
780.95	224.14
781.28	224.12
781.60	224.09
781.92	224.08
782.25	224.06
782.57	224.03
782.89	224.01
783.22	223.98
783.54	223.94
783.86	223.93
784.19	223.90
784.51	223.92
784.83	223.88
785.16	223.86
785.48	223.84
785.80	223.82
786.12	223.81
786.45	223.80
786.77	223.79
787.09	223.76
787.42	223.71
787.74	223.69
788.06	223.68
788.38	223.67
788.71	223.64
789.03	223.63
789.35	223.63
789.67	223.60
789.99	223.59
790.32	223.57
790.64	223.56
790.96	223.65
791.28	223.59
791.61	223.58
791.93	223.57
792.25	223.55
792.57	223.61
792.89	223.57
793.21	223.57
793.54	223.54
793.86	223.52
794.18	223.51
794.50	223.47
794.82	223.46
795.14	223.46
795.47	223.46
795.79	223.45
796.11	223.42
796.43	223.40
796.75	223.39
797.07	223.38
797.39	223.36
797.71	223.26
798.04	223.26
798.36	223.25
798.68	223.24
799.00	223.24
799.32	223.17
799.64	223.18
799.96	223.16
800.28	223.17
800.60	223.16
800.92	223.16
801.24	223.15
801.56	223.15
801.89	223.12
802.21	223.12
802.53	223.09
802.85	223.11
803.17	223.14
803.49	223.12
803.81	223.10
804.13	223.08
804.45	223.06
804.77	223.06
805.09	223.05
805.41	223.03
805.73	223.01
806.05	222.97
806.37	222.96
806.69	222.94
807.01	222.92
807.33	222.91
807.65	222.86
807.97	222.90
808.28	222.88
808.60	222.87
808.92	222.85
809.24	222.90
809.56	222.87
809.88	222.83
810.20	222.83
810.52	222.84
810.84	222.82
811.16	222.81
811.48	222.79
811.80	222.82
812.12	222.81
812.43	222.82
812.75	222.82
813.07	222.81
813.39	222.81
813.71	222.80
814.03	222.78
814.35	222.79
814.67	222.73
814.98	222.72
815.30	222.71
815.62	222.69
815.94	222.62
816.26	222.63
816.58	222.60
816.89	222.60
817.21	222.57
817.53	222.57
817.85	222.57
