SpectraSuite Data File
++++++++++++++++++++++++++++++++++++
Date: Wed Sep 30 15:00:55 EDT 2015
User: lab3
Dark Spectrum Present: No
Reference Spectrum Present: No
Number of Sampled Component Spectra: 1
Spectrometers: USB2E7196
Integration Time (usec): 36000 (USB2E7196)
Spectra Averaged: 1500 (USB2E7196)
Boxcar Smoothing: 10 (USB2E7196)
Correct for Electrical Dark: No (USB2E7196)
Strobe/Lamp Enabled: No (USB2E7196)
Correct for Detector Non-linearity: No (USB2E7196)
Correct for Stray Light: No (USB2E7196)
Number of Pixels in Processed Spectrum: 2048
>>>>>Begin Processed Spectral Data<<<<<
339.09	0.00
339.48	211.19
339.86	212.76
340.24	214.04
340.63	215.44
341.01	218.46
341.39	218.19
341.78	219.39
342.16	220.83
342.54	221.24
342.93	209.73
343.31	220.33
343.69	220.86
344.07	221.32
344.46	221.75
344.84	222.14
345.22	222.37
345.60	222.63
345.99	222.83
346.37	222.96
346.75	223.07
347.13	223.15
347.52	223.22
347.90	223.30
348.28	223.33
348.66	223.40
349.05	223.41
349.43	223.45
349.81	223.51
350.19	223.57
350.57	223.63
350.96	223.71
351.34	223.81
351.72	223.90
352.10	224.01
352.48	224.08
352.87	224.14
353.25	224.20
353.63	224.26
354.01	224.34
354.39	224.41
354.77	224.49
355.15	224.59
355.54	224.65
355.92	224.69
356.30	224.78
356.68	224.92
357.06	224.99
357.44	225.05
357.82	225.11
358.20	225.23
358.58	225.29
358.97	225.35
359.35	225.43
359.73	225.51
360.11	225.56
360.49	225.62
360.87	225.67
361.25	225.74
361.63	225.81
362.01	225.86
362.39	225.89
362.77	225.94
363.15	225.96
363.53	225.99
363.91	226.03
364.29	226.05
364.67	225.97
365.05	225.99
365.43	226.02
365.81	226.05
366.19	226.06
366.57	226.12
366.95	226.12
367.33	226.10
367.71	226.09
368.09	226.10
368.47	226.09
368.85	226.08
369.23	226.08
369.61	226.04
369.99	226.05
370.37	226.04
370.75	226.09
371.13	226.06
371.51	226.02
371.89	226.00
372.27	225.97
372.65	225.93
373.03	225.89
373.41	225.85
373.78	225.79
374.16	225.70
374.54	225.62
374.92	225.57
375.30	225.52
375.68	225.46
376.06	225.41
376.44	225.37
376.82	225.31
377.19	225.26
377.57	225.21
377.95	225.13
378.33	225.07
378.71	224.93
379.09	224.88
379.47	224.84
379.84	224.78
380.22	224.72
380.60	224.66
380.98	224.61
381.36	224.56
381.73	224.50
382.11	224.46
382.49	224.42
382.87	224.36
383.25	224.30
383.62	224.38
384.00	224.31
384.38	224.26
384.76	224.25
385.13	224.23
385.51	224.19
385.89	224.13
386.27	224.10
386.64	224.07
387.02	224.02
387.40	223.97
387.78	223.94
388.15	223.91
388.53	223.86
388.91	223.83
389.29	223.79
389.66	223.78
390.04	223.75
390.42	223.74
390.79	223.73
391.17	223.72
391.55	223.59
391.92	223.58
392.30	223.58
392.68	223.54
393.05	223.52
393.43	223.52
393.81	223.52
394.18	223.50
394.56	223.52
394.94	223.54
395.31	223.54
395.69	223.59
396.06	223.61
396.44	223.64
396.82	223.65
397.19	223.72
397.57	223.74
397.95	223.78
398.32	223.78
398.70	223.82
399.07	223.88
399.45	223.92
399.82	223.96
400.20	223.99
400.58	224.04
400.95	224.06
401.33	224.14
401.70	224.27
402.08	224.35
402.45	224.41
402.83	224.52
403.20	224.62
403.58	224.70
403.95	224.82
404.33	224.95
404.71	225.07
405.08	225.26
405.46	225.39
405.83	225.56
406.21	225.71
406.58	225.90
406.96	226.08
407.33	226.29
407.70	226.54
408.08	226.86
408.45	227.14
408.83	227.45
409.20	227.73
409.58	227.99
409.95	228.35
410.33	228.73
410.70	229.08
411.08	229.50
411.45	229.93
411.82	230.38
412.20	230.89
412.57	231.50
412.95	231.97
413.32	232.60
413.69	233.24
414.07	233.92
414.44	234.66
414.82	235.41
415.19	236.30
415.56	237.18
415.94	238.10
416.31	239.14
416.68	240.19
417.06	241.41
417.43	242.54
417.81	243.84
418.18	245.17
418.55	246.63
418.93	248.14
419.30	249.71
419.67	251.40
420.04	253.14
420.42	254.95
420.79	257.05
421.16	259.17
421.54	261.31
421.91	263.57
422.28	265.90
422.66	268.43
423.03	270.82
423.40	273.35
423.77	276.07
424.15	278.85
424.52	281.73
424.89	284.85
425.26	287.96
425.64	290.85
426.01	294.10
426.38	297.44
426.75	300.88
427.13	304.42
427.50	308.09
427.87	311.93
428.24	315.80
428.61	319.53
428.99	323.52
429.36	327.90
429.73	332.09
430.10	336.28
430.47	340.56
430.85	344.97
431.22	349.65
431.59	354.46
431.96	359.17
432.33	364.41
432.70	369.37
433.08	375.23
433.45	380.75
433.82	386.19
434.19	392.26
434.56	398.24
434.93	403.98
435.30	409.69
435.68	416.07
436.05	422.32
436.42	428.56
436.79	434.25
437.16	440.44
437.53	447.04
437.90	453.63
438.27	460.07
438.64	467.00
439.01	473.31
439.38	479.08
439.75	484.59
440.13	490.84
440.50	496.80
440.87	501.50
441.24	506.66
441.61	512.31
441.98	516.45
442.35	521.39
442.72	526.47
443.09	531.25
443.46	534.31
443.83	536.59
444.20	538.45
444.57	541.21
444.94	542.79
445.31	544.43
445.68	545.82
446.05	546.84
446.42	546.62
446.79	546.27
447.16	545.95
447.53	545.69
447.90	543.78
448.27	541.98
448.64	539.18
449.01	537.34
449.37	533.39
449.74	529.78
450.11	525.14
450.48	520.02
450.85	514.91
451.22	510.56
451.59	506.25
451.96	502.38
452.33	496.75
452.70	491.69
453.07	485.56
453.43	479.46
453.80	473.50
454.17	467.76
454.54	462.44
454.91	456.48
455.28	450.84
455.65	445.51
456.02	439.84
456.38	435.30
456.75	429.41
457.12	424.69
457.49	419.92
457.86	415.37
458.23	411.37
458.59	406.97
458.96	402.47
459.33	398.54
459.70	394.53
460.07	391.48
460.43	387.90
460.80	384.54
461.17	381.61
461.54	378.46
461.91	375.48
462.27	372.44
462.64	369.96
463.01	367.11
463.38	364.26
463.74	361.68
464.11	359.36
464.48	357.27
464.85	355.01
465.21	353.26
465.58	351.36
465.95	349.16
466.32	347.41
466.68	345.70
467.05	343.95
467.42	342.26
467.78	340.43
468.15	338.74
468.52	337.49
468.88	335.83
469.25	334.32
469.62	333.13
469.98	331.86
470.35	330.71
470.72	329.69
471.08	328.65
471.45	327.80
471.82	326.82
472.18	325.82
472.55	325.19
472.92	324.40
473.28	323.76
473.65	323.11
474.02	322.50
474.38	321.99
474.75	321.70
475.11	321.29
475.48	321.14
475.85	320.98
476.21	320.93
476.58	320.94
476.94	321.14
477.31	321.26
477.67	321.39
478.04	321.64
478.41	321.98
478.77	322.43
479.14	322.74
479.50	323.30
479.87	323.98
480.23	324.66
480.60	325.36
480.96	326.07
481.33	327.05
481.69	328.01
482.06	328.98
482.42	329.91
482.79	331.03
483.15	332.31
483.52	333.76
483.88	335.14
484.25	336.61
484.61	338.13
484.98	339.77
485.34	341.62
485.71	343.53
486.07	345.57
486.44	347.61
486.80	349.88
487.17	352.18
487.53	354.70
487.90	357.30
488.26	360.10
488.62	363.09
488.99	366.11
489.35	369.28
489.72	372.71
490.08	376.28
490.44	379.94
490.81	383.77
491.17	387.67
491.54	391.86
491.90	396.14
492.26	400.71
492.63	405.54
492.99	410.56
493.36	415.75
493.72	421.21
494.08	426.83
494.45	432.72
494.81	438.86
495.17	445.09
495.54	451.74
495.90	458.73
496.26	465.85
496.63	473.12
496.99	480.69
497.35	488.58
497.72	496.77
498.08	505.18
498.44	513.80
498.80	522.96
499.17	532.41
499.53	542.17
499.89	552.19
500.26	562.38
500.62	572.79
500.98	583.84
501.34	595.04
501.71	606.74
502.07	618.65
502.43	631.00
502.79	643.80
503.16	656.90
503.52	670.13
503.88	683.82
504.24	697.94
504.60	712.21
504.97	726.92
505.33	741.99
505.69	757.78
506.05	773.85
506.41	790.14
506.78	806.63
507.14	823.69
507.50	841.05
507.86	858.79
508.22	876.82
508.59	894.95
508.95	913.64
509.31	932.84
509.67	952.85
510.03	972.98
510.39	993.18
510.75	1013.55
511.12	1034.31
511.48	1055.28
511.84	1076.57
512.20	1098.15
512.56	1120.50
512.92	1142.96
513.28	1165.39
513.64	1188.13
514.00	1211.24
514.37	1234.93
514.73	1258.60
515.09	1282.08
515.45	1305.72
515.81	1329.57
516.17	1353.62
516.53	1377.51
516.89	1401.17
517.25	1424.72
517.61	1448.58
517.97	1472.72
518.33	1496.81
518.69	1521.08
519.05	1545.63
519.41	1570.08
519.77	1594.99
520.13	1619.15
520.49	1643.36
520.85	1667.53
521.21	1691.66
521.57	1716.35
521.93	1740.25
522.29	1764.57
522.65	1788.79
523.01	1813.10
523.37	1836.90
523.73	1861.20
524.09	1885.33
524.45	1909.60
524.81	1933.74
525.17	1957.19
525.53	1980.36
525.89	2003.46
526.25	2026.58
526.61	2048.31
526.97	2070.45
527.33	2092.41
527.68	2114.25
528.04	2135.69
528.40	2157.11
528.76	2178.17
529.12	2198.44
529.48	2219.31
529.84	2238.18
530.20	2257.57
530.56	2276.39
530.91	2295.81
531.27	2314.58
531.63	2332.68
531.99	2350.28
532.35	2367.41
532.71	2385.51
533.07	2403.91
533.42	2420.65
533.78	2437.81
534.14	2455.44
534.50	2472.07
534.86	2489.00
535.21	2504.10
535.57	2519.20
535.93	2533.65
536.29	2547.61
536.65	2561.05
537.00	2573.33
537.36	2586.63
537.72	2598.55
538.08	2610.58
538.44	2621.27
538.79	2631.59
539.15	2640.96
539.51	2650.28
539.87	2658.52
540.22	2664.31
540.58	2670.16
540.94	2676.63
541.29	2681.88
541.65	2686.98
542.01	2691.83
542.37	2694.78
542.72	2699.22
543.08	2702.65
543.44	2705.82
543.79	2708.12
544.15	2710.15
544.51	2711.70
544.87	2713.17
545.22	2714.29
545.58	2714.09
545.94	2713.86
546.29	2712.53
546.65	2711.41
547.01	2710.03
547.36	2709.14
547.72	2708.68
548.07	2707.06
548.43	2704.08
548.79	2700.74
549.14	2697.30
549.50	2694.08
549.86	2690.55
550.21	2685.82
550.57	2681.57
550.92	2676.05
551.28	2670.58
551.64	2665.01
551.99	2659.49
552.35	2652.82
552.70	2646.37
553.06	2640.73
553.41	2634.84
553.77	2628.63
554.13	2622.45
554.48	2615.07
554.84	2606.85
555.19	2598.44
555.55	2589.22
555.90	2581.19
556.26	2573.50
556.61	2564.89
556.97	2554.90
557.32	2545.12
557.68	2535.43
558.03	2525.46
558.39	2516.38
558.74	2507.92
559.10	2498.12
559.45	2488.24
559.81	2478.74
560.16	2468.61
560.52	2458.18
560.87	2448.00
561.23	2437.19
561.58	2426.82
561.94	2416.37
562.29	2405.47
562.64	2395.12
563.00	2385.08
563.35	2374.94
563.71	2363.89
564.06	2353.15
564.42	2342.68
564.77	2332.12
565.12	2321.40
565.48	2310.19
565.83	2298.73
566.19	2287.06
566.54	2275.87
566.89	2263.87
567.25	2251.91
567.60	2241.04
567.96	2229.58
568.31	2217.04
568.66	2205.01
569.02	2193.13
569.37	2181.68
569.72	2171.05
570.08	2159.28
570.43	2147.17
570.78	2134.75
571.14	2122.42
571.49	2109.79
571.84	2097.39
572.20	2084.17
572.55	2071.01
572.90	2058.30
573.26	2045.90
573.61	2032.64
573.96	2019.77
574.31	2007.49
574.67	1994.98
575.02	1981.33
575.37	1967.75
575.72	1954.70
576.08	1941.69
576.43	1928.19
576.78	1914.65
577.13	1900.74
577.49	1887.33
577.84	1874.20
578.19	1861.09
578.54	1847.54
578.90	1833.81
579.25	1819.80
579.60	1807.02
579.95	1794.44
580.30	1781.66
580.66	1768.33
581.01	1755.05
581.36	1741.34
581.71	1728.07
582.06	1715.06
582.42	1702.46
582.77	1689.85
583.12	1677.46
583.47	1665.37
583.82	1652.84
584.17	1639.58
584.53	1626.64
584.88	1613.82
585.23	1600.84
585.58	1587.91
585.93	1575.54
586.28	1563.69
586.63	1551.81
586.98	1539.40
587.34	1527.11
587.69	1514.22
588.04	1501.80
588.39	1489.91
588.74	1477.84
589.09	1466.05
589.44	1453.59
589.79	1441.25
590.14	1429.19
590.49	1416.97
590.84	1404.82
591.19	1393.37
591.54	1381.89
591.89	1370.18
592.25	1358.99
592.60	1347.48
592.95	1336.35
593.30	1325.08
593.65	1313.94
594.00	1302.99
594.35	1292.54
594.70	1281.24
595.05	1270.87
595.40	1260.21
595.75	1249.29
596.10	1239.03
596.45	1228.37
596.80	1218.44
597.15	1208.67
597.50	1198.78
597.85	1189.33
598.19	1179.88
598.54	1170.10
598.89	1160.97
599.24	1152.18
599.59	1143.35
599.94	1135.03
600.29	1126.33
600.64	1117.68
600.99	1108.39
601.34	1099.61
601.69	1090.63
602.04	1082.58
602.39	1074.09
602.74	1066.12
603.08	1058.46
603.43	1050.52
603.78	1042.51
604.13	1034.57
604.48	1026.43
604.83	1018.53
605.18	1010.46
605.53	1002.33
605.87	994.24
606.22	986.42
606.57	978.34
606.92	970.04
607.27	962.02
607.62	954.28
607.96	946.62
608.31	939.96
608.66	933.00
609.01	926.01
609.36	918.98
609.70	912.05
610.05	904.91
610.40	897.86
610.75	890.70
611.10	884.03
611.44	877.10
611.79	870.53
612.14	863.83
612.49	856.96
612.83	850.58
613.18	844.34
613.53	838.09
613.88	832.03
614.22	826.24
614.57	820.18
614.92	814.23
615.27	808.36
615.61	802.06
615.96	795.89
616.31	789.94
616.65	783.78
617.00	777.72
617.35	771.73
617.70	765.88
618.04	760.25
618.39	754.43
618.74	748.93
619.08	743.21
619.43	737.64
619.78	732.21
620.12	726.56
620.47	721.10
620.82	715.73
621.16	710.43
621.51	704.96
621.85	699.63
622.20	694.14
622.55	688.70
622.89	683.41
623.24	678.27
623.59	673.18
623.93	668.37
624.28	663.73
624.62	659.07
624.97	654.35
625.32	649.66
625.66	644.78
626.01	639.90
626.35	635.19
626.70	630.46
627.04	626.03
627.39	621.63
627.73	617.22
628.08	612.85
628.43	608.44
628.77	604.13
629.12	599.85
629.46	595.80
629.81	591.68
630.15	587.60
630.50	583.55
630.84	579.54
631.19	575.62
631.53	571.78
631.88	567.91
632.22	563.96
632.57	560.28
632.91	556.66
633.26	553.02
633.60	549.42
633.95	545.93
634.29	542.35
634.64	538.79
634.98	535.13
635.32	531.60
635.67	528.32
636.01	525.05
636.36	521.75
636.70	518.57
637.05	515.42
637.39	512.30
637.73	509.00
638.08	505.82
638.42	502.70
638.77	499.44
639.11	496.10
639.45	492.88
639.80	489.66
640.14	486.59
640.49	483.55
640.83	480.43
641.17	477.39
641.52	474.34
641.86	471.27
642.20	468.35
642.55	465.31
642.89	462.29
643.23	459.40
643.58	456.73
643.92	453.95
644.26	451.24
644.61	448.55
644.95	445.93
645.29	443.20
645.64	440.41
645.98	437.74
646.32	435.21
646.66	432.71
647.01	430.23
647.35	427.86
647.69	425.38
648.04	423.00
648.38	420.58
648.72	418.22
649.06	415.92
649.41	413.65
649.75	411.43
650.09	409.14
650.43	406.91
650.78	404.63
651.12	402.37
651.46	400.14
651.80	398.00
652.14	395.94
652.49	393.92
652.83	391.92
653.17	389.99
653.51	388.12
653.85	386.23
654.20	384.32
654.54	382.30
654.88	380.39
655.22	378.51
655.56	376.69
655.90	374.91
656.25	373.16
656.59	371.41
656.93	369.73
657.27	368.17
657.61	366.48
657.95	364.86
658.29	363.28
658.64	361.74
658.98	360.09
659.32	358.41
659.66	356.85
660.00	355.32
660.34	353.77
660.68	352.21
661.02	350.64
661.36	349.10
661.70	347.62
662.05	346.20
662.39	344.79
662.73	343.43
663.07	342.13
663.41	340.85
663.75	339.55
664.09	338.27
664.43	336.92
664.77	335.60
665.11	334.24
665.45	332.95
665.79	331.65
666.13	330.43
666.47	329.27
666.81	328.05
667.15	326.78
667.49	325.60
667.83	324.43
668.17	323.29
668.51	322.20
668.85	321.13
669.19	320.08
669.53	318.93
669.87	317.76
670.21	316.64
670.55	315.52
670.89	314.50
671.23	313.44
671.57	312.41
671.91	311.45
672.25	310.54
672.58	309.62
672.92	308.67
673.26	307.79
673.60	306.88
673.94	305.97
674.28	305.11
674.62	304.24
674.96	303.32
675.30	302.50
675.64	301.65
675.97	300.81
676.31	299.95
676.65	299.14
676.99	298.41
677.33	297.57
677.67	296.78
678.01	295.90
678.34	295.09
678.68	294.33
679.02	293.55
679.36	292.77
679.70	291.99
680.04	291.22
680.37	290.43
680.71	289.69
681.05	288.99
681.39	288.28
681.73	287.55
682.06	286.86
682.40	286.15
682.74	285.46
683.08	284.81
683.42	284.12
683.75	283.48
684.09	282.78
684.43	282.14
684.77	281.48
685.10	280.87
685.44	280.25
685.78	279.63
686.12	279.03
686.45	278.43
686.79	277.79
687.13	277.20
687.46	276.58
687.80	275.98
688.14	275.36
688.48	274.79
688.81	274.20
689.15	273.66
689.49	273.06
689.82	272.47
690.16	271.82
690.50	271.24
690.83	270.66
691.17	270.09
691.51	269.52
691.84	269.01
692.18	268.45
692.52	267.88
692.85	267.33
693.19	266.82
693.52	266.29
693.86	265.78
694.20	265.27
694.53	264.78
694.87	264.26
695.21	263.74
695.54	263.24
695.88	262.73
696.21	262.20
696.55	261.74
696.88	261.27
697.22	260.83
697.56	260.41
697.89	259.94
698.23	259.51
698.56	259.06
698.90	258.66
699.23	258.24
699.57	257.83
699.90	257.41
700.24	256.97
700.58	256.57
700.91	256.19
701.25	255.88
701.58	255.53
701.92	255.18
702.25	254.81
702.59	254.41
702.92	254.05
703.26	253.69
703.59	253.32
703.93	253.04
704.26	252.70
704.60	252.33
704.93	251.96
705.26	251.59
705.60	251.27
705.93	250.91
706.27	250.62
706.60	250.32
706.94	250.04
707.27	249.70
707.61	249.37
707.94	249.03
708.27	248.63
708.61	248.27
708.94	247.95
709.28	247.65
709.61	247.36
709.94	247.08
710.28	246.82
710.61	246.55
710.95	246.19
711.28	245.99
711.61	245.72
711.95	245.50
712.28	245.24
712.61	244.97
712.95	244.75
713.28	244.52
713.61	244.23
713.95	243.94
714.28	243.70
714.61	243.45
714.95	243.21
715.28	242.97
715.61	242.72
715.95	242.50
716.28	242.28
716.61	242.08
716.95	241.84
717.28	241.61
717.61	241.38
717.94	241.17
718.28	240.89
718.61	240.69
718.94	240.47
719.27	240.27
719.61	240.10
719.94	239.89
720.27	239.64
720.60	239.46
720.94	239.28
721.27	239.09
721.60	238.93
721.93	238.76
722.27	238.62
722.60	238.45
722.93	238.26
723.26	238.09
723.59	237.89
723.93	237.74
724.26	237.58
724.59	237.42
724.92	237.26
725.25	237.12
725.59	236.96
725.92	236.82
726.25	236.67
726.58	236.52
726.91	236.37
727.24	236.25
727.57	236.10
727.91	235.94
728.24	235.82
728.57	235.67
728.90	235.55
729.23	235.38
729.56	235.29
729.89	235.17
730.22	235.03
730.55	234.91
730.89	234.78
731.22	234.65
731.55	234.52
731.88	234.40
732.21	234.27
732.54	234.13
732.87	234.02
733.20	233.90
733.53	233.78
733.86	233.67
734.19	233.55
734.52	233.47
734.85	233.44
735.18	233.31
735.51	233.23
735.84	233.13
736.17	233.05
736.50	232.89
736.83	232.91
737.16	232.82
737.49	232.72
737.82	232.62
738.15	232.55
738.48	232.46
738.81	232.36
739.14	232.25
739.47	232.17
739.80	232.06
740.13	231.98
740.46	231.88
740.79	231.76
741.12	231.66
741.45	231.54
741.78	231.39
742.11	231.33
742.44	231.22
742.77	231.14
743.10	231.04
743.43	230.96
743.75	230.77
744.08	230.85
744.41	230.76
744.74	230.69
745.07	230.57
745.40	230.51
745.73	230.49
746.06	230.42
746.39	230.36
746.71	230.29
747.04	230.20
747.37	230.13
747.70	230.09
748.03	230.04
748.36	229.99
748.68	229.92
749.01	229.83
749.34	229.76
749.67	229.70
750.00	229.65
750.33	229.67
750.65	229.61
750.98	229.40
751.31	229.34
751.64	229.29
751.97	229.29
752.29	229.21
752.62	229.11
752.95	229.04
753.28	228.96
753.60	228.90
753.93	228.87
754.26	228.83
754.59	228.73
754.91	228.64
755.24	228.57
755.57	228.55
755.90	228.50
756.22	228.43
756.55	228.35
756.88	228.27
757.20	228.14
757.53	228.06
757.86	227.99
758.19	227.93
758.51	227.87
758.84	227.76
759.17	227.70
759.49	227.64
759.82	227.64
760.15	227.60
760.47	227.55
760.80	227.47
761.13	227.43
761.45	227.39
761.78	227.35
762.11	227.31
762.43	227.21
762.76	227.17
763.08	227.14
763.41	227.11
763.74	227.07
764.06	227.02
764.39	226.97
764.71	226.94
765.04	226.89
765.37	226.85
765.69	226.81
766.02	226.77
766.34	226.72
766.67	226.65
767.00	226.63
767.32	226.65
767.65	226.68
767.97	226.63
768.30	226.60
768.62	226.57
768.95	226.53
769.27	226.49
769.60	226.47
769.92	226.42
770.25	226.37
770.57	226.32
770.90	226.29
771.22	226.25
771.55	226.22
771.87	226.19
772.20	226.15
772.52	226.21
772.85	226.30
773.17	226.28
773.50	226.23
773.82	226.18
774.15	226.11
774.47	226.00
774.80	225.98
775.12	225.95
775.45	225.92
775.77	225.91
776.09	225.90
776.42	225.87
776.74	225.88
777.07	225.85
777.39	225.83
777.72	225.81
778.04	225.80
778.36	225.77
778.69	225.75
779.01	225.74
779.33	225.64
779.66	225.50
779.98	225.47
780.31	225.46
780.63	225.48
780.95	225.48
781.28	225.47
781.60	225.43
781.92	225.40
782.25	225.39
782.57	225.36
782.89	225.34
783.22	225.30
783.54	225.26
783.86	225.24
784.19	225.22
784.51	225.24
784.83	225.21
785.16	225.19
785.48	225.18
785.80	225.16
786.12	225.14
786.45	225.13
786.77	225.13
787.09	225.10
787.42	225.05
787.74	225.03
788.06	225.01
788.38	225.00
788.71	224.97
789.03	224.95
789.35	224.95
789.67	224.91
789.99	224.90
790.32	224.87
790.64	224.88
790.96	224.96
791.28	224.90
791.61	224.88
791.93	224.87
792.25	224.84
792.57	224.90
792.89	224.87
793.21	224.86
793.54	224.84
793.86	224.82
794.18	224.80
794.50	224.78
794.82	224.76
795.14	224.77
795.47	224.78
795.79	224.78
796.11	224.74
796.43	224.73
796.75	224.73
797.07	224.73
797.39	224.70
797.71	224.61
798.04	224.60
798.36	224.60
798.68	224.58
799.00	224.57
799.32	224.50
799.64	224.51
799.96	224.49
800.28	224.50
800.60	224.49
800.92	224.49
801.24	224.47
801.56	224.46
801.89	224.44
802.21	224.43
802.53	224.40
802.85	224.41
803.17	224.45
803.49	224.42
803.81	224.39
804.13	224.38
804.45	224.36
804.77	224.36
805.09	224.35
805.41	224.33
805.73	224.31
806.05	224.28
806.37	224.26
806.69	224.25
807.01	224.22
807.33	224.22
807.65	224.17
807.97	224.21
808.28	224.19
808.60	224.19
808.92	224.17
809.24	224.23
809.56	224.21
809.88	224.17
810.20	224.18
810.52	224.20
810.84	224.17
811.16	224.15
811.48	224.14
811.80	224.17
812.12	224.16
812.43	224.17
812.75	224.18
813.07	224.16
813.39	224.15
813.71	224.14
814.03	224.12
814.35	224.12
814.67	224.07
814.98	224.05
815.30	224.03
815.62	224.00
815.94	223.93
816.26	223.94
816.58	223.91
816.89	223.91
817.21	223.88
817.53	223.88
817.85	223.89
818.17	223.88
