SpectraSuite Data File
++++++++++++++++++++++++++++++++++++
Date: Thu Oct 01 11:38:12 EDT 2015
User: lab3
Dark Spectrum Present: No
Reference Spectrum Present: No
Number of Sampled Component Spectra: 1
Spectrometers: USB2E7196
Integration Time (usec): 36000 (USB2E7196)
Spectra Averaged: 10000 (USB2E7196)
Boxcar Smoothing: 10 (USB2E7196)
Correct for Electrical Dark: No (USB2E7196)
Strobe/Lamp Enabled: No (USB2E7196)
Correct for Detector Non-linearity: No (USB2E7196)
Correct for Stray Light: No (USB2E7196)
Number of Pixels in Processed Spectrum: 2048
>>>>>Begin Processed Spectral Data<<<<<
339.09	0.00
339.48	210.99
339.86	212.51
340.24	213.78
340.63	215.28
341.01	218.24
341.39	218.00
341.78	219.28
342.16	220.50
342.54	220.97
342.93	209.55
343.31	220.14
343.69	220.68
344.07	221.14
344.46	221.58
344.84	221.96
345.22	222.20
345.60	222.45
345.99	222.65
346.37	222.79
346.75	222.90
347.13	222.97
347.52	223.04
347.90	223.12
348.28	223.15
348.66	223.21
349.05	223.21
349.43	223.26
349.81	223.31
350.19	223.37
350.57	223.44
350.96	223.52
351.34	223.62
351.72	223.71
352.10	223.81
352.48	223.89
352.87	223.94
353.25	224.01
353.63	224.07
354.01	224.13
354.39	224.21
354.77	224.29
355.15	224.39
355.54	224.45
355.92	224.48
356.30	224.56
356.68	224.70
357.06	224.77
357.44	224.82
357.82	224.89
358.20	225.00
358.58	225.06
358.97	225.12
359.35	225.20
359.73	225.28
360.11	225.33
360.49	225.39
360.87	225.44
361.25	225.50
361.63	225.58
362.01	225.63
362.39	225.66
362.77	225.71
363.15	225.73
363.53	225.77
363.91	225.80
364.29	225.82
364.67	225.74
365.05	225.77
365.43	225.80
365.81	225.82
366.19	225.84
366.57	225.89
366.95	225.89
367.33	225.86
367.71	225.86
368.09	225.88
368.47	225.88
368.85	225.87
369.23	225.88
369.61	225.82
369.99	225.84
370.37	225.83
370.75	225.89
371.13	225.86
371.51	225.82
371.89	225.80
372.27	225.77
372.65	225.75
373.03	225.71
373.41	225.66
373.78	225.61
374.16	225.52
374.54	225.44
374.92	225.39
375.30	225.35
375.68	225.28
376.06	225.23
376.44	225.18
376.82	225.13
377.19	225.08
377.57	225.03
377.95	224.94
378.33	224.88
378.71	224.74
379.09	224.69
379.47	224.65
379.84	224.59
380.22	224.53
380.60	224.45
380.98	224.41
381.36	224.35
381.73	224.30
382.11	224.26
382.49	224.22
382.87	224.16
383.25	224.11
383.62	224.19
384.00	224.13
384.38	224.09
384.76	224.07
385.13	224.05
385.51	224.01
385.89	223.96
386.27	223.92
386.64	223.90
387.02	223.85
387.40	223.80
387.78	223.77
388.15	223.75
388.53	223.72
388.91	223.69
389.29	223.66
389.66	223.65
390.04	223.61
390.42	223.61
390.79	223.59
391.17	223.57
391.55	223.44
391.92	223.42
392.30	223.42
392.68	223.39
393.05	223.37
393.43	223.36
393.81	223.36
394.18	223.35
394.56	223.35
394.94	223.38
395.31	223.39
395.69	223.43
396.06	223.45
396.44	223.48
396.82	223.49
397.19	223.56
397.57	223.57
397.95	223.62
398.32	223.61
398.70	223.65
399.07	223.71
399.45	223.75
399.82	223.80
400.20	223.83
400.58	223.89
400.95	223.91
401.33	223.99
401.70	224.13
402.08	224.22
402.45	224.30
402.83	224.41
403.20	224.51
403.58	224.59
403.95	224.72
404.33	224.86
404.71	224.99
405.08	225.17
405.46	225.32
405.83	225.48
406.21	225.66
406.58	225.86
406.96	226.05
407.33	226.27
407.70	226.52
408.08	226.86
408.45	227.15
408.83	227.47
409.20	227.76
409.58	228.03
409.95	228.38
410.33	228.76
410.70	229.13
411.08	229.56
411.45	230.02
411.82	230.48
412.20	231.00
412.57	231.63
412.95	232.12
413.32	232.77
413.69	233.43
414.07	234.13
414.44	234.89
414.82	235.67
415.19	236.58
415.56	237.50
415.94	238.46
416.31	239.54
416.68	240.62
417.06	241.87
417.43	243.04
417.81	244.40
418.18	245.79
418.55	247.30
418.93	248.87
419.30	250.51
419.67	252.26
420.04	254.05
420.42	255.92
420.79	258.09
421.16	260.27
421.54	262.49
421.91	264.82
422.28	267.23
422.66	269.83
423.03	272.30
423.40	274.90
423.77	277.68
424.15	280.54
424.52	283.50
424.89	286.71
425.26	289.91
425.64	292.87
426.01	296.19
426.38	299.59
426.75	303.08
427.13	306.66
427.50	310.40
427.87	314.28
428.24	318.21
428.61	321.96
428.99	325.99
429.36	330.43
429.73	334.65
430.10	338.86
430.47	343.17
430.85	347.59
431.22	352.31
431.59	357.14
431.96	361.84
432.33	367.05
432.70	371.98
433.08	377.81
433.45	383.32
433.82	388.74
434.19	394.80
434.56	400.75
434.93	406.49
435.30	412.16
435.68	418.55
436.05	424.80
436.42	431.06
436.79	436.76
437.16	442.90
437.53	449.51
437.90	456.11
438.27	462.55
438.64	469.56
439.01	475.90
439.38	481.70
439.75	487.32
440.13	493.73
440.50	499.84
440.87	504.68
441.24	510.00
441.61	515.87
441.98	520.18
442.35	525.33
442.72	530.62
443.09	535.68
443.46	538.99
443.83	541.47
444.20	543.57
444.57	546.63
444.94	548.51
445.31	550.44
445.68	552.17
446.05	553.52
446.42	553.50
446.79	553.37
447.16	553.30
447.53	553.26
447.90	551.52
448.27	549.89
448.64	547.21
449.01	545.47
449.37	541.56
449.74	538.01
450.11	533.41
450.48	528.31
450.85	523.18
451.22	518.83
451.59	514.58
451.96	510.71
452.33	504.98
452.70	499.87
453.07	493.63
453.43	487.37
453.80	481.30
454.17	475.47
454.54	470.06
454.91	463.93
455.28	458.15
455.65	452.70
456.02	446.86
456.38	442.17
456.75	436.12
457.12	431.23
457.49	426.30
457.86	421.59
458.23	417.45
458.59	412.88
458.96	408.16
459.33	404.00
459.70	399.77
460.07	396.54
460.43	392.75
460.80	389.20
461.17	386.06
461.54	382.68
461.91	379.52
462.27	376.31
462.64	373.68
463.01	370.67
463.38	367.64
463.74	364.91
464.11	362.47
464.48	360.27
464.85	357.91
465.21	356.09
465.58	354.10
465.95	351.80
466.32	349.97
466.68	348.18
467.05	346.39
467.42	344.65
467.78	342.78
468.15	341.06
468.52	339.78
468.88	338.10
469.25	336.57
469.62	335.36
469.98	334.03
470.35	332.86
470.72	331.82
471.08	330.75
471.45	329.85
471.82	328.87
472.18	327.85
472.55	327.19
472.92	326.39
473.28	325.75
473.65	325.10
474.02	324.49
474.38	323.99
474.75	323.71
475.11	323.30
475.48	323.14
475.85	322.99
476.21	322.95
476.58	322.96
476.94	323.16
477.31	323.29
477.67	323.45
478.04	323.73
478.41	324.08
478.77	324.56
479.14	324.91
479.50	325.49
479.87	326.20
480.23	326.92
480.60	327.61
480.96	328.33
481.33	329.32
481.69	330.30
482.06	331.27
482.42	332.19
482.79	333.29
483.15	334.55
483.52	335.96
483.88	337.34
484.25	338.78
484.61	340.29
484.98	341.93
485.34	343.76
485.71	345.65
486.07	347.66
486.44	349.67
486.80	351.90
487.17	354.17
487.53	356.69
487.90	359.30
488.26	362.12
488.62	365.10
488.99	368.10
489.35	371.22
489.72	374.60
490.08	378.14
490.44	381.78
490.81	385.59
491.17	389.49
491.54	393.65
491.90	397.92
492.26	402.52
492.63	407.37
492.99	412.39
493.36	417.54
493.72	422.96
494.08	428.53
494.45	434.41
494.81	440.51
495.17	446.74
495.54	453.31
495.90	460.21
496.26	467.23
496.63	474.51
496.99	482.08
497.35	490.02
497.72	498.27
498.08	506.66
498.44	515.34
498.80	524.57
499.17	534.03
499.53	543.84
499.89	553.87
500.26	564.08
500.62	574.58
500.98	585.77
501.34	597.12
501.71	609.02
502.07	621.14
502.43	633.66
502.79	646.51
503.16	659.78
503.52	673.24
503.88	687.10
504.24	701.37
504.60	715.92
504.97	730.88
505.33	746.23
505.69	762.51
506.05	778.98
506.41	795.45
506.78	812.23
507.14	829.47
507.50	847.34
507.86	865.60
508.22	884.15
508.59	902.73
508.95	922.01
509.31	941.72
509.67	962.18
510.03	982.83
510.39	1003.69
510.75	1024.80
511.12	1046.21
511.48	1067.91
511.84	1089.72
512.20	1111.85
512.56	1135.10
512.92	1158.52
513.28	1181.62
513.64	1205.08
514.00	1228.94
514.37	1253.13
514.73	1277.36
515.09	1301.38
515.45	1325.84
515.81	1350.82
516.17	1375.85
516.53	1400.55
516.89	1425.29
517.25	1450.21
517.61	1475.34
517.97	1500.69
518.33	1525.73
518.69	1550.89
519.05	1576.33
519.41	1601.90
519.77	1627.73
520.13	1652.72
520.49	1677.90
520.85	1703.30
521.21	1728.59
521.57	1754.44
521.93	1779.58
522.29	1805.53
522.65	1831.22
523.01	1856.67
523.37	1881.36
523.73	1906.68
524.09	1932.20
524.45	1957.65
524.81	1982.57
525.17	2007.39
525.53	2031.72
525.89	2056.06
526.25	2080.65
526.61	2104.69
526.97	2128.97
527.33	2153.21
527.68	2177.27
528.04	2200.46
528.40	2223.49
528.76	2246.70
529.12	2268.85
529.48	2291.35
529.84	2311.97
530.20	2333.17
530.56	2354.00
530.91	2374.90
531.27	2395.32
531.63	2415.04
531.99	2434.20
532.35	2453.02
532.71	2471.93
533.07	2491.40
533.42	2509.39
533.78	2527.72
534.14	2546.04
534.50	2563.49
534.86	2581.54
535.21	2597.69
535.57	2613.76
535.93	2629.18
536.29	2643.34
536.65	2658.39
537.00	2672.31
537.36	2686.78
537.72	2700.15
538.08	2713.12
538.44	2724.99
538.79	2736.99
539.15	2747.34
539.51	2757.65
539.87	2767.63
540.22	2775.47
540.58	2783.44
540.94	2791.90
541.29	2798.85
541.65	2804.80
542.01	2810.25
542.37	2813.85
542.72	2819.43
543.08	2824.47
543.44	2829.29
543.79	2833.35
544.15	2836.42
544.51	2839.47
544.87	2841.63
545.22	2843.40
545.58	2844.29
545.94	2845.64
546.29	2845.46
546.65	2845.39
547.01	2845.43
547.36	2845.54
547.72	2845.81
548.07	2844.59
548.43	2842.73
548.79	2840.25
549.14	2837.78
549.50	2836.04
549.86	2833.30
550.21	2828.18
550.57	2823.46
550.92	2817.38
551.28	2811.91
551.64	2806.42
551.99	2801.28
552.35	2795.74
552.70	2789.73
553.06	2784.46
553.41	2778.65
553.77	2772.42
554.13	2766.90
554.48	2760.34
554.84	2752.17
555.19	2744.20
555.55	2735.68
555.90	2727.77
556.26	2720.80
556.61	2713.20
556.97	2703.32
557.32	2694.41
557.68	2685.91
558.03	2676.82
558.39	2668.45
558.74	2660.12
559.10	2650.58
559.45	2640.68
559.81	2631.18
560.16	2620.99
560.52	2610.37
560.87	2600.80
561.23	2590.75
561.58	2580.19
561.94	2569.43
562.29	2558.14
562.64	2547.49
563.00	2537.21
563.35	2526.79
563.71	2515.48
564.06	2503.62
564.42	2492.83
564.77	2481.66
565.12	2470.57
565.48	2459.26
565.83	2448.55
566.19	2437.89
566.54	2426.78
566.89	2414.87
567.25	2402.89
567.60	2391.74
567.96	2380.20
568.31	2367.19
568.66	2354.18
569.02	2342.25
569.37	2330.02
569.72	2318.35
570.08	2305.98
570.43	2293.07
570.78	2279.81
571.14	2266.34
571.49	2253.74
571.84	2241.39
572.20	2227.75
572.55	2214.50
572.90	2201.14
573.26	2186.81
573.61	2171.98
573.96	2157.51
574.31	2143.39
574.67	2129.43
575.02	2115.07
575.37	2100.23
575.72	2085.72
576.08	2071.79
576.43	2056.83
576.78	2042.01
577.13	2028.01
577.49	2013.94
577.84	2000.25
578.19	1985.75
578.54	1970.95
578.90	1955.58
579.25	1939.98
579.60	1925.78
579.95	1911.18
580.30	1896.63
580.66	1882.43
581.01	1867.86
581.36	1853.59
581.71	1839.88
582.06	1825.69
582.42	1811.58
582.77	1798.26
583.12	1784.54
583.47	1770.93
583.82	1757.45
584.17	1743.84
584.53	1730.03
584.88	1716.28
585.23	1702.13
585.58	1688.53
585.93	1675.36
586.28	1663.06
586.63	1650.53
586.98	1637.35
587.34	1624.39
587.69	1610.94
588.04	1597.74
588.39	1585.18
588.74	1572.19
589.09	1558.89
589.44	1545.60
589.79	1532.87
590.14	1520.00
590.49	1507.38
590.84	1494.59
591.19	1482.44
591.54	1469.78
591.89	1457.01
592.25	1444.56
592.60	1431.80
592.95	1419.57
593.30	1407.61
593.65	1395.39
594.00	1383.43
594.35	1372.24
594.70	1360.29
595.05	1349.39
595.40	1338.28
595.75	1326.60
596.10	1315.72
596.45	1305.06
596.80	1294.86
597.15	1284.45
597.50	1274.04
597.85	1263.81
598.19	1253.81
598.54	1243.19
598.89	1233.34
599.24	1223.78
599.59	1214.02
599.94	1205.26
600.29	1196.34
600.64	1187.21
600.99	1177.51
601.34	1168.27
601.69	1158.46
602.04	1149.70
602.39	1140.75
602.74	1132.05
603.08	1123.62
603.43	1114.67
603.78	1105.68
604.13	1096.80
604.48	1087.87
604.83	1079.19
605.18	1070.42
605.53	1061.57
605.87	1052.88
606.22	1044.43
606.57	1035.72
606.92	1027.12
607.27	1018.38
607.62	1009.77
607.96	1001.29
608.31	993.82
608.66	985.90
609.01	978.42
609.36	970.88
609.70	963.13
610.05	955.22
610.40	947.66
610.75	940.21
611.10	933.01
611.44	925.44
611.79	918.17
612.14	910.53
612.49	903.05
612.83	896.02
613.18	889.04
613.53	881.87
613.88	874.80
614.22	868.28
614.57	861.58
614.92	854.88
615.27	848.24
615.61	841.45
615.96	834.88
616.31	828.25
616.65	821.51
617.00	815.01
617.35	808.66
617.70	802.33
618.04	796.09
618.39	789.83
618.74	783.92
619.08	777.84
619.43	772.01
619.78	766.19
620.12	760.19
620.47	754.36
620.82	748.63
621.16	743.18
621.51	737.40
621.85	731.63
622.20	725.89
622.55	720.33
622.89	714.71
623.24	709.15
623.59	703.64
623.93	698.20
624.28	692.91
624.62	687.59
624.97	682.27
625.32	677.04
625.66	671.70
626.01	666.34
626.35	661.10
626.70	655.92
627.04	650.93
627.39	646.00
627.73	641.18
628.08	636.56
628.43	631.82
628.77	627.14
629.12	622.61
629.46	618.24
629.81	613.69
630.15	609.03
630.50	604.55
630.84	600.25
631.19	596.13
631.53	592.04
631.88	587.84
632.22	583.74
632.57	579.88
632.91	575.96
633.26	572.13
633.60	568.35
633.95	564.67
634.29	560.85
634.64	557.01
634.98	553.09
635.32	549.33
635.67	545.69
636.01	542.00
636.36	538.36
636.70	534.85
637.05	531.35
637.39	528.05
637.73	524.62
638.08	521.23
638.42	517.82
638.77	514.28
639.11	510.75
639.45	507.26
639.80	503.76
640.14	500.44
640.49	497.08
640.83	493.63
641.17	490.23
641.52	486.97
641.86	483.70
642.20	480.60
642.55	477.35
642.89	474.20
643.23	471.23
643.58	468.48
643.92	465.62
644.26	462.77
644.61	459.91
644.95	457.07
645.29	454.18
645.64	451.28
645.98	448.50
646.32	445.89
646.66	443.27
647.01	440.64
647.35	438.06
647.69	435.36
648.04	432.84
648.38	430.33
648.72	427.79
649.06	425.32
649.41	422.86
649.75	420.40
650.09	417.97
650.43	415.55
650.78	413.11
651.12	410.66
651.46	408.32
651.80	406.06
652.14	403.87
652.49	401.68
652.83	399.56
653.17	397.43
653.51	395.35
653.85	393.33
654.20	391.26
654.54	389.12
654.88	387.17
655.22	385.26
655.56	383.32
655.90	381.46
656.25	379.62
656.59	377.79
656.93	376.06
657.27	374.36
657.61	372.55
657.95	370.81
658.29	369.09
658.64	367.38
658.98	365.67
659.32	363.97
659.66	362.38
660.00	360.80
660.34	359.25
660.68	357.66
661.02	356.00
661.36	354.44
661.70	352.96
662.05	351.44
662.39	349.93
662.73	348.50
663.07	347.10
663.41	345.71
663.75	344.35
664.09	342.99
664.43	341.55
664.77	340.21
665.11	338.81
665.45	337.49
665.79	336.16
666.13	334.83
666.47	333.48
666.81	332.11
667.15	330.70
667.49	329.40
667.83	328.14
668.17	326.93
668.51	325.74
668.85	324.55
669.19	323.44
669.53	322.26
669.87	321.06
670.21	319.88
670.55	318.73
670.89	317.64
671.23	316.52
671.57	315.43
671.91	314.38
672.25	313.39
672.58	312.39
672.92	311.36
673.26	310.40
673.60	309.44
673.94	308.47
674.28	307.57
674.62	306.65
674.96	305.69
675.30	304.79
675.64	303.87
675.97	302.97
676.31	302.03
676.65	301.11
676.99	300.26
677.33	299.36
677.67	298.51
678.01	297.57
678.34	296.71
678.68	295.90
679.02	295.06
679.36	294.22
679.70	293.40
680.04	292.59
680.37	291.79
680.71	291.02
681.05	290.29
681.39	289.51
681.73	288.71
682.06	287.94
682.40	287.18
682.74	286.46
683.08	285.76
683.42	285.03
683.75	284.38
684.09	283.63
684.43	282.95
684.77	282.25
685.10	281.60
685.44	280.93
685.78	280.25
686.12	279.61
686.45	278.96
686.79	278.30
687.13	277.68
687.46	277.02
687.80	276.39
688.14	275.71
688.48	275.10
688.81	274.49
689.15	273.93
689.49	273.32
689.82	272.73
690.16	272.08
690.50	271.50
690.83	270.92
691.17	270.35
691.51	269.80
691.84	269.27
692.18	268.70
692.52	268.13
692.85	267.57
693.19	267.05
693.52	266.53
693.86	266.00
694.20	265.49
694.53	265.00
694.87	264.49
695.21	264.01
695.54	263.52
695.88	263.03
696.21	262.50
696.55	262.02
696.88	261.54
697.22	261.09
697.56	260.62
697.89	260.11
698.23	259.64
698.56	259.15
698.90	258.70
699.23	258.24
699.57	257.81
699.90	257.38
700.24	256.91
700.58	256.49
700.91	256.10
701.25	255.77
701.58	255.41
701.92	255.03
702.25	254.64
702.59	254.24
702.92	253.86
703.26	253.49
703.59	253.11
703.93	252.82
704.26	252.47
704.60	252.12
704.93	251.78
705.26	251.43
705.60	251.12
705.93	250.75
706.27	250.46
706.60	250.15
706.94	249.86
707.27	249.51
707.61	249.17
707.94	248.83
708.27	248.42
708.61	248.06
708.94	247.73
709.28	247.42
709.61	247.11
709.94	246.83
710.28	246.54
710.61	246.28
710.95	245.91
711.28	245.71
711.61	245.43
711.95	245.19
712.28	244.92
712.61	244.64
712.95	244.44
713.28	244.23
713.61	243.96
713.95	243.69
714.28	243.46
714.61	243.21
714.95	242.98
715.28	242.74
715.61	242.51
715.95	242.29
716.28	242.06
716.61	241.85
716.95	241.62
717.28	241.41
717.61	241.19
717.94	240.97
718.28	240.69
718.61	240.48
718.94	240.25
719.27	240.05
719.61	239.87
719.94	239.64
720.27	239.40
720.60	239.21
720.94	239.02
721.27	238.84
721.60	238.69
721.93	238.50
722.27	238.36
722.60	238.20
722.93	238.02
723.26	237.85
723.59	237.66
723.93	237.51
724.26	237.35
724.59	237.19
724.92	237.04
725.25	236.91
725.59	236.76
725.92	236.63
726.25	236.48
726.58	236.34
726.91	236.18
727.24	236.05
727.57	235.91
727.91	235.75
728.24	235.62
728.57	235.47
728.90	235.35
729.23	235.18
729.56	235.09
729.89	234.96
730.22	234.82
730.55	234.70
730.89	234.57
731.22	234.44
731.55	234.31
731.88	234.19
732.21	234.05
732.54	233.93
732.87	233.81
733.20	233.70
733.53	233.59
733.86	233.49
734.19	233.36
734.52	233.27
734.85	233.24
735.18	233.11
735.51	233.04
735.84	232.94
736.17	232.86
736.50	232.71
736.83	232.74
737.16	232.64
737.49	232.55
737.82	232.45
738.15	232.38
738.48	232.29
738.81	232.19
739.14	232.09
739.47	231.99
739.80	231.90
740.13	231.81
740.46	231.71
740.79	231.60
741.12	231.52
741.45	231.41
741.78	231.26
742.11	231.21
742.44	231.10
742.77	231.02
743.10	230.92
743.43	230.83
743.75	230.64
744.08	230.71
744.41	230.62
744.74	230.54
745.07	230.44
745.40	230.37
745.73	230.34
746.06	230.27
746.39	230.22
746.71	230.13
747.04	230.05
747.37	229.98
747.70	229.93
748.03	229.86
748.36	229.81
748.68	229.74
749.01	229.64
749.34	229.57
749.67	229.50
750.00	229.45
750.33	229.47
750.65	229.41
750.98	229.20
751.31	229.14
751.64	229.08
751.97	229.07
752.29	229.01
752.62	228.89
752.95	228.82
753.28	228.74
753.60	228.67
753.93	228.64
754.26	228.58
754.59	228.49
754.91	228.42
755.24	228.35
755.57	228.33
755.90	228.27
756.22	228.20
756.55	228.12
756.88	228.04
757.20	227.91
757.53	227.83
757.86	227.77
758.19	227.72
758.51	227.67
758.84	227.56
759.17	227.50
759.49	227.46
759.82	227.46
760.15	227.42
760.47	227.37
760.80	227.30
761.13	227.26
761.45	227.22
761.78	227.17
762.11	227.13
762.43	227.03
762.76	226.99
763.08	226.96
763.41	226.92
763.74	226.89
764.06	226.84
764.39	226.81
764.71	226.76
765.04	226.71
765.37	226.66
765.69	226.62
766.02	226.58
766.34	226.53
766.67	226.45
767.00	226.42
767.32	226.44
767.65	226.47
767.97	226.42
768.30	226.39
768.62	226.36
768.95	226.31
769.27	226.27
769.60	226.25
769.92	226.20
770.25	226.15
770.57	226.10
770.90	226.07
771.22	226.02
771.55	226.00
771.87	225.98
772.20	225.94
772.52	226.00
772.85	226.10
773.17	226.07
773.50	226.04
773.82	225.99
774.15	225.91
774.47	225.81
774.80	225.77
775.12	225.74
775.45	225.71
775.77	225.69
776.09	225.67
776.42	225.65
776.74	225.66
777.07	225.63
777.39	225.62
777.72	225.58
778.04	225.57
778.36	225.54
778.69	225.51
779.01	225.50
779.33	225.39
779.66	225.25
779.98	225.22
780.31	225.20
780.63	225.23
780.95	225.23
781.28	225.21
781.60	225.18
781.92	225.16
782.25	225.14
782.57	225.12
782.89	225.10
783.22	225.07
783.54	225.02
783.86	225.01
784.19	224.98
784.51	225.00
784.83	224.97
785.16	224.95
785.48	224.93
785.80	224.91
786.12	224.91
786.45	224.89
786.77	224.88
787.09	224.85
787.42	224.80
787.74	224.79
788.06	224.77
788.38	224.75
788.71	224.73
789.03	224.71
789.35	224.71
789.67	224.68
789.99	224.68
790.32	224.65
790.64	224.65
790.96	224.73
791.28	224.68
791.61	224.66
791.93	224.66
792.25	224.64
792.57	224.70
792.89	224.67
793.21	224.67
793.54	224.65
793.86	224.63
794.18	224.62
794.50	224.59
794.82	224.57
795.14	224.58
795.47	224.58
795.79	224.58
796.11	224.54
796.43	224.53
796.75	224.51
797.07	224.51
797.39	224.49
797.71	224.39
798.04	224.38
798.36	224.38
798.68	224.37
799.00	224.36
799.32	224.30
799.64	224.30
799.96	224.29
800.28	224.30
800.60	224.28
800.92	224.28
801.24	224.26
801.56	224.26
801.89	224.24
802.21	224.23
802.53	224.21
802.85	224.22
803.17	224.26
803.49	224.23
803.81	224.21
804.13	224.20
804.45	224.17
804.77	224.17
805.09	224.16
805.41	224.15
805.73	224.11
806.05	224.07
806.37	224.06
806.69	224.05
807.01	224.03
807.33	224.02
807.65	223.98
807.97	224.02
808.28	223.99
808.60	223.99
808.92	223.96
809.24	224.02
809.56	223.99
809.88	223.95
810.20	223.95
810.52	223.96
810.84	223.94
811.16	223.93
811.48	223.92
811.80	223.95
812.12	223.94
812.43	223.95
812.75	223.95
813.07	223.94
813.39	223.94
813.71	223.92
814.03	223.91
814.35	223.91
814.67	223.86
814.98	223.84
815.30	223.83
815.62	223.82
815.94	223.74
816.26	223.74
816.58	223.71
816.89	223.71
817.21	223.68
817.53	223.68
817.85	223.68
