SpectraSuite Data File
++++++++++++++++++++++++++++++++++++
Date: Thu Oct 01 04:15:51 EDT 2015
User: lab3
Dark Spectrum Present: No
Reference Spectrum Present: No
Number of Sampled Component Spectra: 1
Spectrometers: USB2E7196
Integration Time (usec): 36000 (USB2E7196)
Spectra Averaged: 10000 (USB2E7196)
Boxcar Smoothing: 10 (USB2E7196)
Correct for Electrical Dark: No (USB2E7196)
Strobe/Lamp Enabled: No (USB2E7196)
Correct for Detector Non-linearity: No (USB2E7196)
Correct for Stray Light: No (USB2E7196)
Number of Pixels in Processed Spectrum: 2048
>>>>>Begin Processed Spectral Data<<<<<
339.09	0.00
339.48	210.55
339.86	212.09
340.24	213.43
340.63	214.84
341.01	217.84
341.39	217.51
341.78	218.86
342.16	220.04
342.54	220.53
342.93	209.14
343.31	219.71
343.69	220.25
344.07	220.71
344.46	221.14
344.84	221.53
345.22	221.76
345.60	222.02
345.99	222.21
346.37	222.35
346.75	222.46
347.13	222.54
347.52	222.62
347.90	222.70
348.28	222.73
348.66	222.79
349.05	222.79
349.43	222.85
349.81	222.90
350.19	222.96
350.57	223.02
350.96	223.11
351.34	223.20
351.72	223.29
352.10	223.40
352.48	223.47
352.87	223.52
353.25	223.58
353.63	223.65
354.01	223.71
354.39	223.78
354.77	223.86
355.15	223.96
355.54	224.02
355.92	224.05
356.30	224.13
356.68	224.26
357.06	224.33
357.44	224.39
357.82	224.44
358.20	224.55
358.58	224.61
358.97	224.67
359.35	224.75
359.73	224.83
360.11	224.88
360.49	224.94
360.87	224.99
361.25	225.05
361.63	225.13
362.01	225.18
362.39	225.22
362.77	225.26
363.15	225.28
363.53	225.31
363.91	225.35
364.29	225.37
364.67	225.30
365.05	225.32
365.43	225.35
365.81	225.37
366.19	225.39
366.57	225.44
366.95	225.44
367.33	225.41
367.71	225.41
368.09	225.42
368.47	225.41
368.85	225.40
369.23	225.41
369.61	225.36
369.99	225.37
370.37	225.36
370.75	225.41
371.13	225.38
371.51	225.34
371.89	225.32
372.27	225.29
372.65	225.27
373.03	225.23
373.41	225.19
373.78	225.14
374.16	225.04
374.54	224.97
374.92	224.92
375.30	224.88
375.68	224.81
376.06	224.76
376.44	224.71
376.82	224.66
377.19	224.61
377.57	224.56
377.95	224.48
378.33	224.42
378.71	224.28
379.09	224.23
379.47	224.19
379.84	224.13
380.22	224.07
380.60	224.00
380.98	223.94
381.36	223.89
381.73	223.83
382.11	223.80
382.49	223.76
382.87	223.70
383.25	223.66
383.62	223.73
384.00	223.67
384.38	223.63
384.76	223.61
385.13	223.60
385.51	223.56
385.89	223.51
386.27	223.47
386.64	223.45
387.02	223.40
387.40	223.36
387.78	223.33
388.15	223.30
388.53	223.27
388.91	223.24
389.29	223.21
389.66	223.20
390.04	223.17
390.42	223.16
390.79	223.14
391.17	223.12
391.55	222.99
391.92	222.97
392.30	222.98
392.68	222.94
393.05	222.92
393.43	222.91
393.81	222.92
394.18	222.90
394.56	222.90
394.94	222.92
395.31	222.92
395.69	222.96
396.06	222.99
396.44	223.01
396.82	223.02
397.19	223.09
397.57	223.10
397.95	223.14
398.32	223.14
398.70	223.18
399.07	223.24
399.45	223.28
399.82	223.32
400.20	223.35
400.58	223.41
400.95	223.43
401.33	223.51
401.70	223.64
402.08	223.73
402.45	223.81
402.83	223.92
403.20	224.02
403.58	224.10
403.95	224.22
404.33	224.35
404.71	224.48
405.08	224.66
405.46	224.80
405.83	224.97
406.21	225.14
406.58	225.33
406.96	225.52
407.33	225.73
407.70	225.97
408.08	226.30
408.45	226.59
408.83	226.90
409.20	227.18
409.58	227.43
409.95	227.78
410.33	228.16
410.70	228.51
411.08	228.93
411.45	229.38
411.82	229.83
412.20	230.34
412.57	230.95
412.95	231.43
413.32	232.05
413.69	232.68
414.07	233.37
414.44	234.11
414.82	234.86
415.19	235.75
415.56	236.64
415.94	237.58
416.31	238.62
416.68	239.67
417.06	240.89
417.43	242.03
417.81	243.35
418.18	244.68
418.55	246.14
418.93	247.66
419.30	249.25
419.67	250.95
420.04	252.68
420.42	254.50
420.79	256.60
421.16	258.73
421.54	260.88
421.91	263.14
422.28	265.47
422.66	268.00
423.03	270.40
423.40	272.93
423.77	275.64
424.15	278.41
424.52	281.29
424.89	284.40
425.26	287.51
425.64	290.38
426.01	293.62
426.38	296.92
426.75	300.32
427.13	303.81
427.50	307.45
427.87	311.24
428.24	315.05
428.61	318.71
428.99	322.64
429.36	326.96
429.73	331.08
430.10	335.19
430.47	339.39
430.85	343.71
431.22	348.30
431.59	353.02
431.96	357.61
432.33	362.70
432.70	367.51
433.08	373.22
433.45	378.61
433.82	383.90
434.19	389.82
434.56	395.63
434.93	401.23
435.30	406.77
435.68	413.01
436.05	419.11
436.42	425.21
436.79	430.78
437.16	436.78
437.53	443.21
437.90	449.64
438.27	455.92
438.64	462.74
439.01	468.92
439.38	474.56
439.75	480.01
440.13	486.24
440.50	492.18
440.87	496.86
441.24	502.01
441.61	507.71
441.98	511.89
442.35	516.86
442.72	521.98
443.09	526.87
443.46	530.06
443.83	532.43
444.20	534.45
444.57	537.38
444.94	539.17
445.31	541.02
445.68	542.68
446.05	543.96
446.42	543.90
446.79	543.74
447.16	543.63
447.53	543.56
447.90	541.83
448.27	540.21
448.64	537.59
449.01	535.89
449.37	532.07
449.74	528.60
450.11	524.12
450.48	519.15
450.85	514.16
451.22	509.93
451.59	505.79
451.96	502.02
452.33	496.45
452.70	491.50
453.07	485.44
453.43	479.37
453.80	473.48
454.17	467.82
454.54	462.57
454.91	456.63
455.28	451.04
455.65	445.77
456.02	440.13
456.38	435.60
456.75	429.74
457.12	425.00
457.49	420.23
457.86	415.67
458.23	411.67
458.59	407.24
458.96	402.69
459.33	398.67
459.70	394.58
460.07	391.46
460.43	387.79
460.80	384.34
461.17	381.31
461.54	378.03
461.91	374.97
462.27	371.86
462.64	369.31
463.01	366.40
463.38	363.46
463.74	360.81
464.11	358.44
464.48	356.29
464.85	354.00
465.21	352.25
465.58	350.31
465.95	348.08
466.32	346.29
466.68	344.54
467.05	342.79
467.42	341.10
467.78	339.27
468.15	337.59
468.52	336.34
468.88	334.69
469.25	333.19
469.62	332.00
469.98	330.71
470.35	329.56
470.72	328.52
471.08	327.47
471.45	326.59
471.82	325.63
472.18	324.63
472.55	323.98
472.92	323.17
473.28	322.55
473.65	321.90
474.02	321.28
474.38	320.78
474.75	320.51
475.11	320.09
475.48	319.94
475.85	319.78
476.21	319.74
476.58	319.74
476.94	319.94
477.31	320.06
477.67	320.22
478.04	320.49
478.41	320.83
478.77	321.30
479.14	321.63
479.50	322.19
479.87	322.88
480.23	323.58
480.60	324.26
480.96	324.96
481.33	325.93
481.69	326.90
482.06	327.86
482.42	328.76
482.79	329.84
483.15	331.08
483.52	332.46
483.88	333.80
484.25	335.23
484.61	336.72
484.98	338.31
485.34	340.10
485.71	341.96
486.07	343.95
486.44	345.92
486.80	348.11
487.17	350.35
487.53	352.82
487.90	355.38
488.26	358.16
488.62	361.08
488.99	364.01
489.35	367.08
489.72	370.38
490.08	373.86
490.44	377.43
490.81	381.18
491.17	385.01
491.54	389.09
491.90	393.28
492.26	397.80
492.63	402.55
492.99	407.49
493.36	412.55
493.72	417.89
494.08	423.36
494.45	429.14
494.81	435.13
495.17	441.25
495.54	447.71
495.90	454.48
496.26	461.39
496.63	468.55
496.99	475.98
497.35	483.79
497.72	491.88
498.08	500.14
498.44	508.66
498.80	517.73
499.17	527.03
499.53	536.68
499.89	546.54
500.26	556.58
500.62	566.91
500.98	577.90
501.34	589.04
501.71	600.72
502.07	612.62
502.43	624.92
502.79	637.56
503.16	650.60
503.52	663.84
503.88	677.45
504.24	691.48
504.60	705.80
504.97	720.50
505.33	735.60
505.69	751.60
506.05	767.78
506.41	783.97
506.78	800.49
507.14	817.47
507.50	835.05
507.86	853.02
508.22	871.27
508.59	889.53
508.95	908.52
509.31	927.93
509.67	948.06
510.03	968.39
510.39	988.93
510.75	1009.71
511.12	1030.80
511.48	1052.20
511.84	1073.69
512.20	1095.50
512.56	1118.42
512.92	1141.53
513.28	1164.38
513.64	1187.54
514.00	1211.10
514.37	1234.98
514.73	1258.89
515.09	1282.62
515.45	1306.78
515.81	1331.48
516.17	1356.24
516.53	1380.67
516.89	1405.19
517.25	1429.88
517.61	1454.75
517.97	1479.85
518.33	1504.67
518.69	1529.62
519.05	1554.82
519.41	1580.19
519.77	1605.79
520.13	1630.60
520.49	1655.58
520.85	1680.77
521.21	1705.87
521.57	1731.58
521.93	1756.58
522.29	1782.40
522.65	1807.95
523.01	1833.30
523.37	1857.91
523.73	1883.14
524.09	1908.55
524.45	1933.88
524.81	1958.73
525.17	1983.48
525.53	2007.79
525.89	2032.12
526.25	2056.66
526.61	2080.66
526.97	2104.94
527.33	2129.16
527.68	2153.21
528.04	2176.41
528.40	2199.46
528.76	2222.71
529.12	2244.90
529.48	2267.44
529.84	2288.16
530.20	2309.46
530.56	2330.38
530.91	2351.37
531.27	2371.91
531.63	2391.77
531.99	2411.08
532.35	2430.03
532.71	2449.10
533.07	2468.74
533.42	2486.88
533.78	2505.40
534.14	2523.89
534.50	2541.53
534.86	2559.78
535.21	2576.17
535.57	2592.50
535.93	2608.13
536.29	2622.54
536.65	2637.80
537.00	2651.94
537.36	2666.59
537.72	2680.19
538.08	2693.44
538.44	2705.56
538.79	2717.82
539.15	2728.45
539.51	2739.02
539.87	2749.27
540.22	2757.39
540.58	2765.58
540.94	2774.35
541.29	2781.56
541.65	2787.81
542.01	2793.55
542.37	2797.45
542.72	2803.30
543.08	2808.61
543.44	2813.71
543.79	2818.02
544.15	2821.43
544.51	2824.80
544.87	2827.30
545.22	2829.38
545.58	2830.51
545.94	2832.12
546.29	2832.26
546.65	2832.52
547.01	2832.83
547.36	2833.25
547.72	2833.83
548.07	2832.93
548.43	2831.39
548.79	2829.23
549.14	2827.11
549.50	2825.59
549.86	2823.20
550.21	2818.35
550.57	2813.93
550.92	2808.17
551.28	2803.00
551.64	2797.75
551.99	2792.89
552.35	2787.63
552.70	2781.93
553.06	2776.97
553.41	2771.51
553.77	2765.51
554.13	2760.21
554.48	2753.97
554.84	2746.08
555.19	2738.36
555.55	2730.06
555.90	2722.34
556.26	2715.63
556.61	2708.27
556.97	2698.71
557.32	2690.03
557.68	2681.84
558.03	2673.00
558.39	2664.83
558.74	2656.82
559.10	2647.54
559.45	2637.94
559.81	2628.69
560.16	2618.73
560.52	2608.33
560.87	2598.95
561.23	2589.19
561.58	2578.92
561.94	2568.42
562.29	2557.42
562.64	2547.06
563.00	2537.04
563.35	2526.89
563.71	2515.82
564.06	2504.18
564.42	2493.63
564.77	2482.70
565.12	2471.84
565.48	2460.74
565.83	2450.27
566.19	2439.82
566.54	2428.99
566.89	2417.28
567.25	2405.51
567.60	2394.61
567.96	2383.29
568.31	2370.52
568.66	2357.71
569.02	2345.96
569.37	2333.94
569.72	2322.45
570.08	2310.24
570.43	2297.52
570.78	2284.47
571.14	2271.22
571.49	2258.79
571.84	2246.63
572.20	2233.16
572.55	2220.08
572.90	2206.91
573.26	2192.82
573.61	2178.17
573.96	2163.82
574.31	2149.85
574.67	2136.07
575.02	2121.88
575.37	2107.22
575.72	2092.86
576.08	2079.11
576.43	2064.31
576.78	2049.61
577.13	2035.72
577.49	2021.82
577.84	2008.31
578.19	1993.96
578.54	1979.25
578.90	1964.04
579.25	1948.56
579.60	1934.51
579.95	1920.05
580.30	1905.65
580.66	1891.55
581.01	1877.06
581.36	1862.92
581.71	1849.32
582.06	1835.25
582.42	1821.21
582.77	1807.97
583.12	1794.37
583.47	1780.81
583.82	1767.38
584.17	1753.85
584.53	1740.14
584.88	1726.44
585.23	1712.38
585.58	1698.83
585.93	1685.74
586.28	1673.48
586.63	1661.00
586.98	1647.83
587.34	1634.92
587.69	1621.49
588.04	1608.29
588.39	1595.77
588.74	1582.79
589.09	1569.51
589.44	1556.23
589.79	1543.51
590.14	1530.66
590.49	1518.03
590.84	1505.26
591.19	1493.14
591.54	1480.48
591.89	1467.69
592.25	1455.27
592.60	1442.45
592.95	1430.20
593.30	1418.21
593.65	1405.99
594.00	1394.00
594.35	1382.78
594.70	1370.79
595.05	1359.86
595.40	1348.76
595.75	1337.07
596.10	1326.15
596.45	1315.47
596.80	1305.22
597.15	1294.79
597.50	1284.32
597.85	1274.05
598.19	1263.97
598.54	1253.31
598.89	1243.40
599.24	1233.80
599.59	1223.96
599.94	1215.15
600.29	1206.20
600.64	1197.04
600.99	1187.31
601.34	1178.06
601.69	1168.20
602.04	1159.40
602.39	1150.42
602.74	1141.69
603.08	1133.20
603.43	1124.23
603.78	1115.16
604.13	1106.24
604.48	1097.25
604.83	1088.54
605.18	1079.73
605.53	1070.86
605.87	1062.12
606.22	1053.62
606.57	1044.87
606.92	1036.22
607.27	1027.42
607.62	1018.74
607.96	1010.20
608.31	1002.67
608.66	994.70
609.01	987.18
609.36	979.60
609.70	971.80
610.05	963.83
610.40	956.22
610.75	948.72
611.10	941.48
611.44	933.85
611.79	926.53
612.14	918.85
612.49	911.31
612.83	904.24
613.18	897.21
613.53	890.00
613.88	882.88
614.22	876.34
614.57	869.63
614.92	862.90
615.27	856.22
615.61	849.38
615.96	842.77
616.31	836.09
616.65	829.29
617.00	822.73
617.35	816.33
617.70	809.95
618.04	803.64
618.39	797.34
618.74	791.38
619.08	785.25
619.43	779.37
619.78	773.51
620.12	767.46
620.47	761.59
620.82	755.80
621.16	750.31
621.51	744.48
621.85	738.64
622.20	732.85
622.55	727.24
622.89	721.58
623.24	715.97
623.59	710.43
623.93	704.94
624.28	699.60
624.62	694.24
624.97	688.86
625.32	683.60
625.66	678.20
626.01	672.80
626.35	667.53
626.70	662.30
627.04	657.25
627.39	652.25
627.73	647.37
628.08	642.71
628.43	637.93
628.77	633.22
629.12	628.65
629.46	624.24
629.81	619.65
630.15	614.94
630.50	610.39
630.84	606.05
631.19	601.87
631.53	597.73
631.88	593.49
632.22	589.35
632.57	585.44
632.91	581.49
633.26	577.61
633.60	573.81
633.95	570.10
634.29	566.26
634.64	562.39
634.98	558.43
635.32	554.61
635.67	550.93
636.01	547.19
636.36	543.50
636.70	539.94
637.05	536.40
637.39	533.06
637.73	529.59
638.08	526.15
638.42	522.70
638.77	519.12
639.11	515.54
639.45	512.00
639.80	508.45
640.14	505.09
640.49	501.69
640.83	498.18
641.17	494.72
641.52	491.42
641.86	488.10
642.20	484.96
642.55	481.67
642.89	478.46
643.23	475.46
643.58	472.67
643.92	469.76
644.26	466.88
644.61	463.98
644.95	461.10
645.29	458.18
645.64	455.22
645.98	452.40
646.32	449.75
646.66	447.10
647.01	444.42
647.35	441.79
647.69	439.05
648.04	436.47
648.38	433.92
648.72	431.33
649.06	428.82
649.41	426.31
649.75	423.81
650.09	421.34
650.43	418.87
650.78	416.39
651.12	413.90
651.46	411.50
651.80	409.21
652.14	406.98
652.49	404.76
652.83	402.60
653.17	400.43
653.51	398.31
653.85	396.27
654.20	394.17
654.54	391.99
654.88	389.99
655.22	388.06
655.56	386.08
655.90	384.19
656.25	382.32
656.59	380.45
656.93	378.67
657.27	376.94
657.61	375.11
657.95	373.34
658.29	371.59
658.64	369.86
658.98	368.11
659.32	366.38
659.66	364.75
660.00	363.15
660.34	361.57
660.68	359.94
661.02	358.25
661.36	356.66
661.70	355.15
662.05	353.62
662.39	352.07
662.73	350.62
663.07	349.19
663.41	347.77
663.75	346.38
664.09	345.00
664.43	343.53
664.77	342.16
665.11	340.74
665.45	339.40
665.79	338.05
666.13	336.69
666.47	335.32
666.81	333.92
667.15	332.49
667.49	331.16
667.83	329.89
668.17	328.65
668.51	327.43
668.85	326.23
669.19	325.10
669.53	323.90
669.87	322.68
670.21	321.49
670.55	320.32
670.89	319.21
671.23	318.08
671.57	316.96
671.91	315.89
672.25	314.88
672.58	313.86
672.92	312.81
673.26	311.83
673.60	310.86
673.94	309.88
674.28	308.96
674.62	308.02
674.96	307.06
675.30	306.14
675.64	305.21
675.97	304.29
676.31	303.34
676.65	302.41
676.99	301.55
677.33	300.63
677.67	299.76
678.01	298.80
678.34	297.93
678.68	297.11
679.02	296.26
679.36	295.41
679.70	294.57
680.04	293.76
680.37	292.93
680.71	292.14
681.05	291.40
681.39	290.61
681.73	289.79
682.06	289.01
682.40	288.24
682.74	287.50
683.08	286.78
683.42	286.05
683.75	285.38
684.09	284.64
684.43	283.94
684.77	283.22
685.10	282.57
685.44	281.89
685.78	281.20
686.12	280.54
686.45	279.88
686.79	279.22
687.13	278.58
687.46	277.92
687.80	277.27
688.14	276.59
688.48	275.97
688.81	275.35
689.15	274.78
689.49	274.16
689.82	273.56
690.16	272.90
690.50	272.30
690.83	271.71
691.17	271.13
691.51	270.57
691.84	270.02
692.18	269.44
692.52	268.86
692.85	268.29
693.19	267.77
693.52	267.23
693.86	266.69
694.20	266.16
694.53	265.65
694.87	265.13
695.21	264.64
695.54	264.14
695.88	263.63
696.21	263.10
696.55	262.61
696.88	262.11
697.22	261.64
697.56	261.17
697.89	260.64
698.23	260.16
698.56	259.65
698.90	259.18
699.23	258.71
699.57	258.28
699.90	257.83
700.24	257.36
700.58	256.93
700.91	256.53
701.25	256.19
701.58	255.82
701.92	255.45
702.25	255.05
702.59	254.63
702.92	254.25
703.26	253.86
703.59	253.47
703.93	253.18
704.26	252.82
704.60	252.45
704.93	252.10
705.26	251.74
705.60	251.43
705.93	251.06
706.27	250.76
706.60	250.45
706.94	250.14
707.27	249.78
707.61	249.43
707.94	249.08
708.27	248.66
708.61	248.29
708.94	247.94
709.28	247.62
709.61	247.31
709.94	247.02
710.28	246.73
710.61	246.45
710.95	246.08
711.28	245.88
711.61	245.60
711.95	245.34
712.28	245.07
712.61	244.78
712.95	244.57
713.28	244.35
713.61	244.08
713.95	243.80
714.28	243.57
714.61	243.31
714.95	243.07
715.28	242.82
715.61	242.58
715.95	242.36
716.28	242.13
716.61	241.92
716.95	241.69
717.28	241.46
717.61	241.23
717.94	241.02
718.28	240.73
718.61	240.51
718.94	240.28
719.27	240.08
719.61	239.89
719.94	239.67
720.27	239.41
720.60	239.21
720.94	239.02
721.27	238.83
721.60	238.67
721.93	238.49
722.27	238.34
722.60	238.18
722.93	237.99
723.26	237.83
723.59	237.63
723.93	237.47
724.26	237.31
724.59	237.14
724.92	236.99
725.25	236.86
725.59	236.70
725.92	236.57
726.25	236.42
726.58	236.26
726.91	236.10
727.24	235.97
727.57	235.82
727.91	235.66
728.24	235.54
728.57	235.37
728.90	235.25
729.23	235.08
729.56	234.98
729.89	234.85
730.22	234.70
730.55	234.57
730.89	234.44
731.22	234.30
731.55	234.17
731.88	234.04
732.21	233.90
732.54	233.77
732.87	233.65
733.20	233.54
733.53	233.42
733.86	233.32
734.19	233.19
734.52	233.10
734.85	233.07
735.18	232.93
735.51	232.86
735.84	232.75
736.17	232.67
736.50	232.51
736.83	232.53
737.16	232.44
737.49	232.35
737.82	232.25
738.15	232.17
738.48	232.07
738.81	231.97
739.14	231.86
739.47	231.76
739.80	231.65
740.13	231.56
740.46	231.45
740.79	231.34
741.12	231.25
741.45	231.14
741.78	230.99
742.11	230.93
742.44	230.82
742.77	230.74
743.10	230.63
743.43	230.55
743.75	230.35
744.08	230.42
744.41	230.33
744.74	230.24
745.07	230.13
745.40	230.07
745.73	230.04
746.06	229.96
746.39	229.91
746.71	229.83
747.04	229.74
747.37	229.67
747.70	229.62
748.03	229.55
748.36	229.50
748.68	229.42
749.01	229.32
749.34	229.25
749.67	229.19
750.00	229.14
750.33	229.15
750.65	229.10
750.98	228.88
751.31	228.82
751.64	228.77
751.97	228.76
752.29	228.69
752.62	228.57
752.95	228.50
753.28	228.42
753.60	228.36
753.93	228.32
754.26	228.27
754.59	228.17
754.91	228.09
755.24	228.02
755.57	228.00
755.90	227.94
756.22	227.87
756.55	227.79
756.88	227.70
757.20	227.57
757.53	227.48
757.86	227.43
758.19	227.38
758.51	227.32
758.84	227.21
759.17	227.15
759.49	227.11
759.82	227.11
760.15	227.08
760.47	227.03
760.80	226.95
761.13	226.92
761.45	226.87
761.78	226.83
762.11	226.78
762.43	226.68
762.76	226.64
763.08	226.61
763.41	226.58
763.74	226.55
764.06	226.51
764.39	226.47
764.71	226.42
765.04	226.37
765.37	226.32
765.69	226.28
766.02	226.24
766.34	226.19
766.67	226.11
767.00	226.09
767.32	226.10
767.65	226.13
767.97	226.08
768.30	226.05
768.62	226.01
768.95	225.96
769.27	225.93
769.60	225.90
769.92	225.85
770.25	225.80
770.57	225.75
770.90	225.71
771.22	225.67
771.55	225.64
771.87	225.62
772.20	225.58
772.52	225.63
772.85	225.73
773.17	225.70
773.50	225.66
773.82	225.61
774.15	225.53
774.47	225.44
774.80	225.40
775.12	225.37
775.45	225.34
775.77	225.32
776.09	225.30
776.42	225.27
776.74	225.28
777.07	225.25
777.39	225.23
777.72	225.19
778.04	225.18
778.36	225.15
778.69	225.13
779.01	225.12
779.33	225.00
779.66	224.86
779.98	224.83
780.31	224.81
780.63	224.83
780.95	224.83
781.28	224.81
781.60	224.78
781.92	224.76
782.25	224.74
782.57	224.72
782.89	224.69
783.22	224.66
783.54	224.62
783.86	224.61
784.19	224.58
784.51	224.59
784.83	224.56
785.16	224.54
785.48	224.52
785.80	224.51
786.12	224.50
786.45	224.48
786.77	224.47
787.09	224.45
787.42	224.40
787.74	224.38
788.06	224.37
788.38	224.36
788.71	224.33
789.03	224.32
789.35	224.31
789.67	224.29
789.99	224.28
790.32	224.26
790.64	224.25
790.96	224.34
791.28	224.28
791.61	224.26
791.93	224.26
792.25	224.24
792.57	224.30
792.89	224.26
793.21	224.26
793.54	224.23
793.86	224.21
794.18	224.20
794.50	224.17
794.82	224.16
795.14	224.16
795.47	224.17
795.79	224.16
796.11	224.13
796.43	224.11
796.75	224.10
797.07	224.09
797.39	224.07
797.71	223.98
798.04	223.97
798.36	223.97
798.68	223.96
799.00	223.95
799.32	223.89
799.64	223.90
799.96	223.88
800.28	223.89
800.60	223.88
800.92	223.88
801.24	223.86
801.56	223.86
801.89	223.83
802.21	223.83
802.53	223.80
802.85	223.81
803.17	223.85
803.49	223.82
803.81	223.80
804.13	223.78
804.45	223.76
804.77	223.76
805.09	223.74
805.41	223.72
805.73	223.70
806.05	223.66
806.37	223.64
806.69	223.62
807.01	223.60
807.33	223.60
807.65	223.56
807.97	223.60
808.28	223.57
808.60	223.56
808.92	223.54
809.24	223.60
809.56	223.57
809.88	223.52
810.20	223.53
810.52	223.54
810.84	223.52
811.16	223.50
811.48	223.49
811.80	223.52
812.12	223.51
812.43	223.52
812.75	223.52
813.07	223.50
813.39	223.50
813.71	223.48
814.03	223.46
814.35	223.46
814.67	223.41
814.98	223.40
815.30	223.39
815.62	223.37
815.94	223.29
816.26	223.30
816.58	223.27
816.89	223.27
817.21	223.24
817.53	223.24
817.85	223.25
