SpectraSuite Data File
++++++++++++++++++++++++++++++++++++
Date: Thu Oct 01 08:03:10 EDT 2015
User: lab3
Dark Spectrum Present: No
Reference Spectrum Present: No
Number of Sampled Component Spectra: 1
Spectrometers: USB2E7196
Integration Time (usec): 36000 (USB2E7196)
Spectra Averaged: 10000 (USB2E7196)
Boxcar Smoothing: 10 (USB2E7196)
Correct for Electrical Dark: No (USB2E7196)
Strobe/Lamp Enabled: No (USB2E7196)
Correct for Detector Non-linearity: No (USB2E7196)
Correct for Stray Light: No (USB2E7196)
Number of Pixels in Processed Spectrum: 2048
>>>>>Begin Processed Spectral Data<<<<<
339.09	0.00
339.48	209.97
339.86	211.43
340.24	212.78
340.63	214.29
341.01	217.19
341.39	216.94
341.78	218.27
342.16	219.49
342.54	220.00
342.93	208.57
343.31	219.11
343.69	219.65
344.07	220.11
344.46	220.54
344.84	220.92
345.22	221.16
345.60	221.42
345.99	221.61
346.37	221.75
346.75	221.85
347.13	221.93
347.52	222.00
347.90	222.08
348.28	222.11
348.66	222.17
349.05	222.17
349.43	222.22
349.81	222.28
350.19	222.34
350.57	222.40
350.96	222.49
351.34	222.58
351.72	222.67
352.10	222.78
352.48	222.86
352.87	222.91
353.25	222.97
353.63	223.04
354.01	223.10
354.39	223.18
354.77	223.25
355.15	223.35
355.54	223.41
355.92	223.44
356.30	223.52
356.68	223.66
357.06	223.73
357.44	223.78
357.82	223.84
358.20	223.96
358.58	224.02
358.97	224.08
359.35	224.16
359.73	224.24
360.11	224.29
360.49	224.35
360.87	224.40
361.25	224.46
361.63	224.54
362.01	224.60
362.39	224.63
362.77	224.68
363.15	224.70
363.53	224.73
363.91	224.77
364.29	224.79
364.67	224.71
365.05	224.73
365.43	224.77
365.81	224.80
366.19	224.81
366.57	224.86
366.95	224.86
367.33	224.84
367.71	224.83
368.09	224.84
368.47	224.84
368.85	224.83
369.23	224.83
369.61	224.78
369.99	224.79
370.37	224.78
370.75	224.84
371.13	224.81
371.51	224.77
371.89	224.75
372.27	224.72
372.65	224.70
373.03	224.66
373.41	224.62
373.78	224.56
374.16	224.47
374.54	224.39
374.92	224.34
375.30	224.30
375.68	224.23
376.06	224.18
376.44	224.12
376.82	224.08
377.19	224.04
377.57	223.99
377.95	223.90
378.33	223.84
378.71	223.70
379.09	223.65
379.47	223.62
379.84	223.55
380.22	223.49
380.60	223.42
380.98	223.37
381.36	223.32
381.73	223.26
382.11	223.23
382.49	223.19
382.87	223.13
383.25	223.08
383.62	223.16
384.00	223.10
384.38	223.06
384.76	223.04
385.13	223.02
385.51	222.97
385.89	222.93
386.27	222.89
386.64	222.88
387.02	222.83
387.40	222.78
387.78	222.75
388.15	222.72
388.53	222.70
388.91	222.66
389.29	222.63
389.66	222.62
390.04	222.58
390.42	222.57
390.79	222.56
391.17	222.54
391.55	222.40
391.92	222.39
392.30	222.39
392.68	222.35
393.05	222.33
393.43	222.33
393.81	222.33
394.18	222.30
394.56	222.30
394.94	222.33
395.31	222.33
395.69	222.37
396.06	222.40
396.44	222.42
396.82	222.43
397.19	222.50
397.57	222.51
397.95	222.55
398.32	222.55
398.70	222.59
399.07	222.66
399.45	222.69
399.82	222.74
400.20	222.77
400.58	222.83
400.95	222.84
401.33	222.92
401.70	223.06
402.08	223.15
402.45	223.23
402.83	223.33
403.20	223.43
403.58	223.51
403.95	223.64
404.33	223.78
404.71	223.91
405.08	224.09
405.46	224.24
405.83	224.40
406.21	224.57
406.58	224.77
406.96	224.95
407.33	225.18
407.70	225.42
408.08	225.76
408.45	226.04
408.83	226.36
409.20	226.64
409.58	226.90
409.95	227.26
410.33	227.64
410.70	228.00
411.08	228.43
411.45	228.88
411.82	229.33
412.20	229.84
412.57	230.46
412.95	230.94
413.32	231.58
413.69	232.22
414.07	232.92
414.44	233.67
414.82	234.43
415.19	235.33
415.56	236.24
415.94	237.18
416.31	238.25
416.68	239.31
417.06	240.55
417.43	241.70
417.81	243.04
418.18	244.40
418.55	245.89
418.93	247.43
419.30	249.04
419.67	250.77
420.04	252.54
420.42	254.38
420.79	256.52
421.16	258.67
421.54	260.86
421.91	263.15
422.28	265.53
422.66	268.10
423.03	270.54
423.40	273.12
423.77	275.87
424.15	278.68
424.52	281.61
424.89	284.78
425.26	287.94
425.64	290.87
426.01	294.16
426.38	297.52
426.75	300.98
427.13	304.53
427.50	308.23
427.87	312.07
428.24	315.96
428.61	319.68
428.99	323.67
429.36	328.07
429.73	332.26
430.10	336.44
430.47	340.70
430.85	345.08
431.22	349.75
431.59	354.55
431.96	359.22
432.33	364.39
432.70	369.29
433.08	375.08
433.45	380.56
433.82	385.94
434.19	391.95
434.56	397.86
434.93	403.56
435.30	409.20
435.68	415.55
436.05	421.76
436.42	427.96
436.79	433.62
437.16	439.73
437.53	446.28
437.90	452.84
438.27	459.24
438.64	466.20
439.01	472.49
439.38	478.24
439.75	483.79
440.13	490.15
440.50	496.21
440.87	500.99
441.24	506.25
441.61	512.06
441.98	516.33
442.35	521.41
442.72	526.62
443.09	531.61
443.46	534.86
443.83	537.29
444.20	539.36
444.57	542.36
444.94	544.18
445.31	546.06
445.68	547.75
446.05	549.05
446.42	548.99
446.79	548.83
447.16	548.72
447.53	548.64
447.90	546.87
448.27	545.20
448.64	542.53
449.01	540.78
449.37	536.87
449.74	533.32
450.11	528.73
450.48	523.65
450.85	518.55
451.22	514.22
451.59	509.99
451.96	506.13
452.33	500.44
452.70	495.37
453.07	489.18
453.43	482.97
453.80	476.95
454.17	471.17
454.54	465.81
454.91	459.74
455.28	454.03
455.65	448.63
456.02	442.88
456.38	438.24
456.75	432.26
457.12	427.43
457.49	422.56
457.86	417.90
458.23	413.82
458.59	409.31
458.96	404.66
459.33	400.56
459.70	396.38
460.07	393.20
460.43	389.47
460.80	385.96
461.17	382.86
461.54	379.53
461.91	376.42
462.27	373.24
462.64	370.65
463.01	367.69
463.38	364.70
463.74	362.00
464.11	359.59
464.48	357.41
464.85	355.08
465.21	353.29
465.58	351.32
465.95	349.05
466.32	347.24
466.68	345.47
467.05	343.69
467.42	341.97
467.78	340.12
468.15	338.40
468.52	337.13
468.88	335.48
469.25	333.95
469.62	332.74
469.98	331.44
470.35	330.27
470.72	329.23
471.08	328.16
471.45	327.28
471.82	326.31
472.18	325.30
472.55	324.65
472.92	323.85
473.28	323.21
473.65	322.56
474.02	321.94
474.38	321.44
474.75	321.16
475.11	320.75
475.48	320.59
475.85	320.44
476.21	320.39
476.58	320.40
476.94	320.60
477.31	320.73
477.67	320.89
478.04	321.17
478.41	321.52
478.77	321.99
479.14	322.33
479.50	322.91
479.87	323.61
480.23	324.32
480.60	325.01
480.96	325.72
481.33	326.70
481.69	327.68
482.06	328.65
482.42	329.57
482.79	330.66
483.15	331.92
483.52	333.33
483.88	334.68
484.25	336.13
484.61	337.63
484.98	339.24
485.34	341.06
485.71	342.93
486.07	344.93
486.44	346.93
486.80	349.14
487.17	351.40
487.53	353.89
487.90	356.48
488.26	359.28
488.62	362.24
488.99	365.20
489.35	368.30
489.72	371.64
490.08	375.16
490.44	378.78
490.81	382.55
491.17	386.43
491.54	390.56
491.90	394.80
492.26	399.36
492.63	404.17
492.99	409.16
493.36	414.28
493.72	419.68
494.08	425.21
494.45	431.05
494.81	437.11
495.17	443.30
495.54	449.83
495.90	456.67
496.26	463.66
496.63	470.89
496.99	478.41
497.35	486.30
497.72	494.48
498.08	502.83
498.44	511.44
498.80	520.60
499.17	530.00
499.53	539.75
499.89	549.72
500.26	559.87
500.62	570.30
500.98	581.41
501.34	592.67
501.71	604.48
502.07	616.51
502.43	628.93
502.79	641.70
503.16	654.89
503.52	668.27
503.88	682.02
504.24	696.21
504.60	710.68
504.97	725.55
505.33	740.81
505.69	756.98
506.05	773.35
506.41	789.73
506.78	806.42
507.14	823.57
507.50	841.35
507.86	859.49
508.22	877.92
508.59	896.38
508.95	915.55
509.31	935.16
509.67	955.49
510.03	976.03
510.39	996.78
510.75	1017.78
511.12	1039.07
511.48	1060.68
511.84	1082.37
512.20	1104.36
512.56	1127.47
512.92	1150.77
513.28	1173.82
513.64	1197.15
514.00	1220.91
514.37	1245.02
514.73	1269.13
515.09	1293.03
515.45	1317.39
515.81	1342.30
516.17	1367.27
516.53	1391.89
516.89	1416.58
517.25	1441.44
517.61	1466.49
517.97	1491.73
518.33	1516.70
518.69	1541.81
519.05	1567.18
519.41	1592.69
519.77	1618.46
520.13	1643.42
520.49	1668.55
520.85	1693.89
521.21	1719.16
521.57	1745.01
521.93	1770.11
522.29	1796.08
522.65	1821.77
523.01	1847.22
523.37	1871.93
523.73	1897.25
524.09	1922.76
524.45	1948.17
524.81	1973.11
525.17	1997.95
525.53	2022.36
525.89	2046.75
526.25	2071.33
526.61	2095.39
526.97	2119.73
527.33	2143.97
527.68	2168.07
528.04	2191.30
528.40	2214.38
528.76	2237.63
529.12	2259.81
529.48	2282.39
529.84	2303.08
530.20	2324.38
530.56	2345.32
530.91	2366.28
531.27	2386.75
531.63	2406.55
531.99	2425.83
532.35	2444.75
532.71	2463.76
533.07	2483.36
533.42	2501.42
533.78	2519.92
534.14	2538.35
534.50	2555.94
534.86	2574.13
535.21	2590.46
535.57	2606.76
535.93	2622.29
536.29	2636.64
536.65	2651.79
537.00	2665.79
537.36	2680.35
537.72	2693.79
538.08	2706.92
538.44	2718.91
538.79	2731.10
539.15	2741.65
539.51	2752.13
539.87	2762.28
540.22	2770.30
540.58	2778.37
540.94	2787.04
541.29	2794.11
541.65	2800.22
542.01	2805.84
542.37	2809.58
542.72	2815.22
543.08	2820.37
543.44	2825.36
543.79	2829.47
544.15	2832.76
544.51	2836.00
544.87	2838.32
545.22	2840.26
545.58	2841.25
545.94	2842.69
546.29	2842.65
546.65	2842.75
547.01	2842.89
547.36	2843.14
547.72	2843.53
548.07	2842.49
548.43	2840.80
548.79	2838.46
549.14	2836.14
549.50	2834.44
549.86	2831.92
550.21	2826.93
550.57	2822.36
550.92	2816.42
551.28	2811.11
551.64	2805.68
551.99	2800.68
552.35	2795.28
552.70	2789.42
553.06	2784.28
553.41	2778.69
553.77	2772.58
554.13	2767.09
554.48	2760.73
554.84	2752.71
555.19	2744.82
555.55	2736.37
555.90	2728.50
556.26	2721.68
556.61	2714.22
556.97	2704.54
557.32	2695.73
557.68	2687.40
558.03	2678.38
558.39	2670.03
558.74	2661.85
559.10	2652.41
559.45	2642.66
559.81	2633.24
560.16	2623.18
560.52	2612.66
560.87	2603.15
561.23	2593.26
561.58	2582.86
561.94	2572.17
562.29	2561.00
562.64	2550.49
563.00	2540.31
563.35	2529.98
563.71	2518.75
564.06	2506.94
564.42	2496.23
564.77	2485.13
565.12	2474.17
565.48	2462.93
565.83	2452.35
566.19	2441.78
566.54	2430.87
566.89	2419.03
567.25	2407.15
567.60	2396.09
567.96	2384.63
568.31	2371.74
568.66	2358.77
569.02	2346.89
569.37	2334.76
569.72	2323.15
570.08	2310.81
570.43	2297.94
570.78	2284.77
571.14	2271.39
571.49	2258.85
571.84	2246.55
572.20	2232.97
572.55	2219.77
572.90	2206.48
573.26	2192.28
573.61	2177.52
573.96	2163.04
574.31	2148.94
574.67	2135.06
575.02	2120.76
575.37	2106.00
575.72	2091.52
576.08	2077.66
576.43	2062.78
576.78	2047.98
577.13	2034.03
577.49	2020.05
577.84	2006.47
578.19	1992.05
578.54	1977.26
578.90	1961.96
579.25	1946.40
579.60	1932.25
579.95	1917.72
580.30	1903.22
580.66	1889.02
581.01	1874.46
581.36	1860.22
581.71	1846.57
582.06	1832.42
582.42	1818.33
582.77	1805.04
583.12	1791.37
583.47	1777.76
583.82	1764.26
584.17	1750.64
584.53	1736.82
584.88	1723.05
585.23	1708.93
585.58	1695.34
585.93	1682.19
586.28	1669.89
586.63	1657.41
586.98	1644.20
587.34	1631.24
587.69	1617.77
588.04	1604.56
588.39	1592.02
588.74	1579.01
589.09	1565.70
589.44	1552.37
589.79	1539.61
590.14	1526.70
590.49	1514.03
590.84	1501.23
591.19	1489.08
591.54	1476.43
591.89	1463.65
592.25	1451.21
592.60	1438.37
592.95	1426.08
593.30	1414.09
593.65	1401.85
594.00	1389.84
594.35	1378.61
594.70	1366.59
595.05	1355.66
595.40	1344.55
595.75	1332.82
596.10	1321.90
596.45	1311.19
596.80	1300.95
597.15	1290.50
597.50	1280.06
597.85	1269.81
598.19	1259.75
598.54	1249.08
598.89	1239.17
599.24	1229.58
599.59	1219.74
599.94	1210.92
600.29	1201.98
600.64	1192.82
600.99	1183.09
601.34	1173.82
601.69	1163.98
602.04	1155.19
602.39	1146.20
602.74	1137.48
603.08	1129.02
603.43	1120.06
603.78	1111.01
604.13	1102.10
604.48	1093.12
604.83	1084.40
605.18	1075.59
605.53	1066.71
605.87	1057.97
606.22	1049.50
606.57	1040.75
606.92	1032.10
607.27	1023.34
607.62	1014.65
607.96	1006.14
608.31	998.62
608.66	990.66
609.01	983.13
609.36	975.56
609.70	967.77
610.05	959.82
610.40	952.21
610.75	944.72
611.10	937.51
611.44	929.90
611.79	922.60
612.14	914.93
612.49	907.41
612.83	900.38
613.18	893.39
613.53	886.16
613.88	879.05
614.22	872.52
614.57	865.83
614.92	859.13
615.27	852.46
615.61	845.63
615.96	839.04
616.31	832.36
616.65	825.59
617.00	819.07
617.35	812.69
617.70	806.33
618.04	800.02
618.39	793.74
618.74	787.80
619.08	781.67
619.43	775.80
619.78	769.95
620.12	763.89
620.47	758.03
620.82	752.26
621.16	746.80
621.51	740.98
621.85	735.15
622.20	729.37
622.55	723.78
622.89	718.13
623.24	712.53
623.59	707.00
623.93	701.53
624.28	696.18
624.62	690.83
624.97	685.47
625.32	680.22
625.66	674.84
626.01	669.45
626.35	664.21
626.70	658.99
627.04	653.98
627.39	649.01
627.73	644.15
628.08	639.50
628.43	634.73
628.77	630.03
629.12	625.46
629.46	621.06
629.81	616.49
630.15	611.80
630.50	607.28
630.84	602.95
631.19	598.79
631.53	594.67
631.88	590.43
632.22	586.30
632.57	582.41
632.91	578.46
633.26	574.60
633.60	570.81
633.95	567.11
634.29	563.28
634.64	559.41
634.98	555.46
635.32	551.68
635.67	548.02
636.01	544.31
636.36	540.64
636.70	537.10
637.05	533.56
637.39	530.23
637.73	526.77
638.08	523.37
638.42	519.94
638.77	516.37
639.11	512.82
639.45	509.30
639.80	505.76
640.14	502.42
640.49	499.03
640.83	495.53
641.17	492.09
641.52	488.80
641.86	485.51
642.20	482.37
642.55	479.09
642.89	475.89
643.23	472.88
643.58	470.11
643.92	467.23
644.26	464.37
644.61	461.50
644.95	458.63
645.29	455.72
645.64	452.77
645.98	449.96
646.32	447.32
646.66	444.69
647.01	442.04
647.35	439.43
647.69	436.71
648.04	434.14
648.38	431.60
648.72	429.03
649.06	426.53
649.41	424.06
649.75	421.58
650.09	419.12
650.43	416.68
650.78	414.20
651.12	411.72
651.46	409.35
651.80	407.07
652.14	404.85
652.49	402.65
652.83	400.52
653.17	398.36
653.51	396.27
653.85	394.23
654.20	392.14
654.54	389.97
654.88	387.99
655.22	386.08
655.56	384.12
655.90	382.24
656.25	380.38
656.59	378.53
656.93	376.77
657.27	375.05
657.61	373.23
657.95	371.47
658.29	369.73
658.64	368.01
658.98	366.27
659.32	364.56
659.66	362.94
660.00	361.35
660.34	359.78
660.68	358.16
661.02	356.49
661.36	354.91
661.70	353.41
662.05	351.89
662.39	350.35
662.73	348.92
663.07	347.50
663.41	346.09
663.75	344.71
664.09	343.34
664.43	341.88
664.77	340.53
665.11	339.12
665.45	337.78
665.79	336.44
666.13	335.09
666.47	333.72
666.81	332.33
667.15	330.92
667.49	329.60
667.83	328.33
668.17	327.10
668.51	325.89
668.85	324.70
669.19	323.57
669.53	322.39
669.87	321.17
670.21	319.99
670.55	318.82
670.89	317.72
671.23	316.59
671.57	315.48
671.91	314.42
672.25	313.43
672.58	312.42
672.92	311.38
673.26	310.40
673.60	309.44
673.94	308.46
674.28	307.54
674.62	306.61
674.96	305.65
675.30	304.75
675.64	303.82
675.97	302.90
676.31	301.96
676.65	301.03
676.99	300.17
677.33	299.26
677.67	298.39
678.01	297.45
678.34	296.57
678.68	295.76
679.02	294.91
679.36	294.06
679.70	293.23
680.04	292.42
680.37	291.61
680.71	290.83
681.05	290.09
681.39	289.31
681.73	288.49
682.06	287.72
682.40	286.95
682.74	286.22
683.08	285.51
683.42	284.78
683.75	284.11
684.09	283.38
684.43	282.69
684.77	281.99
685.10	281.33
685.44	280.66
685.78	279.97
686.12	279.32
686.45	278.66
686.79	278.00
687.13	277.37
687.46	276.70
687.80	276.07
688.14	275.39
688.48	274.77
688.81	274.15
689.15	273.59
689.49	272.97
689.82	272.37
690.16	271.72
690.50	271.14
690.83	270.55
691.17	269.97
691.51	269.41
691.84	268.87
692.18	268.29
692.52	267.71
692.85	267.15
693.19	266.63
693.52	266.10
693.86	265.57
694.20	265.04
694.53	264.54
694.87	264.02
695.21	263.54
695.54	263.05
695.88	262.54
696.21	262.00
696.55	261.52
696.88	261.03
697.22	260.56
697.56	260.09
697.89	259.57
698.23	259.08
698.56	258.58
698.90	258.13
699.23	257.66
699.57	257.23
699.90	256.79
700.24	256.33
700.58	255.90
700.91	255.50
701.25	255.18
701.58	254.81
701.92	254.44
702.25	254.04
702.59	253.63
702.92	253.25
703.26	252.88
703.59	252.50
703.93	252.21
704.26	251.85
704.60	251.49
704.93	251.14
705.26	250.79
705.60	250.48
705.93	250.11
706.27	249.82
706.60	249.50
706.94	249.21
707.27	248.85
707.61	248.51
707.94	248.16
708.27	247.75
708.61	247.38
708.94	247.04
709.28	246.73
709.61	246.42
709.94	246.13
710.28	245.84
710.61	245.57
710.95	245.20
711.28	244.99
711.61	244.71
711.95	244.46
712.28	244.19
712.61	243.90
712.95	243.70
713.28	243.49
713.61	243.22
713.95	242.94
714.28	242.71
714.61	242.46
714.95	242.23
715.28	241.98
715.61	241.75
715.95	241.53
716.28	241.30
716.61	241.10
716.95	240.87
717.28	240.65
717.61	240.42
717.94	240.21
718.28	239.93
718.61	239.72
718.94	239.48
719.27	239.28
719.61	239.09
719.94	238.87
720.27	238.62
720.60	238.42
720.94	238.23
721.27	238.05
721.60	237.88
721.93	237.70
722.27	237.55
722.60	237.39
722.93	237.20
723.26	237.03
723.59	236.84
723.93	236.68
724.26	236.53
724.59	236.36
724.92	236.20
725.25	236.08
725.59	235.92
725.92	235.79
726.25	235.64
726.58	235.49
726.91	235.34
727.24	235.21
727.57	235.07
727.91	234.91
728.24	234.78
728.57	234.63
728.90	234.50
729.23	234.33
729.56	234.23
729.89	234.10
730.22	233.96
730.55	233.83
730.89	233.69
731.22	233.55
731.55	233.42
731.88	233.29
732.21	233.15
732.54	233.02
732.87	232.90
733.20	232.79
733.53	232.67
733.86	232.57
734.19	232.44
734.52	232.35
734.85	232.31
735.18	232.18
735.51	232.11
735.84	232.00
736.17	231.93
736.50	231.77
736.83	231.80
737.16	231.70
737.49	231.61
737.82	231.51
738.15	231.44
738.48	231.35
738.81	231.25
739.14	231.14
739.47	231.04
739.80	230.94
740.13	230.86
740.46	230.75
740.79	230.64
741.12	230.55
741.45	230.44
741.78	230.29
742.11	230.24
742.44	230.12
742.77	230.05
743.10	229.95
743.43	229.86
743.75	229.66
744.08	229.74
744.41	229.65
744.74	229.56
745.07	229.45
745.40	229.39
745.73	229.36
746.06	229.29
746.39	229.23
746.71	229.15
747.04	229.07
747.37	228.99
747.70	228.95
748.03	228.88
748.36	228.83
748.68	228.75
749.01	228.65
749.34	228.58
749.67	228.51
750.00	228.46
750.33	228.48
750.65	228.42
750.98	228.20
751.31	228.14
751.64	228.09
751.97	228.08
752.29	228.01
752.62	227.89
752.95	227.82
753.28	227.74
753.60	227.68
753.93	227.64
754.26	227.59
754.59	227.49
754.91	227.42
755.24	227.34
755.57	227.33
755.90	227.26
756.22	227.20
756.55	227.12
756.88	227.04
757.20	226.91
757.53	226.83
757.86	226.77
758.19	226.72
758.51	226.66
758.84	226.56
759.17	226.50
759.49	226.45
759.82	226.46
760.15	226.42
760.47	226.37
760.80	226.30
761.13	226.26
761.45	226.22
761.78	226.18
762.11	226.14
762.43	226.04
762.76	226.00
763.08	225.97
763.41	225.93
763.74	225.90
764.06	225.86
764.39	225.82
764.71	225.78
765.04	225.73
765.37	225.68
765.69	225.64
766.02	225.60
766.34	225.55
766.67	225.47
767.00	225.45
767.32	225.47
767.65	225.49
767.97	225.44
768.30	225.41
768.62	225.37
768.95	225.32
769.27	225.29
769.60	225.26
769.92	225.21
770.25	225.16
770.57	225.11
770.90	225.07
771.22	225.03
771.55	224.99
771.87	224.97
772.20	224.93
772.52	224.99
772.85	225.09
773.17	225.06
773.50	225.02
773.82	224.97
774.15	224.89
774.47	224.80
774.80	224.76
775.12	224.72
775.45	224.70
775.77	224.68
776.09	224.66
776.42	224.64
776.74	224.64
777.07	224.61
777.39	224.60
777.72	224.57
778.04	224.56
778.36	224.53
778.69	224.50
779.01	224.49
779.33	224.37
779.66	224.23
779.98	224.20
780.31	224.18
780.63	224.21
780.95	224.20
781.28	224.19
781.60	224.16
781.92	224.14
782.25	224.12
782.57	224.10
782.89	224.07
783.22	224.05
783.54	224.01
783.86	224.00
784.19	223.97
784.51	223.98
784.83	223.95
785.16	223.93
785.48	223.92
785.80	223.90
786.12	223.89
786.45	223.87
786.77	223.86
787.09	223.84
787.42	223.78
787.74	223.76
788.06	223.75
788.38	223.73
788.71	223.71
789.03	223.70
789.35	223.69
789.67	223.66
789.99	223.66
790.32	223.63
790.64	223.63
790.96	223.71
791.28	223.66
791.61	223.65
791.93	223.64
792.25	223.62
792.57	223.68
792.89	223.65
793.21	223.65
793.54	223.62
793.86	223.60
794.18	223.59
794.50	223.56
794.82	223.55
795.14	223.55
795.47	223.55
795.79	223.54
796.11	223.51
796.43	223.49
796.75	223.48
797.07	223.48
797.39	223.45
797.71	223.35
798.04	223.35
798.36	223.34
798.68	223.32
799.00	223.32
799.32	223.26
799.64	223.27
799.96	223.25
800.28	223.27
800.60	223.25
800.92	223.25
801.24	223.24
801.56	223.24
801.89	223.22
802.21	223.21
802.53	223.18
802.85	223.20
803.17	223.24
803.49	223.20
803.81	223.18
804.13	223.17
804.45	223.15
804.77	223.15
805.09	223.14
805.41	223.13
805.73	223.10
806.05	223.06
806.37	223.04
806.69	223.02
807.01	223.00
807.33	223.00
807.65	222.96
807.97	222.99
808.28	222.97
808.60	222.96
808.92	222.93
809.24	222.99
809.56	222.97
809.88	222.92
810.20	222.92
810.52	222.94
810.84	222.92
811.16	222.90
811.48	222.89
811.80	222.92
812.12	222.91
812.43	222.92
812.75	222.92
813.07	222.91
813.39	222.91
813.71	222.88
814.03	222.87
814.35	222.87
814.67	222.82
814.98	222.81
815.30	222.80
815.62	222.78
815.94	222.70
816.26	222.71
816.58	222.69
816.89	222.69
817.21	222.66
817.53	222.65
817.85	222.65
