SpectraSuite Data File
++++++++++++++++++++++++++++++++++++
Date: Wed Sep 30 19:58:13 EDT 2015
User: lab3
Dark Spectrum Present: No
Reference Spectrum Present: No
Number of Sampled Component Spectra: 1
Spectrometers: USB2E7196
Integration Time (usec): 36000 (USB2E7196)
Spectra Averaged: 10000 (USB2E7196)
Boxcar Smoothing: 10 (USB2E7196)
Correct for Electrical Dark: No (USB2E7196)
Strobe/Lamp Enabled: No (USB2E7196)
Correct for Detector Non-linearity: No (USB2E7196)
Correct for Stray Light: No (USB2E7196)
Number of Pixels in Processed Spectrum: 2048
>>>>>Begin Processed Spectral Data<<<<<
339.09	0.00
339.48	211.10
339.86	212.64
340.24	214.00
340.63	215.46
341.01	218.33
341.39	218.12
341.78	219.45
342.16	220.66
342.54	221.09
342.93	209.67
343.31	220.26
343.69	220.80
344.07	221.26
344.46	221.69
344.84	222.07
345.22	222.31
345.60	222.57
345.99	222.76
346.37	222.90
346.75	223.00
347.13	223.08
347.52	223.15
347.90	223.23
348.28	223.27
348.66	223.32
349.05	223.33
349.43	223.38
349.81	223.44
350.19	223.50
350.57	223.57
350.96	223.64
351.34	223.74
351.72	223.83
352.10	223.94
352.48	224.02
352.87	224.07
353.25	224.14
353.63	224.20
354.01	224.27
354.39	224.35
354.77	224.42
355.15	224.52
355.54	224.58
355.92	224.62
356.30	224.70
356.68	224.84
357.06	224.91
357.44	224.96
357.82	225.02
358.20	225.13
358.58	225.19
358.97	225.26
359.35	225.34
359.73	225.41
360.11	225.46
360.49	225.52
360.87	225.57
361.25	225.63
361.63	225.71
362.01	225.76
362.39	225.79
362.77	225.84
363.15	225.86
363.53	225.89
363.91	225.93
364.29	225.95
364.67	225.88
365.05	225.90
365.43	225.93
365.81	225.96
366.19	225.97
366.57	226.02
366.95	226.02
367.33	226.00
367.71	225.99
368.09	226.01
368.47	226.01
368.85	226.00
369.23	226.00
369.61	225.95
369.99	225.96
370.37	225.96
370.75	226.01
371.13	225.98
371.51	225.94
371.89	225.92
372.27	225.90
372.65	225.87
373.03	225.83
373.41	225.78
373.78	225.74
374.16	225.64
374.54	225.56
374.92	225.51
375.30	225.47
375.68	225.40
376.06	225.36
376.44	225.30
376.82	225.25
377.19	225.20
377.57	225.15
377.95	225.06
378.33	225.00
378.71	224.86
379.09	224.82
379.47	224.78
379.84	224.71
380.22	224.64
380.60	224.58
380.98	224.53
381.36	224.48
381.73	224.41
382.11	224.39
382.49	224.34
382.87	224.29
383.25	224.24
383.62	224.31
384.00	224.25
384.38	224.21
384.76	224.19
385.13	224.18
385.51	224.14
385.89	224.08
386.27	224.05
386.64	224.02
387.02	223.97
387.40	223.92
387.78	223.90
388.15	223.88
388.53	223.84
388.91	223.81
389.29	223.78
389.66	223.76
390.04	223.73
390.42	223.72
390.79	223.71
391.17	223.68
391.55	223.55
391.92	223.54
392.30	223.53
392.68	223.50
393.05	223.48
393.43	223.48
393.81	223.49
394.18	223.47
394.56	223.47
394.94	223.49
395.31	223.49
395.69	223.53
396.06	223.56
396.44	223.58
396.82	223.59
397.19	223.66
397.57	223.67
397.95	223.71
398.32	223.71
398.70	223.74
399.07	223.80
399.45	223.84
399.82	223.88
400.20	223.91
400.58	223.97
400.95	223.98
401.33	224.05
401.70	224.18
402.08	224.27
402.45	224.34
402.83	224.45
403.20	224.54
403.58	224.62
403.95	224.74
404.33	224.87
404.71	224.99
405.08	225.17
405.46	225.31
405.83	225.46
406.21	225.63
406.58	225.82
406.96	226.00
407.33	226.22
407.70	226.45
408.08	226.77
408.45	227.05
408.83	227.35
409.20	227.63
409.58	227.88
409.95	228.22
410.33	228.59
410.70	228.94
411.08	229.34
411.45	229.77
411.82	230.20
412.20	230.70
412.57	231.30
412.95	231.76
413.32	232.37
413.69	233.00
414.07	233.66
414.44	234.38
414.82	235.11
415.19	235.97
415.56	236.84
415.94	237.75
416.31	238.76
416.68	239.78
417.06	240.97
417.43	242.07
417.81	243.35
418.18	244.65
418.55	246.08
418.93	247.56
419.30	249.11
419.67	250.76
420.04	252.46
420.42	254.23
420.79	256.28
421.16	258.35
421.54	260.45
421.91	262.66
422.28	264.94
422.66	267.41
423.03	269.75
423.40	272.23
423.77	274.87
424.15	277.59
424.52	280.41
424.89	283.46
425.26	286.50
425.64	289.32
426.01	292.49
426.38	295.74
426.75	299.09
427.13	302.52
427.50	306.10
427.87	309.83
428.24	313.58
428.61	317.19
428.99	321.07
429.36	325.33
429.73	329.41
430.10	333.48
430.47	337.64
430.85	341.91
431.22	346.47
431.59	351.14
431.96	355.70
432.33	360.75
432.70	365.54
433.08	371.20
433.45	376.55
433.82	381.80
434.19	387.66
434.56	393.43
434.93	398.99
435.30	404.48
435.68	410.67
436.05	416.73
436.42	422.78
436.79	428.29
437.16	434.23
437.53	440.60
437.90	446.96
438.27	453.16
438.64	459.89
439.01	465.96
439.38	471.52
439.75	476.88
440.13	482.99
440.50	488.81
440.87	493.37
441.24	498.41
441.61	503.95
441.98	508.01
442.35	512.83
442.72	517.78
443.09	522.51
443.46	525.53
443.83	527.77
444.20	529.65
444.57	532.42
444.94	534.05
445.31	535.73
445.68	537.22
446.05	538.33
446.42	538.12
446.79	537.83
447.16	537.57
447.53	537.36
447.90	535.50
448.27	533.76
448.64	531.05
449.01	529.25
449.37	525.38
449.74	521.85
450.11	517.34
450.48	512.36
450.85	507.36
451.22	503.10
451.59	498.94
451.96	495.16
452.33	489.63
452.70	484.72
453.07	478.73
453.43	472.73
453.80	466.93
454.17	461.37
454.54	456.20
454.91	450.37
455.28	444.89
455.65	439.72
456.02	434.22
456.38	429.79
456.75	424.07
457.12	419.45
457.49	414.79
457.86	410.35
458.23	406.48
458.59	402.18
458.96	397.77
459.33	393.88
459.70	389.92
460.07	386.90
460.43	383.34
460.80	380.01
461.17	377.07
461.54	373.90
461.91	370.94
462.27	367.93
462.64	365.47
463.01	362.66
463.38	359.81
463.74	357.24
464.11	354.94
464.48	352.87
464.85	350.65
465.21	348.94
465.58	347.07
465.95	344.89
466.32	343.16
466.68	341.45
467.05	339.75
467.42	338.10
467.78	336.32
468.15	334.67
468.52	333.45
468.88	331.85
469.25	330.39
469.62	329.22
469.98	327.96
470.35	326.83
470.72	325.82
471.08	324.79
471.45	323.93
471.82	322.99
472.18	322.01
472.55	321.37
472.92	320.59
473.28	319.98
473.65	319.35
474.02	318.75
474.38	318.26
474.75	317.99
475.11	317.59
475.48	317.43
475.85	317.27
476.21	317.22
476.58	317.23
476.94	317.41
477.31	317.54
477.67	317.68
478.04	317.94
478.41	318.26
478.77	318.73
479.14	319.06
479.50	319.62
479.87	320.30
480.23	320.98
480.60	321.64
480.96	322.32
481.33	323.27
481.69	324.21
482.06	325.15
482.42	326.04
482.79	327.10
483.15	328.32
483.52	329.68
483.88	331.00
484.25	332.40
484.61	333.87
484.98	335.44
485.34	337.20
485.71	339.04
486.07	340.99
486.44	342.92
486.80	345.08
487.17	347.28
487.53	349.71
487.90	352.24
488.26	354.98
488.62	357.87
488.99	360.75
489.35	363.78
489.72	367.04
490.08	370.49
490.44	374.01
490.81	377.72
491.17	381.51
491.54	385.55
491.90	389.70
492.26	394.17
492.63	398.86
492.99	403.74
493.36	408.75
493.72	414.03
494.08	419.45
494.45	425.18
494.81	431.10
495.17	437.15
495.54	443.53
495.90	450.23
496.26	457.08
496.63	464.16
496.99	471.52
497.35	479.25
497.72	487.26
498.08	495.44
498.44	503.87
498.80	512.85
499.17	522.06
499.53	531.59
499.89	541.35
500.26	551.30
500.62	561.53
500.98	572.41
501.34	583.44
501.71	595.00
502.07	606.79
502.43	618.99
502.79	631.51
503.16	644.44
503.52	657.54
503.88	671.02
504.24	684.95
504.60	699.13
504.97	713.72
505.33	728.68
505.69	744.54
506.05	760.58
506.41	776.62
506.78	792.98
507.14	809.83
507.50	827.26
507.86	845.11
508.22	863.22
508.59	881.36
508.95	900.21
509.31	919.50
509.67	939.47
510.03	959.67
510.39	980.09
510.75	1000.74
511.12	1021.71
511.48	1042.95
511.84	1064.35
512.20	1086.09
512.56	1108.87
512.92	1131.83
513.28	1154.52
513.64	1177.59
514.00	1201.06
514.37	1224.86
514.73	1248.73
515.09	1272.38
515.45	1296.46
515.81	1321.11
516.17	1345.77
516.53	1370.18
516.89	1394.66
517.25	1419.37
517.61	1444.23
517.97	1469.33
518.33	1494.18
518.69	1519.11
519.05	1544.37
519.41	1569.74
519.77	1595.38
520.13	1620.29
520.49	1645.39
520.85	1670.75
521.21	1695.97
521.57	1721.84
521.93	1747.01
522.29	1772.97
522.65	1798.71
523.01	1824.29
523.37	1849.11
523.73	1874.68
524.09	1900.40
524.45	1925.91
524.81	1950.96
525.17	1975.91
525.53	2000.49
525.89	2025.13
526.25	2050.03
526.61	2074.36
526.97	2098.95
527.33	2123.47
527.68	2147.72
528.04	2171.29
528.40	2194.67
528.76	2218.28
529.12	2240.80
529.48	2263.71
529.84	2284.84
530.20	2306.49
530.56	2327.72
530.91	2349.10
531.27	2369.93
531.63	2390.12
531.99	2409.89
532.35	2429.35
532.71	2448.96
533.07	2469.05
533.42	2487.69
533.78	2506.61
534.14	2525.55
534.50	2543.67
534.86	2562.47
535.21	2579.47
535.57	2596.25
535.93	2612.46
536.29	2627.34
536.65	2643.15
537.00	2657.74
537.36	2672.87
537.72	2687.02
538.08	2700.83
538.44	2713.44
538.79	2726.33
539.15	2737.55
539.51	2748.68
539.87	2759.39
540.22	2767.84
540.58	2776.58
540.94	2785.72
541.29	2793.57
541.65	2800.35
542.01	2806.60
542.37	2810.97
542.72	2817.41
543.08	2823.20
543.44	2828.75
543.79	2833.61
544.15	2837.41
544.51	2841.38
544.87	2844.34
545.22	2846.94
545.58	2848.56
545.94	2850.69
546.29	2851.31
546.65	2851.87
547.01	2852.64
547.36	2853.41
547.72	2854.47
548.07	2853.99
548.43	2852.95
548.79	2851.18
549.14	2849.35
549.50	2848.30
549.86	2846.09
550.21	2841.55
550.57	2837.49
550.92	2832.12
551.28	2827.29
551.64	2822.48
551.99	2817.90
552.35	2812.96
552.70	2807.58
553.06	2802.97
553.41	2797.84
553.77	2791.92
554.13	2787.00
554.48	2780.91
554.84	2773.40
555.19	2766.04
555.55	2758.11
555.90	2750.76
556.26	2744.43
556.61	2737.42
556.97	2728.17
557.32	2719.98
557.68	2711.99
558.03	2703.42
558.39	2695.45
558.74	2687.62
559.10	2678.66
559.45	2669.26
559.81	2660.25
560.16	2650.49
560.52	2640.42
560.87	2631.39
561.23	2621.93
561.58	2611.97
561.94	2601.76
562.29	2591.05
562.64	2580.92
563.00	2571.04
563.35	2560.95
563.71	2549.84
564.06	2538.46
564.42	2527.97
564.77	2517.14
565.12	2506.46
565.48	2495.61
565.83	2485.45
566.19	2475.31
566.54	2464.60
566.89	2453.11
567.25	2441.47
567.60	2430.67
567.96	2419.33
568.31	2406.58
568.66	2393.96
569.02	2382.36
569.37	2370.54
569.72	2359.21
570.08	2347.13
570.43	2334.56
570.78	2321.60
571.14	2308.55
571.49	2296.16
571.84	2284.16
572.20	2270.90
572.55	2257.97
572.90	2244.83
573.26	2230.65
573.61	2215.91
573.96	2201.57
574.31	2187.54
574.67	2173.83
575.02	2159.72
575.37	2145.14
575.72	2130.80
576.08	2117.01
576.43	2102.06
576.78	2087.26
577.13	2073.23
577.49	2059.24
577.84	2045.61
578.19	2031.19
578.54	2016.37
578.90	2001.09
579.25	1985.46
579.60	1971.32
579.95	1956.78
580.30	1942.31
580.66	1928.17
581.01	1913.68
581.36	1899.53
581.71	1885.99
582.06	1871.83
582.42	1857.81
582.77	1844.42
583.12	1830.69
583.47	1817.08
583.82	1803.65
584.17	1790.09
584.53	1776.36
584.88	1762.64
585.23	1748.50
585.58	1734.94
585.93	1721.78
586.28	1709.46
586.63	1696.85
586.98	1683.53
587.34	1670.44
587.69	1656.85
588.04	1643.62
588.39	1631.00
588.74	1617.80
589.09	1604.41
589.44	1591.00
589.79	1578.04
590.14	1565.10
590.49	1552.32
590.84	1539.38
591.19	1527.05
591.54	1514.23
591.89	1501.24
592.25	1488.56
592.60	1475.56
592.95	1463.12
593.30	1451.01
593.65	1438.62
594.00	1426.53
594.35	1415.11
594.70	1402.96
595.05	1391.88
595.40	1380.48
595.75	1368.54
596.10	1357.45
596.45	1346.55
596.80	1336.14
597.15	1325.55
597.50	1314.90
597.85	1304.49
598.19	1294.24
598.54	1283.38
598.89	1273.27
599.24	1263.43
599.59	1253.42
599.94	1244.44
600.29	1235.31
600.64	1225.92
600.99	1215.92
601.34	1206.42
601.69	1196.37
602.04	1187.37
602.39	1178.24
602.74	1169.38
603.08	1160.72
603.43	1151.57
603.78	1142.31
604.13	1133.18
604.48	1123.97
604.83	1115.04
605.18	1106.04
605.53	1096.94
605.87	1088.01
606.22	1079.31
606.57	1070.40
606.92	1061.55
607.27	1052.47
607.62	1043.52
607.96	1034.78
608.31	1027.12
608.66	1019.01
609.01	1011.30
609.36	1003.54
609.70	995.51
610.05	987.33
610.40	979.51
610.75	971.77
611.10	964.32
611.44	956.51
611.79	948.98
612.14	941.06
612.49	933.35
612.83	926.11
613.18	918.90
613.53	911.51
613.88	904.21
614.22	897.54
614.57	890.69
614.92	883.84
615.27	876.98
615.61	869.96
615.96	863.14
616.31	856.24
616.65	849.26
617.00	842.53
617.35	835.98
617.70	829.43
618.04	822.97
618.39	816.49
618.74	810.36
619.08	804.07
619.43	798.02
619.78	791.94
620.12	785.71
620.47	779.67
620.82	773.76
621.16	768.13
621.51	762.12
621.85	756.13
622.20	750.19
622.55	744.46
622.89	738.66
623.24	732.93
623.59	727.29
623.93	721.66
624.28	716.18
624.62	710.67
624.97	705.14
625.32	699.72
625.66	694.16
626.01	688.58
626.35	683.17
626.70	677.79
627.04	672.63
627.39	667.50
627.73	662.49
628.08	657.69
628.43	652.76
628.77	647.91
629.12	643.22
629.46	638.67
629.81	633.92
630.15	629.06
630.50	624.38
630.84	619.90
631.19	615.62
631.53	611.35
631.88	607.00
632.22	602.74
632.57	598.72
632.91	594.67
633.26	590.69
633.60	586.80
633.95	583.04
634.29	579.10
634.64	575.14
634.98	571.05
635.32	567.11
635.67	563.31
636.01	559.47
636.36	555.66
636.70	552.01
637.05	548.36
637.39	544.92
637.73	541.32
638.08	537.79
638.42	534.21
638.77	530.53
639.11	526.80
639.45	523.16
639.80	519.50
640.14	516.04
640.49	512.53
640.83	508.87
641.17	505.29
641.52	501.86
641.86	498.42
642.20	495.19
642.55	491.79
642.89	488.49
643.23	485.37
643.58	482.52
643.92	479.51
644.26	476.54
644.61	473.55
644.95	470.57
645.29	467.53
645.64	464.48
645.98	461.56
646.32	458.85
646.66	456.11
647.01	453.35
647.35	450.62
647.69	447.79
648.04	445.15
648.38	442.51
648.72	439.83
649.06	437.25
649.41	434.66
649.75	432.08
650.09	429.53
650.43	426.99
650.78	424.39
651.12	421.80
651.46	419.34
651.80	416.97
652.14	414.67
652.49	412.39
652.83	410.16
653.17	407.91
653.51	405.72
653.85	403.61
654.20	401.43
654.54	399.18
654.88	397.13
655.22	395.11
655.56	393.05
655.90	391.11
656.25	389.16
656.59	387.22
656.93	385.40
657.27	383.59
657.61	381.69
657.95	379.86
658.29	378.05
658.64	376.24
658.98	374.41
659.32	372.63
659.66	370.94
660.00	369.27
660.34	367.64
660.68	365.94
661.02	364.19
661.36	362.57
661.70	360.99
662.05	359.39
662.39	357.79
662.73	356.27
663.07	354.78
663.41	353.32
663.75	351.88
664.09	350.43
664.43	348.90
664.77	347.49
665.11	346.02
665.45	344.63
665.79	343.23
666.13	341.83
666.47	340.41
666.81	338.96
667.15	337.50
667.49	336.12
667.83	334.79
668.17	333.50
668.51	332.22
668.85	330.98
669.19	329.81
669.53	328.57
669.87	327.30
670.21	326.07
670.55	324.86
670.89	323.72
671.23	322.55
671.57	321.39
671.91	320.28
672.25	319.25
672.58	318.18
672.92	317.10
673.26	316.08
673.60	315.07
673.94	314.04
674.28	313.07
674.62	312.09
674.96	311.09
675.30	310.14
675.64	309.18
675.97	308.23
676.31	307.24
676.65	306.28
676.99	305.38
677.33	304.43
677.67	303.52
678.01	302.53
678.34	301.62
678.68	300.77
679.02	299.89
679.36	299.00
679.70	298.13
680.04	297.29
680.37	296.44
680.71	295.62
681.05	294.86
681.39	294.05
681.73	293.21
682.06	292.41
682.40	291.61
682.74	290.84
683.08	290.10
683.42	289.35
683.75	288.66
684.09	287.89
684.43	287.16
684.77	286.43
685.10	285.74
685.44	285.04
685.78	284.33
686.12	283.65
686.45	282.97
686.79	282.29
687.13	281.62
687.46	280.93
687.80	280.27
688.14	279.56
688.48	278.92
688.81	278.27
689.15	277.67
689.49	277.02
689.82	276.40
690.16	275.72
690.50	275.10
690.83	274.48
691.17	273.88
691.51	273.30
691.84	272.73
692.18	272.13
692.52	271.52
692.85	270.93
693.19	270.39
693.52	269.83
693.86	269.27
694.20	268.72
694.53	268.19
694.87	267.66
695.21	267.15
695.54	266.63
695.88	266.10
696.21	265.54
696.55	265.03
696.88	264.52
697.22	264.03
697.56	263.53
697.89	262.98
698.23	262.47
698.56	261.95
698.90	261.47
699.23	260.98
699.57	260.53
699.90	260.06
700.24	259.57
700.58	259.12
700.91	258.70
701.25	258.35
701.58	257.95
701.92	257.55
702.25	257.13
702.59	256.70
702.92	256.30
703.26	255.90
703.59	255.49
703.93	255.18
704.26	254.80
704.60	254.42
704.93	254.06
705.26	253.69
705.60	253.36
705.93	252.97
706.27	252.65
706.60	252.32
706.94	252.00
707.27	251.62
707.61	251.26
707.94	250.89
708.27	250.45
708.61	250.06
708.94	249.70
709.28	249.35
709.61	249.02
709.94	248.72
710.28	248.42
710.61	248.13
710.95	247.74
711.28	247.51
711.61	247.22
711.95	246.95
712.28	246.66
712.61	246.36
712.95	246.14
713.28	245.91
713.61	245.62
713.95	245.33
714.28	245.09
714.61	244.82
714.95	244.57
715.28	244.31
715.61	244.07
715.95	243.83
716.28	243.59
716.61	243.37
716.95	243.13
717.28	242.89
717.61	242.65
717.94	242.42
718.28	242.13
718.61	241.90
718.94	241.66
719.27	241.44
719.61	241.24
719.94	241.00
720.27	240.73
720.60	240.52
720.94	240.32
721.27	240.13
721.60	239.96
721.93	239.76
722.27	239.61
722.60	239.44
722.93	239.23
723.26	239.06
723.59	238.86
723.93	238.69
724.26	238.52
724.59	238.34
724.92	238.18
725.25	238.04
725.59	237.88
725.92	237.74
726.25	237.58
726.58	237.42
726.91	237.25
727.24	237.11
727.57	236.96
727.91	236.79
728.24	236.65
728.57	236.48
728.90	236.35
729.23	236.17
729.56	236.07
729.89	235.93
730.22	235.78
730.55	235.63
730.89	235.48
731.22	235.34
731.55	235.20
731.88	235.07
732.21	234.92
732.54	234.79
732.87	234.66
733.20	234.54
733.53	234.42
733.86	234.31
734.19	234.18
734.52	234.08
734.85	234.04
735.18	233.89
735.51	233.81
735.84	233.69
736.17	233.61
736.50	233.44
736.83	233.45
737.16	233.35
737.49	233.25
737.82	233.15
738.15	233.06
738.48	232.96
738.81	232.86
739.14	232.75
739.47	232.64
739.80	232.53
740.13	232.44
740.46	232.32
740.79	232.21
741.12	232.11
741.45	232.00
741.78	231.84
742.11	231.79
742.44	231.67
742.77	231.59
743.10	231.49
743.43	231.40
743.75	231.19
744.08	231.26
744.41	231.17
744.74	231.07
745.07	230.97
745.40	230.90
745.73	230.86
746.06	230.79
746.39	230.73
746.71	230.64
747.04	230.55
747.37	230.48
747.70	230.43
748.03	230.35
748.36	230.30
748.68	230.22
749.01	230.12
749.34	230.04
749.67	229.97
750.00	229.92
750.33	229.93
750.65	229.87
750.98	229.65
751.31	229.59
751.64	229.53
751.97	229.52
752.29	229.44
752.62	229.32
752.95	229.25
753.28	229.16
753.60	229.09
753.93	229.05
754.26	229.00
754.59	228.90
754.91	228.82
755.24	228.74
755.57	228.73
755.90	228.66
756.22	228.59
756.55	228.51
756.88	228.43
757.20	228.30
757.53	228.21
757.86	228.16
758.19	228.11
758.51	228.05
758.84	227.94
759.17	227.87
759.49	227.83
759.82	227.83
760.15	227.79
760.47	227.74
760.80	227.66
761.13	227.63
761.45	227.58
761.78	227.54
762.11	227.49
762.43	227.39
762.76	227.35
763.08	227.31
763.41	227.27
763.74	227.24
764.06	227.19
764.39	227.15
764.71	227.11
765.04	227.05
765.37	227.00
765.69	226.96
766.02	226.92
766.34	226.87
766.67	226.79
767.00	226.77
767.32	226.78
767.65	226.81
767.97	226.76
768.30	226.73
768.62	226.69
768.95	226.64
769.27	226.60
769.60	226.58
769.92	226.52
770.25	226.47
770.57	226.42
770.90	226.38
771.22	226.34
771.55	226.31
771.87	226.29
772.20	226.25
772.52	226.30
772.85	226.39
773.17	226.36
773.50	226.32
773.82	226.27
774.15	226.19
774.47	226.09
774.80	226.05
775.12	226.01
775.45	225.98
775.77	225.96
776.09	225.94
776.42	225.91
776.74	225.91
777.07	225.88
777.39	225.86
777.72	225.83
778.04	225.82
778.36	225.78
778.69	225.76
779.01	225.75
779.33	225.63
779.66	225.49
779.98	225.46
780.31	225.44
780.63	225.46
780.95	225.46
781.28	225.44
781.60	225.41
781.92	225.39
782.25	225.37
782.57	225.35
782.89	225.32
783.22	225.30
783.54	225.25
783.86	225.24
784.19	225.22
784.51	225.23
784.83	225.19
785.16	225.18
785.48	225.16
785.80	225.13
786.12	225.12
786.45	225.10
786.77	225.10
787.09	225.07
787.42	225.01
787.74	225.00
788.06	224.99
788.38	224.96
788.71	224.94
789.03	224.93
789.35	224.93
789.67	224.90
789.99	224.89
790.32	224.87
790.64	224.86
790.96	224.94
791.28	224.89
791.61	224.88
791.93	224.86
792.25	224.84
792.57	224.90
792.89	224.87
793.21	224.87
793.54	224.85
793.86	224.82
794.18	224.82
794.50	224.78
794.82	224.77
795.14	224.77
795.47	224.78
795.79	224.76
796.11	224.73
796.43	224.71
796.75	224.70
797.07	224.70
797.39	224.68
797.71	224.59
798.04	224.58
798.36	224.57
798.68	224.56
799.00	224.56
799.32	224.50
799.64	224.50
799.96	224.49
800.28	224.49
800.60	224.48
800.92	224.47
801.24	224.46
801.56	224.45
801.89	224.43
802.21	224.43
802.53	224.40
802.85	224.41
803.17	224.45
803.49	224.42
803.81	224.40
804.13	224.38
804.45	224.36
804.77	224.36
805.09	224.35
805.41	224.33
805.73	224.30
806.05	224.26
806.37	224.24
806.69	224.23
807.01	224.21
807.33	224.21
807.65	224.16
807.97	224.20
808.28	224.17
808.60	224.16
808.92	224.14
809.24	224.19
809.56	224.16
809.88	224.12
810.20	224.12
810.52	224.13
810.84	224.10
811.16	224.09
811.48	224.07
811.80	224.10
812.12	224.09
812.43	224.10
812.75	224.10
813.07	224.09
813.39	224.09
813.71	224.07
814.03	224.05
814.35	224.05
814.67	224.00
814.98	223.99
815.30	223.98
815.62	223.96
815.94	223.89
816.26	223.89
816.58	223.86
816.89	223.86
817.21	223.83
817.53	223.84
817.85	223.84
