SpectraSuite Data File
++++++++++++++++++++++++++++++++++++
Date: Wed Sep 30 21:24:13 EDT 2015
User: lab3
Dark Spectrum Present: No
Reference Spectrum Present: No
Number of Sampled Component Spectra: 1
Spectrometers: USB2E7196
Integration Time (usec): 36000 (USB2E7196)
Spectra Averaged: 10000 (USB2E7196)
Boxcar Smoothing: 10 (USB2E7196)
Correct for Electrical Dark: No (USB2E7196)
Strobe/Lamp Enabled: No (USB2E7196)
Correct for Detector Non-linearity: No (USB2E7196)
Correct for Stray Light: No (USB2E7196)
Number of Pixels in Processed Spectrum: 2048
>>>>>Begin Processed Spectral Data<<<<<
339.09	0.00
339.48	211.68
339.86	213.09
340.24	214.54
340.63	215.97
341.01	218.90
341.39	218.66
341.78	219.97
342.16	221.20
342.54	221.61
342.93	210.17
343.31	220.79
343.69	221.33
344.07	221.79
344.46	222.22
344.84	222.60
345.22	222.84
345.60	223.09
345.99	223.29
346.37	223.42
346.75	223.53
347.13	223.60
347.52	223.67
347.90	223.75
348.28	223.79
348.66	223.84
349.05	223.84
349.43	223.89
349.81	223.94
350.19	223.99
350.57	224.06
350.96	224.14
351.34	224.23
351.72	224.32
352.10	224.42
352.48	224.49
352.87	224.55
353.25	224.61
353.63	224.67
354.01	224.73
354.39	224.81
354.77	224.88
355.15	224.98
355.54	225.03
355.92	225.07
356.30	225.14
356.68	225.28
357.06	225.35
357.44	225.41
357.82	225.46
358.20	225.57
358.58	225.63
358.97	225.70
359.35	225.78
359.73	225.85
360.11	225.90
360.49	225.96
360.87	226.01
361.25	226.07
361.63	226.15
362.01	226.21
362.39	226.23
362.77	226.27
363.15	226.30
363.53	226.33
363.91	226.37
364.29	226.39
364.67	226.31
365.05	226.34
365.43	226.37
365.81	226.40
366.19	226.41
366.57	226.46
366.95	226.46
367.33	226.44
367.71	226.43
368.09	226.45
368.47	226.45
368.85	226.44
369.23	226.44
369.61	226.39
369.99	226.40
370.37	226.40
370.75	226.46
371.13	226.42
371.51	226.39
371.89	226.37
372.27	226.34
372.65	226.32
373.03	226.28
373.41	226.24
373.78	226.19
374.16	226.10
374.54	226.02
374.92	225.97
375.30	225.93
375.68	225.87
376.06	225.82
376.44	225.76
376.82	225.72
377.19	225.67
377.57	225.61
377.95	225.53
378.33	225.47
378.71	225.33
379.09	225.28
379.47	225.24
379.84	225.18
380.22	225.11
380.60	225.04
380.98	225.00
381.36	224.94
381.73	224.88
382.11	224.85
382.49	224.80
382.87	224.75
383.25	224.70
383.62	224.77
384.00	224.70
384.38	224.66
384.76	224.64
385.13	224.62
385.51	224.58
385.89	224.54
386.27	224.50
386.64	224.48
387.02	224.43
387.40	224.39
387.78	224.36
388.15	224.33
388.53	224.31
388.91	224.28
389.29	224.24
389.66	224.23
390.04	224.20
390.42	224.19
390.79	224.18
391.17	224.16
391.55	224.03
391.92	224.02
392.30	224.01
392.68	223.98
393.05	223.96
393.43	223.96
393.81	223.96
394.18	223.95
394.56	223.95
394.94	223.97
395.31	223.97
395.69	224.01
396.06	224.04
396.44	224.06
396.82	224.06
397.19	224.13
397.57	224.14
397.95	224.18
398.32	224.18
398.70	224.22
399.07	224.28
399.45	224.31
399.82	224.35
400.20	224.38
400.58	224.44
400.95	224.45
401.33	224.52
401.70	224.65
402.08	224.74
402.45	224.82
402.83	224.92
403.20	225.02
403.58	225.10
403.95	225.22
404.33	225.35
404.71	225.47
405.08	225.65
405.46	225.80
405.83	225.95
406.21	226.12
406.58	226.31
406.96	226.50
407.33	226.71
407.70	226.95
408.08	227.27
408.45	227.56
408.83	227.86
409.20	228.14
409.58	228.39
409.95	228.73
410.33	229.10
410.70	229.44
411.08	229.85
411.45	230.29
411.82	230.73
412.20	231.23
412.57	231.82
412.95	232.29
413.32	232.90
413.69	233.52
414.07	234.19
414.44	234.92
414.82	235.65
415.19	236.52
415.56	237.40
415.94	238.31
416.31	239.33
416.68	240.36
417.06	241.55
417.43	242.66
417.81	243.95
418.18	245.26
418.55	246.69
418.93	248.18
419.30	249.73
419.67	251.39
420.04	253.09
420.42	254.87
420.79	256.93
421.16	259.01
421.54	261.11
421.91	263.31
422.28	265.60
422.66	268.07
423.03	270.43
423.40	272.90
423.77	275.55
424.15	278.27
424.52	281.09
424.89	284.14
425.26	287.18
425.64	290.00
426.01	293.18
426.38	296.43
426.75	299.78
427.13	303.21
427.50	306.79
427.87	310.51
428.24	314.27
428.61	317.87
428.99	321.75
429.36	326.01
429.73	330.08
430.10	334.14
430.47	338.28
430.85	342.54
431.22	347.09
431.59	351.75
431.96	356.29
432.33	361.33
432.70	366.09
433.08	371.74
433.45	377.06
433.82	382.30
434.19	388.14
434.56	393.87
434.93	399.41
435.30	404.88
435.68	411.04
436.05	417.07
436.42	423.09
436.79	428.57
437.16	434.49
437.53	440.83
437.90	447.16
438.27	453.34
438.64	460.05
439.01	466.11
439.38	471.65
439.75	476.99
440.13	483.09
440.50	488.89
440.87	493.46
441.24	498.49
441.61	504.03
441.98	508.09
442.35	512.94
442.72	517.90
443.09	522.64
443.46	525.70
443.83	527.96
444.20	529.88
444.57	532.68
444.94	534.35
445.31	536.08
445.68	537.62
446.05	538.78
446.42	538.64
446.79	538.39
447.16	538.19
447.53	538.04
447.90	536.26
448.27	534.59
448.64	531.94
449.01	530.19
449.37	526.37
449.74	522.90
450.11	518.43
450.48	513.51
450.85	508.56
451.22	504.35
451.59	500.22
451.96	496.49
452.33	491.00
452.70	486.12
453.07	480.15
453.43	474.18
453.80	468.40
454.17	462.85
454.54	457.71
454.91	451.89
455.28	446.40
455.65	441.24
456.02	435.75
456.38	431.31
456.75	425.59
457.12	420.98
457.49	416.32
457.86	411.87
458.23	407.98
458.59	403.67
458.96	399.25
459.33	395.35
459.70	391.38
460.07	388.35
460.43	384.78
460.80	381.43
461.17	378.48
461.54	375.29
461.91	372.32
462.27	369.30
462.64	366.83
463.01	363.99
463.38	361.14
463.74	358.55
464.11	356.24
464.48	354.16
464.85	351.93
465.21	350.22
465.58	348.34
465.95	346.16
466.32	344.42
466.68	342.71
467.05	341.00
467.42	339.35
467.78	337.56
468.15	335.91
468.52	334.68
468.88	333.08
469.25	331.61
469.62	330.44
469.98	329.17
470.35	328.05
470.72	327.03
471.08	325.99
471.45	325.13
471.82	324.19
472.18	323.20
472.55	322.57
472.92	321.78
473.28	321.17
473.65	320.53
474.02	319.94
474.38	319.44
474.75	319.17
475.11	318.76
475.48	318.60
475.85	318.44
476.21	318.39
476.58	318.40
476.94	318.58
477.31	318.70
477.67	318.85
478.04	319.11
478.41	319.45
478.77	319.90
479.14	320.24
479.50	320.79
479.87	321.47
480.23	322.15
480.60	322.81
480.96	323.50
481.33	324.45
481.69	325.39
482.06	326.34
482.42	327.22
482.79	328.29
483.15	329.51
483.52	330.87
483.88	332.19
484.25	333.60
484.61	335.07
484.98	336.65
485.34	338.41
485.71	340.24
486.07	342.20
486.44	344.13
486.80	346.29
487.17	348.51
487.53	350.94
487.90	353.48
488.26	356.21
488.62	359.09
488.99	361.98
489.35	365.01
489.72	368.28
490.08	371.72
490.44	375.26
490.81	378.95
491.17	382.74
491.54	386.78
491.90	390.92
492.26	395.39
492.63	400.08
492.99	404.96
493.36	409.97
493.72	415.25
494.08	420.67
494.45	426.38
494.81	432.29
495.17	438.35
495.54	444.72
495.90	451.42
496.26	458.25
496.63	465.32
496.99	472.68
497.35	480.40
497.72	488.40
498.08	496.56
498.44	504.99
498.80	513.97
499.17	523.17
499.53	532.70
499.89	542.45
500.26	552.38
500.62	562.59
500.98	573.46
501.34	584.47
501.71	596.03
502.07	607.80
502.43	619.99
502.79	632.47
503.16	645.38
503.52	658.46
503.88	671.93
504.24	685.82
504.60	699.98
504.97	714.53
505.33	729.47
505.69	745.31
506.05	761.32
506.41	777.33
506.78	793.66
507.14	810.47
507.50	827.87
507.86	845.68
508.22	863.75
508.59	881.84
508.95	900.66
509.31	919.90
509.67	939.85
510.03	960.00
510.39	980.37
510.75	1000.97
511.12	1021.88
511.48	1043.07
511.84	1064.41
512.20	1086.10
512.56	1108.84
512.92	1131.74
513.28	1154.38
513.64	1177.39
514.00	1200.81
514.37	1224.51
514.73	1248.31
515.09	1271.90
515.45	1295.92
515.81	1320.50
516.17	1345.09
516.53	1369.40
516.89	1393.79
517.25	1418.39
517.61	1443.15
517.97	1468.17
518.33	1492.93
518.69	1517.79
519.05	1542.97
519.41	1568.25
519.77	1593.78
520.13	1618.58
520.49	1643.57
520.85	1668.81
521.21	1693.93
521.57	1719.64
521.93	1744.70
522.29	1770.55
522.65	1796.17
523.01	1821.59
523.37	1846.26
523.73	1871.67
524.09	1897.24
524.45	1922.66
524.81	1947.58
525.17	1972.43
525.53	1996.86
525.89	2021.36
526.25	2046.09
526.61	2070.26
526.97	2094.75
527.33	2119.15
527.68	2143.26
528.04	2166.68
528.40	2189.88
528.76	2213.32
529.12	2235.73
529.48	2258.50
529.84	2279.47
530.20	2300.97
530.56	2322.07
530.91	2343.33
531.27	2364.06
531.63	2384.11
531.99	2403.70
532.35	2423.02
532.71	2442.45
533.07	2462.38
533.42	2480.86
533.78	2499.65
534.14	2518.44
534.50	2536.36
534.86	2554.96
535.21	2571.80
535.57	2588.43
535.93	2604.51
536.29	2619.26
536.65	2634.90
537.00	2649.36
537.36	2664.35
537.72	2678.37
538.08	2692.03
538.44	2704.51
538.79	2717.20
539.15	2728.23
539.51	2739.20
539.87	2749.74
540.22	2758.07
540.58	2766.70
540.94	2775.74
541.29	2783.43
541.65	2790.06
542.01	2796.18
542.37	2800.49
542.72	2806.80
543.08	2812.46
543.44	2817.87
543.79	2822.59
544.15	2826.25
544.51	2830.05
544.87	2832.91
545.22	2835.36
545.58	2836.82
545.94	2838.81
546.29	2839.33
546.65	2839.84
547.01	2840.54
547.36	2841.26
547.72	2842.22
548.07	2841.65
548.43	2840.52
548.79	2838.69
549.14	2836.85
549.50	2835.75
549.86	2833.46
550.21	2828.85
550.57	2824.71
550.92	2819.30
551.28	2814.43
551.64	2809.57
551.99	2804.97
552.35	2799.98
552.70	2794.57
553.06	2789.92
553.41	2784.74
553.77	2778.85
554.13	2773.89
554.48	2767.80
554.84	2760.25
555.19	2752.87
555.55	2744.89
555.90	2737.49
556.26	2731.06
556.61	2723.98
556.97	2714.66
557.32	2706.39
557.68	2698.36
558.03	2689.78
558.39	2681.78
558.74	2673.96
559.10	2664.99
559.45	2655.59
559.81	2646.56
560.16	2636.78
560.52	2626.68
560.87	2617.61
561.23	2608.13
561.58	2598.13
561.94	2587.88
562.29	2577.14
562.64	2566.99
563.00	2557.09
563.35	2547.01
563.71	2535.97
564.06	2524.57
564.42	2514.11
564.77	2503.33
565.12	2492.65
565.48	2481.79
565.83	2471.61
566.19	2461.44
566.54	2450.71
566.89	2439.20
567.25	2427.57
567.60	2416.79
567.96	2405.49
568.31	2392.78
568.66	2380.17
569.02	2368.57
569.37	2356.72
569.72	2345.38
570.08	2333.32
570.43	2320.77
570.78	2307.84
571.14	2294.79
571.49	2282.44
571.84	2270.44
572.20	2257.17
572.55	2244.24
572.90	2231.14
573.26	2217.00
573.61	2202.30
573.96	2188.02
574.31	2174.05
574.67	2160.37
575.02	2146.28
575.37	2131.74
575.72	2117.43
576.08	2103.70
576.43	2088.85
576.78	2074.18
577.13	2060.24
577.49	2046.31
577.84	2032.76
578.19	2018.39
578.54	2003.64
578.90	1988.42
579.25	1972.88
579.60	1958.80
579.95	1944.36
580.30	1929.93
580.66	1915.84
581.01	1901.40
581.36	1887.30
581.71	1873.80
582.06	1859.68
582.42	1845.70
582.77	1832.39
583.12	1818.73
583.47	1805.17
583.82	1791.77
584.17	1778.23
584.53	1764.55
584.88	1750.88
585.23	1736.81
585.58	1723.28
585.93	1710.15
586.28	1697.87
586.63	1685.33
586.98	1672.09
587.34	1659.04
587.69	1645.55
588.04	1632.38
588.39	1619.83
588.74	1606.70
589.09	1593.36
589.44	1580.03
589.79	1567.18
590.14	1554.30
590.49	1541.57
590.84	1528.70
591.19	1516.45
591.54	1503.70
591.89	1490.78
592.25	1478.17
592.60	1465.25
592.95	1452.89
593.30	1440.87
593.65	1428.56
594.00	1416.54
594.35	1405.18
594.70	1393.12
595.05	1382.12
595.40	1370.80
595.75	1358.94
596.10	1347.92
596.45	1337.12
596.80	1326.77
597.15	1316.22
597.50	1305.63
597.85	1295.31
598.19	1285.12
598.54	1274.33
598.89	1264.29
599.24	1254.53
599.59	1244.61
599.94	1235.68
600.29	1226.61
600.64	1217.29
600.99	1207.38
601.34	1197.97
601.69	1188.01
602.04	1179.07
602.39	1170.00
602.74	1161.19
603.08	1152.61
603.43	1143.53
603.78	1134.36
604.13	1125.32
604.48	1116.20
604.83	1107.35
605.18	1098.42
605.53	1089.40
605.87	1080.54
606.22	1071.93
606.57	1063.09
606.92	1054.32
607.27	1045.34
607.62	1036.48
607.96	1027.81
608.31	1020.20
608.66	1012.14
609.01	1004.50
609.36	996.82
609.70	988.86
610.05	980.78
610.40	973.05
610.75	965.38
611.10	958.00
611.44	950.26
611.79	942.80
612.14	934.95
612.49	927.29
612.83	920.11
613.18	912.98
613.53	905.64
613.88	898.40
614.22	891.78
614.57	884.99
614.92	878.18
615.27	871.38
615.61	864.43
615.96	857.67
616.31	850.84
616.65	843.91
617.00	837.26
617.35	830.75
617.70	824.26
618.04	817.86
618.39	811.44
618.74	805.37
619.08	799.13
619.43	793.14
619.78	787.14
620.12	780.97
620.47	774.98
620.82	769.11
621.16	763.53
621.51	757.56
621.85	751.61
622.20	745.72
622.55	740.04
622.89	734.29
623.24	728.61
623.59	722.99
623.93	717.41
624.28	711.97
624.62	706.51
624.97	701.02
625.32	695.65
625.66	690.13
626.01	684.60
626.35	679.23
626.70	673.91
627.04	668.80
627.39	663.71
627.73	658.75
628.08	654.00
628.43	649.12
628.77	644.32
629.12	639.66
629.46	635.16
629.81	630.46
630.15	625.65
630.50	621.01
630.84	616.58
631.19	612.34
631.53	608.11
631.88	603.80
632.22	599.58
632.57	595.60
632.91	591.57
633.26	587.62
633.60	583.76
633.95	580.02
634.29	576.10
634.64	572.16
634.98	568.12
635.32	564.22
635.67	560.46
636.01	556.65
636.36	552.88
636.70	549.25
637.05	545.64
637.39	542.23
637.73	538.66
638.08	535.17
638.42	531.62
638.77	527.97
639.11	524.28
639.45	520.66
639.80	517.05
640.14	513.63
640.49	510.15
640.83	506.53
641.17	502.98
641.52	499.59
641.86	496.18
642.20	492.97
642.55	489.60
642.89	486.34
643.23	483.25
643.58	480.41
643.92	477.45
644.26	474.50
644.61	471.53
644.95	468.59
645.29	465.58
645.64	462.55
645.98	459.67
646.32	456.97
646.66	454.26
647.01	451.52
647.35	448.82
647.69	446.02
648.04	443.40
648.38	440.79
648.72	438.13
649.06	435.57
649.41	433.01
649.75	430.46
650.09	427.93
650.43	425.41
650.78	422.86
651.12	420.29
651.46	417.85
651.80	415.51
652.14	413.23
652.49	410.96
652.83	408.76
653.17	406.53
653.51	404.37
653.85	402.28
654.20	400.12
654.54	397.88
654.88	395.85
655.22	393.85
655.56	391.82
655.90	389.90
656.25	387.97
656.59	386.06
656.93	384.24
657.27	382.46
657.61	380.58
657.95	378.76
658.29	376.96
658.64	375.17
658.98	373.37
659.32	371.59
659.66	369.92
660.00	368.26
660.34	366.65
660.68	364.97
661.02	363.22
661.36	361.61
661.70	360.06
662.05	358.47
662.39	356.88
662.73	355.39
663.07	353.91
663.41	352.45
663.75	351.02
664.09	349.59
664.43	348.07
664.77	346.67
665.11	345.21
665.45	343.84
665.79	342.46
666.13	341.06
666.47	339.67
666.81	338.23
667.15	336.78
667.49	335.42
667.83	334.11
668.17	332.84
668.51	331.59
668.85	330.35
669.19	329.19
669.53	327.96
669.87	326.71
670.21	325.49
670.55	324.29
670.89	323.16
671.23	322.00
671.57	320.85
671.91	319.76
672.25	318.72
672.58	317.67
672.92	316.60
673.26	315.59
673.60	314.58
673.94	313.57
674.28	312.62
674.62	311.65
674.96	310.64
675.30	309.71
675.64	308.75
675.97	307.82
676.31	306.84
676.65	305.89
676.99	305.00
677.33	304.06
677.67	303.16
678.01	302.19
678.34	301.29
678.68	300.45
679.02	299.57
679.36	298.70
679.70	297.84
680.04	297.00
680.37	296.16
680.71	295.35
681.05	294.60
681.39	293.79
681.73	292.95
682.06	292.15
682.40	291.37
682.74	290.61
683.08	289.87
683.42	289.12
683.75	288.44
684.09	287.67
684.43	286.96
684.77	286.23
685.10	285.55
685.44	284.85
685.78	284.15
686.12	283.49
686.45	282.81
686.79	282.13
687.13	281.47
687.46	280.79
687.80	280.13
688.14	279.42
688.48	278.79
688.81	278.15
689.15	277.57
689.49	276.93
689.82	276.31
690.16	275.64
690.50	275.03
690.83	274.42
691.17	273.83
691.51	273.25
691.84	272.68
692.18	272.09
692.52	271.49
692.85	270.90
693.19	270.37
693.52	269.81
693.86	269.26
694.20	268.71
694.53	268.20
694.87	267.66
695.21	267.16
695.54	266.64
695.88	266.12
696.21	265.57
696.55	265.06
696.88	264.55
697.22	264.07
697.56	263.58
697.89	263.04
698.23	262.53
698.56	262.01
698.90	261.54
699.23	261.05
699.57	260.61
699.90	260.15
700.24	259.66
700.58	259.21
700.91	258.79
701.25	258.45
701.58	258.06
701.92	257.68
702.25	257.26
702.59	256.84
702.92	256.44
703.26	256.04
703.59	255.64
703.93	255.33
704.26	254.96
704.60	254.58
704.93	254.22
705.26	253.86
705.60	253.53
705.93	253.15
706.27	252.84
706.60	252.51
706.94	252.19
707.27	251.81
707.61	251.46
707.94	251.09
708.27	250.66
708.61	250.28
708.94	249.91
709.28	249.58
709.61	249.25
709.94	248.95
710.28	248.66
710.61	248.38
710.95	248.00
711.28	247.77
711.61	247.48
711.95	247.22
712.28	246.93
712.61	246.63
712.95	246.42
713.28	246.18
713.61	245.91
713.95	245.62
714.28	245.38
714.61	245.11
714.95	244.86
715.28	244.61
715.61	244.36
715.95	244.13
716.28	243.89
716.61	243.68
716.95	243.43
717.28	243.20
717.61	242.95
717.94	242.72
718.28	242.43
718.61	242.20
718.94	241.96
719.27	241.74
719.61	241.54
719.94	241.31
720.27	241.05
720.60	240.84
720.94	240.64
721.27	240.45
721.60	240.28
721.93	240.09
722.27	239.94
722.60	239.76
722.93	239.56
723.26	239.39
723.59	239.18
723.93	239.02
724.26	238.85
724.59	238.68
724.92	238.52
725.25	238.38
725.59	238.21
725.92	238.08
726.25	237.92
726.58	237.77
726.91	237.60
727.24	237.46
727.57	237.31
727.91	237.14
728.24	237.00
728.57	236.84
728.90	236.71
729.23	236.53
729.56	236.43
729.89	236.29
730.22	236.14
730.55	236.01
730.89	235.87
731.22	235.72
731.55	235.59
731.88	235.46
732.21	235.31
732.54	235.19
732.87	235.06
733.20	234.94
733.53	234.82
733.86	234.71
734.19	234.58
734.52	234.48
734.85	234.44
735.18	234.30
735.51	234.22
735.84	234.10
736.17	234.02
736.50	233.86
736.83	233.87
737.16	233.77
737.49	233.68
737.82	233.58
738.15	233.49
738.48	233.40
738.81	233.29
739.14	233.18
739.47	233.07
739.80	232.97
740.13	232.88
740.46	232.76
740.79	232.65
741.12	232.56
741.45	232.45
741.78	232.30
742.11	232.24
742.44	232.13
742.77	232.05
743.10	231.94
743.43	231.85
743.75	231.65
744.08	231.72
744.41	231.62
744.74	231.53
745.07	231.42
745.40	231.35
745.73	231.32
746.06	231.24
746.39	231.18
746.71	231.10
747.04	231.00
747.37	230.93
747.70	230.87
748.03	230.80
748.36	230.75
748.68	230.67
749.01	230.56
749.34	230.50
749.67	230.43
750.00	230.37
750.33	230.38
750.65	230.33
750.98	230.11
751.31	230.05
751.64	229.99
751.97	229.98
752.29	229.90
752.62	229.79
752.95	229.72
753.28	229.63
753.60	229.57
753.93	229.53
754.26	229.47
754.59	229.37
754.91	229.29
755.24	229.22
755.57	229.20
755.90	229.14
756.22	229.06
756.55	228.99
756.88	228.90
757.20	228.77
757.53	228.68
757.86	228.63
758.19	228.58
758.51	228.52
758.84	228.42
759.17	228.35
759.49	228.30
759.82	228.30
760.15	228.26
760.47	228.21
760.80	228.13
761.13	228.09
761.45	228.05
761.78	228.01
762.11	227.96
762.43	227.86
762.76	227.82
763.08	227.78
763.41	227.74
763.74	227.70
764.06	227.66
764.39	227.62
764.71	227.57
765.04	227.51
765.37	227.46
765.69	227.42
766.02	227.38
766.34	227.33
766.67	227.25
767.00	227.23
767.32	227.25
767.65	227.27
767.97	227.22
768.30	227.19
768.62	227.14
768.95	227.09
769.27	227.05
769.60	227.03
769.92	226.97
770.25	226.93
770.57	226.87
770.90	226.84
771.22	226.80
771.55	226.76
771.87	226.74
772.20	226.70
772.52	226.75
772.85	226.85
773.17	226.81
773.50	226.77
773.82	226.73
774.15	226.64
774.47	226.55
774.80	226.50
775.12	226.47
775.45	226.44
775.77	226.42
776.09	226.40
776.42	226.37
776.74	226.38
777.07	226.35
777.39	226.33
777.72	226.29
778.04	226.28
778.36	226.25
778.69	226.22
779.01	226.21
779.33	226.10
779.66	225.96
779.98	225.93
780.31	225.92
780.63	225.94
780.95	225.93
781.28	225.91
781.60	225.89
781.92	225.87
782.25	225.84
782.57	225.82
782.89	225.79
783.22	225.77
783.54	225.72
783.86	225.71
784.19	225.69
784.51	225.70
784.83	225.67
785.16	225.65
785.48	225.63
785.80	225.61
786.12	225.60
786.45	225.58
786.77	225.57
787.09	225.55
787.42	225.49
787.74	225.47
788.06	225.46
788.38	225.44
788.71	225.42
789.03	225.41
789.35	225.41
789.67	225.38
789.99	225.38
790.32	225.35
790.64	225.34
790.96	225.43
791.28	225.38
791.61	225.36
791.93	225.35
792.25	225.33
792.57	225.39
792.89	225.36
793.21	225.36
793.54	225.34
793.86	225.31
794.18	225.30
794.50	225.27
794.82	225.25
795.14	225.26
795.47	225.26
795.79	225.25
796.11	225.21
796.43	225.20
796.75	225.18
797.07	225.18
797.39	225.16
797.71	225.07
798.04	225.06
798.36	225.06
798.68	225.04
799.00	225.04
799.32	224.97
799.64	224.98
799.96	224.96
800.28	224.96
800.60	224.95
800.92	224.95
801.24	224.93
801.56	224.93
801.89	224.91
802.21	224.90
802.53	224.88
802.85	224.89
803.17	224.92
803.49	224.89
803.81	224.87
804.13	224.85
804.45	224.83
804.77	224.82
805.09	224.81
805.41	224.79
805.73	224.76
806.05	224.72
806.37	224.71
806.69	224.69
807.01	224.67
807.33	224.66
807.65	224.62
807.97	224.66
808.28	224.64
808.60	224.63
808.92	224.60
809.24	224.66
809.56	224.63
809.88	224.59
810.20	224.58
810.52	224.60
810.84	224.57
811.16	224.56
811.48	224.54
811.80	224.58
812.12	224.57
812.43	224.59
812.75	224.58
813.07	224.57
813.39	224.57
813.71	224.55
814.03	224.53
814.35	224.53
814.67	224.48
814.98	224.47
815.30	224.46
815.62	224.44
815.94	224.36
816.26	224.37
816.58	224.35
816.89	224.35
817.21	224.32
817.53	224.32
817.85	224.32
