SpectraSuite Data File
++++++++++++++++++++++++++++++++++++
Date: Thu Oct 01 07:32:27 EDT 2015
User: lab3
Dark Spectrum Present: No
Reference Spectrum Present: No
Number of Sampled Component Spectra: 1
Spectrometers: USB2E7196
Integration Time (usec): 36000 (USB2E7196)
Spectra Averaged: 10000 (USB2E7196)
Boxcar Smoothing: 10 (USB2E7196)
Correct for Electrical Dark: No (USB2E7196)
Strobe/Lamp Enabled: No (USB2E7196)
Correct for Detector Non-linearity: No (USB2E7196)
Correct for Stray Light: No (USB2E7196)
Number of Pixels in Processed Spectrum: 2048
>>>>>Begin Processed Spectral Data<<<<<
339.09	0.00
339.48	210.09
339.86	211.50
340.24	212.93
340.63	214.35
341.01	217.25
341.39	216.98
341.78	218.37
342.16	219.57
342.54	220.07
342.93	208.64
343.31	219.18
343.69	219.71
344.07	220.17
344.46	220.59
344.84	220.98
345.22	221.22
345.60	221.47
345.99	221.66
346.37	221.80
346.75	221.90
347.13	221.97
347.52	222.04
347.90	222.12
348.28	222.16
348.66	222.21
349.05	222.21
349.43	222.26
349.81	222.31
350.19	222.37
350.57	222.44
350.96	222.52
351.34	222.61
351.72	222.70
352.10	222.81
352.48	222.89
352.87	222.94
353.25	223.00
353.63	223.06
354.01	223.13
354.39	223.21
354.77	223.28
355.15	223.38
355.54	223.44
355.92	223.47
356.30	223.54
356.68	223.68
357.06	223.76
357.44	223.81
357.82	223.86
358.20	223.97
358.58	224.03
358.97	224.09
359.35	224.17
359.73	224.25
360.11	224.30
360.49	224.36
360.87	224.41
361.25	224.48
361.63	224.55
362.01	224.61
362.39	224.64
362.77	224.68
363.15	224.71
363.53	224.74
363.91	224.78
364.29	224.80
364.67	224.72
365.05	224.74
365.43	224.78
365.81	224.81
366.19	224.82
366.57	224.87
366.95	224.88
367.33	224.86
367.71	224.85
368.09	224.86
368.47	224.86
368.85	224.85
369.23	224.85
369.61	224.80
369.99	224.82
370.37	224.81
370.75	224.87
371.13	224.84
371.51	224.79
371.89	224.77
372.27	224.75
372.65	224.72
373.03	224.68
373.41	224.63
373.78	224.59
374.16	224.49
374.54	224.41
374.92	224.36
375.30	224.32
375.68	224.26
376.06	224.21
376.44	224.16
376.82	224.12
377.19	224.07
377.57	224.02
377.95	223.94
378.33	223.88
378.71	223.73
379.09	223.69
379.47	223.66
379.84	223.59
380.22	223.54
380.60	223.47
380.98	223.42
381.36	223.37
381.73	223.31
382.11	223.28
382.49	223.24
382.87	223.18
383.25	223.13
383.62	223.21
384.00	223.14
384.38	223.10
384.76	223.08
385.13	223.07
385.51	223.02
385.89	222.97
386.27	222.93
386.64	222.91
387.02	222.87
387.40	222.82
387.78	222.79
388.15	222.76
388.53	222.73
388.91	222.70
389.29	222.67
389.66	222.66
390.04	222.62
390.42	222.61
390.79	222.59
391.17	222.58
391.55	222.44
391.92	222.43
392.30	222.43
392.68	222.39
393.05	222.37
393.43	222.37
393.81	222.37
394.18	222.35
394.56	222.35
394.94	222.38
395.31	222.37
395.69	222.42
396.06	222.44
396.44	222.46
396.82	222.47
397.19	222.54
397.57	222.55
397.95	222.60
398.32	222.59
398.70	222.63
399.07	222.68
399.45	222.72
399.82	222.76
400.20	222.80
400.58	222.85
400.95	222.86
401.33	222.94
401.70	223.08
402.08	223.17
402.45	223.25
402.83	223.35
403.20	223.45
403.58	223.53
403.95	223.65
404.33	223.79
404.71	223.91
405.08	224.10
405.46	224.25
405.83	224.41
406.21	224.58
406.58	224.77
406.96	224.96
407.33	225.18
407.70	225.43
408.08	225.76
408.45	226.05
408.83	226.37
409.20	226.65
409.58	226.91
409.95	227.26
410.33	227.65
410.70	228.01
411.08	228.43
411.45	228.88
411.82	229.34
412.20	229.86
412.57	230.47
412.95	230.96
413.32	231.59
413.69	232.24
414.07	232.93
414.44	233.68
414.82	234.45
415.19	235.34
415.56	236.25
415.94	237.19
416.31	238.25
416.68	239.31
417.06	240.54
417.43	241.70
417.81	243.03
418.18	244.39
418.55	245.87
418.93	247.41
419.30	249.02
419.67	250.74
420.04	252.50
420.42	254.34
420.79	256.46
421.16	258.61
421.54	260.79
421.91	263.07
422.28	265.44
422.66	267.99
423.03	270.43
423.40	272.98
423.77	275.73
424.15	278.53
424.52	281.45
424.89	284.61
425.26	287.75
425.64	290.66
426.01	293.93
426.38	297.28
426.75	300.73
427.13	304.25
427.50	307.93
427.87	311.76
428.24	315.63
428.61	319.32
428.99	323.30
429.36	327.67
429.73	331.85
430.10	336.01
430.47	340.25
430.85	344.62
431.22	349.26
431.59	354.03
431.96	358.67
432.33	363.82
432.70	368.70
433.08	374.46
433.45	379.90
433.82	385.25
434.19	391.23
434.56	397.11
434.93	402.78
435.30	408.38
435.68	414.69
436.05	420.86
436.42	427.04
436.79	432.67
437.16	438.74
437.53	445.25
437.90	451.76
438.27	458.12
438.64	465.04
439.01	471.30
439.38	477.03
439.75	482.56
440.13	488.88
440.50	494.90
440.87	499.67
441.24	504.91
441.61	510.69
441.98	514.94
442.35	520.00
442.72	525.19
443.09	530.17
443.46	533.41
443.83	535.84
444.20	537.92
444.57	540.91
444.94	542.74
445.31	544.63
445.68	546.32
446.05	547.64
446.42	547.60
446.79	547.45
447.16	547.35
447.53	547.30
447.90	545.55
448.27	543.92
448.64	541.26
449.01	539.55
449.37	535.67
449.74	532.16
450.11	527.62
450.48	522.59
450.85	517.53
451.22	513.24
451.59	509.03
451.96	505.21
452.33	499.57
452.70	494.54
453.07	488.40
453.43	482.23
453.80	476.25
454.17	470.52
454.54	465.19
454.91	459.15
455.28	453.47
455.65	448.11
456.02	442.39
456.38	437.77
456.75	431.82
457.12	427.02
457.49	422.18
457.86	417.54
458.23	413.48
458.59	408.99
458.96	404.36
459.33	400.27
459.70	396.11
460.07	392.93
460.43	389.21
460.80	385.71
461.17	382.63
461.54	379.31
461.91	376.20
462.27	373.04
462.64	370.46
463.01	367.50
463.38	364.52
463.74	361.83
464.11	359.43
464.48	357.26
464.85	354.93
465.21	353.14
465.58	351.18
465.95	348.92
466.32	347.11
466.68	345.34
467.05	343.57
467.42	341.86
467.78	340.02
468.15	338.31
468.52	337.04
468.88	335.38
469.25	333.86
469.62	332.66
469.98	331.35
470.35	330.19
470.72	329.14
471.08	328.08
471.45	327.19
471.82	326.22
472.18	325.22
472.55	324.57
472.92	323.76
473.28	323.13
473.65	322.47
474.02	321.86
474.38	321.36
474.75	321.08
475.11	320.66
475.48	320.51
475.85	320.35
476.21	320.30
476.58	320.31
476.94	320.51
477.31	320.64
477.67	320.80
478.04	321.07
478.41	321.42
478.77	321.89
479.14	322.23
479.50	322.80
479.87	323.51
480.23	324.21
480.60	324.89
480.96	325.60
481.33	326.58
481.69	327.56
482.06	328.53
482.42	329.44
482.79	330.53
483.15	331.78
483.52	333.18
483.88	334.54
484.25	335.98
484.61	337.48
484.98	339.09
485.34	340.90
485.71	342.77
486.07	344.77
486.44	346.75
486.80	348.97
487.17	351.23
487.53	353.71
487.90	356.30
488.26	359.09
488.62	362.04
488.99	365.00
489.35	368.08
489.72	371.42
490.08	374.93
490.44	378.53
490.81	382.29
491.17	386.15
491.54	390.27
491.90	394.49
492.26	399.04
492.63	403.83
492.99	408.81
493.36	413.92
493.72	419.30
494.08	424.82
494.45	430.64
494.81	436.68
495.17	442.85
495.54	449.37
495.90	456.20
496.26	463.16
496.63	470.38
496.99	477.88
497.35	485.73
497.72	493.90
498.08	502.21
498.44	510.80
498.80	519.95
499.17	529.32
499.53	539.04
499.89	548.99
500.26	559.10
500.62	569.50
500.98	580.58
501.34	591.80
501.71	603.58
502.07	615.58
502.43	627.96
502.79	640.70
503.16	653.85
503.52	667.19
503.88	680.91
504.24	695.04
504.60	709.48
504.97	724.31
505.33	739.52
505.69	755.65
506.05	771.98
506.41	788.32
506.78	804.97
507.14	822.08
507.50	839.81
507.86	857.92
508.22	876.30
508.59	894.70
508.95	913.83
509.31	933.38
509.67	953.64
510.03	974.13
510.39	994.82
510.75	1015.74
511.12	1036.97
511.48	1058.53
511.84	1080.16
512.20	1102.10
512.56	1125.14
512.92	1148.42
513.28	1171.41
513.64	1194.70
514.00	1218.40
514.37	1242.45
514.73	1266.51
515.09	1290.35
515.45	1314.66
515.81	1339.51
516.17	1364.44
516.53	1389.00
516.89	1413.64
517.25	1438.46
517.61	1463.48
517.97	1488.68
518.33	1513.61
518.69	1538.68
519.05	1564.00
519.41	1589.46
519.77	1615.19
520.13	1640.10
520.49	1665.16
520.85	1690.43
521.21	1715.64
521.57	1741.44
521.93	1766.49
522.29	1792.42
522.65	1818.05
523.01	1843.44
523.37	1868.13
523.73	1893.38
524.09	1918.83
524.45	1944.22
524.81	1969.13
525.17	1993.93
525.53	2018.27
525.89	2042.63
526.25	2067.18
526.61	2091.19
526.97	2115.50
527.33	2139.71
527.68	2163.80
528.04	2187.01
528.40	2210.09
528.76	2233.31
529.12	2255.48
529.48	2278.00
529.84	2298.64
530.20	2319.92
530.56	2340.85
530.91	2361.79
531.27	2382.27
531.63	2402.09
531.99	2421.36
532.35	2440.24
532.71	2459.22
533.07	2478.84
533.42	2496.83
533.78	2515.30
534.14	2533.72
534.50	2551.31
534.86	2569.51
535.21	2585.81
535.57	2602.09
535.93	2617.58
536.29	2631.92
536.65	2647.05
537.00	2661.08
537.36	2675.63
537.72	2689.08
538.08	2702.21
538.44	2714.20
538.79	2726.38
539.15	2736.90
539.51	2747.39
539.87	2757.56
540.22	2765.62
540.58	2773.69
540.94	2782.44
541.29	2789.51
541.65	2795.64
542.01	2801.27
542.37	2805.02
542.72	2810.66
543.08	2815.80
543.44	2820.83
543.79	2824.96
544.15	2828.32
544.51	2831.58
544.87	2833.97
545.22	2835.93
545.58	2836.95
545.94	2838.40
546.29	2838.40
546.65	2838.57
547.01	2838.69
547.36	2838.97
547.72	2839.38
548.07	2838.35
548.43	2836.65
548.79	2834.31
549.14	2832.05
549.50	2830.34
549.86	2827.88
550.21	2822.92
550.57	2818.41
550.92	2812.49
551.28	2807.19
551.64	2801.75
551.99	2796.75
552.35	2791.34
552.70	2785.51
553.06	2780.39
553.41	2774.80
553.77	2768.73
554.13	2763.22
554.48	2756.90
554.84	2748.87
555.19	2740.97
555.55	2732.52
555.90	2724.64
556.26	2717.83
556.61	2710.36
556.97	2700.72
557.32	2691.88
557.68	2683.59
558.03	2674.58
558.39	2666.28
558.74	2658.16
559.10	2648.75
559.45	2639.03
559.81	2629.65
560.16	2619.62
560.52	2609.10
560.87	2599.57
561.23	2589.70
561.58	2579.31
561.94	2568.65
562.29	2557.54
562.64	2547.05
563.00	2536.92
563.35	2526.67
563.71	2515.53
564.06	2503.78
564.42	2493.12
564.77	2482.07
565.12	2471.12
565.48	2459.90
565.83	2449.31
566.19	2438.74
566.54	2427.86
566.89	2416.02
567.25	2404.17
567.60	2393.14
567.96	2381.73
568.31	2368.90
568.66	2355.94
569.02	2344.07
569.37	2331.99
569.72	2320.41
570.08	2308.10
570.43	2295.23
570.78	2282.12
571.14	2268.73
571.49	2256.22
571.84	2243.95
572.20	2230.34
572.55	2217.17
572.90	2203.92
573.26	2189.81
573.61	2175.12
573.96	2160.67
574.31	2146.62
574.67	2132.77
575.02	2118.47
575.37	2103.75
575.72	2089.32
576.08	2075.52
576.43	2060.68
576.78	2045.88
577.13	2031.94
577.49	2018.03
577.84	2004.49
578.19	1990.10
578.54	1975.34
578.90	1960.06
579.25	1944.53
579.60	1930.44
579.95	1915.95
580.30	1901.47
580.66	1887.31
581.01	1872.74
581.36	1858.52
581.71	1844.87
582.06	1830.75
582.42	1816.67
582.77	1803.38
583.12	1789.77
583.47	1776.15
583.82	1762.68
584.17	1749.11
584.53	1735.33
584.88	1721.56
585.23	1707.48
585.58	1693.89
585.93	1680.77
586.28	1668.47
586.63	1656.02
586.98	1642.85
587.34	1629.90
587.69	1616.45
588.04	1603.20
588.39	1590.67
588.74	1577.70
589.09	1564.43
589.44	1551.12
589.79	1538.40
590.14	1525.52
590.49	1512.87
590.84	1500.11
591.19	1487.99
591.54	1475.33
591.89	1462.56
592.25	1450.15
592.60	1437.33
592.95	1425.06
593.30	1413.06
593.65	1400.86
594.00	1388.82
594.35	1377.63
594.70	1365.61
595.05	1354.69
595.40	1343.62
595.75	1331.95
596.10	1321.04
596.45	1310.34
596.80	1300.11
597.15	1289.68
597.50	1279.25
597.85	1268.99
598.19	1258.92
598.54	1248.27
598.89	1238.39
599.24	1228.82
599.59	1218.98
599.94	1210.17
600.29	1201.25
600.64	1192.10
600.99	1182.40
601.34	1173.16
601.69	1163.31
602.04	1154.53
602.39	1145.55
602.74	1136.84
603.08	1128.37
603.43	1119.40
603.78	1110.36
604.13	1101.45
604.48	1092.47
604.83	1083.76
605.18	1074.95
605.53	1066.09
605.87	1057.37
606.22	1048.89
606.57	1040.13
606.92	1031.48
607.27	1022.73
607.62	1014.07
607.96	1005.57
608.31	998.04
608.66	990.08
609.01	982.56
609.36	975.02
609.70	967.25
610.05	959.29
610.40	951.69
610.75	944.23
611.10	937.03
611.44	929.42
611.79	922.15
612.14	914.51
612.49	906.99
612.83	899.95
613.18	892.96
613.53	885.77
613.88	878.68
614.22	872.15
614.57	865.46
614.92	858.75
615.27	852.08
615.61	845.26
615.96	838.70
616.31	832.03
616.65	825.25
617.00	818.73
617.35	812.35
617.70	806.00
618.04	799.70
618.39	793.42
618.74	787.50
619.08	781.37
619.43	775.51
619.78	769.69
620.12	763.65
620.47	757.79
620.82	752.01
621.16	746.55
621.51	740.75
621.85	734.94
622.20	729.16
622.55	723.57
622.89	717.94
623.24	712.33
623.59	706.81
623.93	701.35
624.28	696.01
624.62	690.66
624.97	685.30
625.32	680.06
625.66	674.69
626.01	669.31
626.35	664.07
626.70	658.85
627.04	653.81
627.39	648.84
627.73	643.98
628.08	639.33
628.43	634.58
628.77	629.88
629.12	625.30
629.46	620.92
629.81	616.37
630.15	611.68
630.50	607.16
630.84	602.82
631.19	598.65
631.53	594.55
631.88	590.33
632.22	586.20
632.57	582.31
632.91	578.36
633.26	574.51
633.60	570.72
633.95	567.02
634.29	563.20
634.64	559.33
634.98	555.39
635.32	551.60
635.67	547.94
636.01	544.22
636.36	540.55
636.70	537.01
637.05	533.46
637.39	530.13
637.73	526.67
638.08	523.27
638.42	519.85
638.77	516.28
639.11	512.73
639.45	509.22
639.80	505.68
640.14	502.34
640.49	498.96
640.83	495.47
641.17	492.02
641.52	488.74
641.86	485.46
642.20	482.32
642.55	479.05
642.89	475.85
643.23	472.87
643.58	470.09
643.92	467.20
644.26	464.35
644.61	461.48
644.95	458.62
645.29	455.71
645.64	452.77
645.98	449.97
646.32	447.32
646.66	444.69
647.01	442.03
647.35	439.42
647.69	436.71
648.04	434.13
648.38	431.60
648.72	429.03
649.06	426.53
649.41	424.05
649.75	421.56
650.09	419.11
650.43	416.66
650.78	414.19
651.12	411.72
651.46	409.34
651.80	407.05
652.14	404.84
652.49	402.63
652.83	400.49
653.17	398.33
653.51	396.24
653.85	394.21
654.20	392.13
654.54	389.95
654.88	387.97
655.22	386.06
655.56	384.09
655.90	382.22
656.25	380.36
656.59	378.51
656.93	376.76
657.27	375.04
657.61	373.22
657.95	371.47
658.29	369.72
658.64	368.02
658.98	366.28
659.32	364.56
659.66	362.96
660.00	361.37
660.34	359.80
660.68	358.18
661.02	356.50
661.36	354.92
661.70	353.42
662.05	351.90
662.39	350.37
662.73	348.93
663.07	347.51
663.41	346.11
663.75	344.73
664.09	343.36
664.43	341.92
664.77	340.56
665.11	339.14
665.45	337.80
665.79	336.46
666.13	335.11
666.47	333.74
666.81	332.35
667.15	330.93
667.49	329.61
667.83	328.34
668.17	327.12
668.51	325.92
668.85	324.73
669.19	323.61
669.53	322.42
669.87	321.20
670.21	320.02
670.55	318.86
670.89	317.76
671.23	316.63
671.57	315.51
671.91	314.45
672.25	313.46
672.58	312.46
672.92	311.42
673.26	310.45
673.60	309.48
673.94	308.51
674.28	307.60
674.62	306.67
674.96	305.71
675.30	304.81
675.64	303.88
675.97	302.97
676.31	302.02
676.65	301.09
676.99	300.23
677.33	299.32
677.67	298.45
678.01	297.50
678.34	296.63
678.68	295.82
679.02	294.97
679.36	294.13
679.70	293.29
680.04	292.48
680.37	291.67
680.71	290.89
681.05	290.15
681.39	289.38
681.73	288.57
682.06	287.78
682.40	287.02
682.74	286.28
683.08	285.58
683.42	284.84
683.75	284.18
684.09	283.44
684.43	282.75
684.77	282.04
685.10	281.39
685.44	280.72
685.78	280.03
686.12	279.38
686.45	278.72
686.79	278.06
687.13	277.43
687.46	276.77
687.80	276.13
688.14	275.45
688.48	274.83
688.81	274.21
689.15	273.64
689.49	273.03
689.82	272.43
690.16	271.78
690.50	271.20
690.83	270.61
691.17	270.04
691.51	269.48
691.84	268.94
692.18	268.36
692.52	267.79
692.85	267.23
693.19	266.71
693.52	266.18
693.86	265.65
694.20	265.13
694.53	264.63
694.87	264.12
695.21	263.63
695.54	263.14
695.88	262.64
696.21	262.10
696.55	261.62
696.88	261.13
697.22	260.66
697.56	260.20
697.89	259.68
698.23	259.20
698.56	258.69
698.90	258.24
699.23	257.78
699.57	257.35
699.90	256.91
700.24	256.43
700.58	256.01
700.91	255.61
701.25	255.28
701.58	254.91
701.92	254.53
702.25	254.14
702.59	253.72
702.92	253.34
703.26	252.96
703.59	252.58
703.93	252.29
704.26	251.93
704.60	251.56
704.93	251.21
705.26	250.87
705.60	250.55
705.93	250.19
706.27	249.89
706.60	249.57
706.94	249.28
707.27	248.92
707.61	248.58
707.94	248.23
708.27	247.81
708.61	247.44
708.94	247.09
709.28	246.78
709.61	246.46
709.94	246.18
710.28	245.89
710.61	245.62
710.95	245.25
711.28	245.03
711.61	244.75
711.95	244.51
712.28	244.23
712.61	243.94
712.95	243.74
713.28	243.52
713.61	243.25
713.95	242.96
714.28	242.74
714.61	242.48
714.95	242.24
715.28	242.00
715.61	241.77
715.95	241.55
716.28	241.32
716.61	241.12
716.95	240.88
717.28	240.66
717.61	240.44
717.94	240.22
718.28	239.94
718.61	239.72
718.94	239.49
719.27	239.29
719.61	239.10
719.94	238.87
720.27	238.62
720.60	238.43
720.94	238.24
721.27	238.06
721.60	237.90
721.93	237.72
722.27	237.58
722.60	237.42
722.93	237.23
723.26	237.06
723.59	236.87
723.93	236.71
724.26	236.56
724.59	236.39
724.92	236.24
725.25	236.11
725.59	235.96
725.92	235.83
726.25	235.68
726.58	235.53
726.91	235.37
727.24	235.24
727.57	235.10
727.91	234.94
728.24	234.81
728.57	234.66
728.90	234.53
729.23	234.36
729.56	234.27
729.89	234.13
730.22	233.99
730.55	233.86
730.89	233.73
731.22	233.59
731.55	233.46
731.88	233.34
732.21	233.20
732.54	233.08
732.87	232.96
733.20	232.85
733.53	232.74
733.86	232.64
734.19	232.51
734.52	232.42
734.85	232.39
735.18	232.25
735.51	232.18
735.84	232.07
736.17	232.00
736.50	231.84
736.83	231.87
737.16	231.77
737.49	231.68
737.82	231.58
738.15	231.50
738.48	231.41
738.81	231.31
739.14	231.20
739.47	231.10
739.80	231.00
740.13	230.92
740.46	230.81
740.79	230.70
741.12	230.61
741.45	230.50
741.78	230.36
742.11	230.30
742.44	230.19
742.77	230.12
743.10	230.01
743.43	229.92
743.75	229.72
744.08	229.79
744.41	229.70
744.74	229.61
745.07	229.51
745.40	229.45
745.73	229.41
746.06	229.34
746.39	229.28
746.71	229.20
747.04	229.11
747.37	229.04
747.70	228.99
748.03	228.92
748.36	228.87
748.68	228.79
749.01	228.69
749.34	228.62
749.67	228.55
750.00	228.50
750.33	228.52
750.65	228.47
750.98	228.25
751.31	228.19
751.64	228.13
751.97	228.13
752.29	228.05
752.62	227.94
752.95	227.87
753.28	227.80
753.60	227.73
753.93	227.69
754.26	227.63
754.59	227.54
754.91	227.46
755.24	227.39
755.57	227.38
755.90	227.32
756.22	227.25
756.55	227.17
756.88	227.09
757.20	226.96
757.53	226.88
757.86	226.82
758.19	226.78
758.51	226.72
758.84	226.62
759.17	226.55
759.49	226.51
759.82	226.52
760.15	226.48
760.47	226.43
760.80	226.35
761.13	226.32
761.45	226.28
761.78	226.24
762.11	226.20
762.43	226.10
762.76	226.06
763.08	226.03
763.41	225.99
763.74	225.95
764.06	225.91
764.39	225.88
764.71	225.83
765.04	225.78
765.37	225.73
765.69	225.69
766.02	225.65
766.34	225.60
766.67	225.52
767.00	225.50
767.32	225.51
767.65	225.54
767.97	225.49
768.30	225.46
768.62	225.43
768.95	225.38
769.27	225.34
769.60	225.32
769.92	225.26
770.25	225.21
770.57	225.16
770.90	225.12
771.22	225.08
771.55	225.05
771.87	225.02
772.20	224.99
772.52	225.05
772.85	225.15
773.17	225.12
773.50	225.07
773.82	225.02
774.15	224.94
774.47	224.84
774.80	224.80
775.12	224.77
775.45	224.73
775.77	224.72
776.09	224.70
776.42	224.67
776.74	224.68
777.07	224.65
777.39	224.63
777.72	224.59
778.04	224.58
778.36	224.54
778.69	224.52
779.01	224.50
779.33	224.38
779.66	224.24
779.98	224.21
780.31	224.19
780.63	224.22
780.95	224.22
781.28	224.20
781.60	224.17
781.92	224.15
782.25	224.13
782.57	224.11
782.89	224.09
783.22	224.05
783.54	224.01
783.86	224.00
784.19	223.98
784.51	223.99
784.83	223.96
785.16	223.94
785.48	223.92
785.80	223.90
786.12	223.90
786.45	223.88
786.77	223.87
787.09	223.85
787.42	223.79
787.74	223.77
788.06	223.76
788.38	223.74
788.71	223.72
789.03	223.71
789.35	223.71
789.67	223.68
789.99	223.67
790.32	223.64
790.64	223.64
790.96	223.73
791.28	223.68
791.61	223.66
791.93	223.66
792.25	223.64
792.57	223.70
792.89	223.67
793.21	223.66
793.54	223.64
793.86	223.62
794.18	223.61
794.50	223.57
794.82	223.56
795.14	223.56
795.47	223.58
795.79	223.56
796.11	223.53
796.43	223.52
796.75	223.50
797.07	223.50
797.39	223.48
797.71	223.38
798.04	223.37
798.36	223.36
798.68	223.35
799.00	223.35
799.32	223.28
799.64	223.30
799.96	223.28
800.28	223.29
800.60	223.28
800.92	223.28
801.24	223.26
801.56	223.26
801.89	223.24
802.21	223.23
802.53	223.20
802.85	223.22
803.17	223.26
803.49	223.23
803.81	223.21
804.13	223.19
804.45	223.17
804.77	223.17
805.09	223.17
805.41	223.15
805.73	223.12
806.05	223.09
806.37	223.06
806.69	223.05
807.01	223.03
807.33	223.03
807.65	222.98
807.97	223.02
808.28	223.00
808.60	222.99
808.92	222.97
809.24	223.02
809.56	222.99
809.88	222.95
810.20	222.95
810.52	222.96
810.84	222.94
811.16	222.93
811.48	222.91
811.80	222.94
812.12	222.93
812.43	222.94
812.75	222.95
813.07	222.93
813.39	222.93
813.71	222.91
814.03	222.89
814.35	222.89
814.67	222.84
814.98	222.83
815.30	222.82
815.62	222.80
815.94	222.73
816.26	222.74
816.58	222.71
816.89	222.72
817.21	222.69
817.53	222.69
817.85	222.69
