SpectraSuite Data File
++++++++++++++++++++++++++++++++++++
Date: Wed Sep 30 19:15:12 EDT 2015
User: lab3
Dark Spectrum Present: No
Reference Spectrum Present: No
Number of Sampled Component Spectra: 1
Spectrometers: USB2E7196
Integration Time (usec): 36000 (USB2E7196)
Spectra Averaged: 5000 (USB2E7196)
Boxcar Smoothing: 10 (USB2E7196)
Correct for Electrical Dark: No (USB2E7196)
Strobe/Lamp Enabled: No (USB2E7196)
Correct for Detector Non-linearity: No (USB2E7196)
Correct for Stray Light: No (USB2E7196)
Number of Pixels in Processed Spectrum: 2048
>>>>>Begin Processed Spectral Data<<<<<
339.09	0.00
339.48	210.70
339.86	212.06
340.24	213.50
340.63	214.92
341.01	217.87
341.39	217.62
341.78	218.95
342.16	220.13
342.54	220.70
342.93	209.21
343.31	219.78
343.69	220.31
344.07	220.78
344.46	221.21
344.84	221.59
345.22	221.83
345.60	222.09
345.99	222.29
346.37	222.42
346.75	222.52
347.13	222.60
347.52	222.67
347.90	222.75
348.28	222.79
348.66	222.84
349.05	222.84
349.43	222.90
349.81	222.96
350.19	223.01
350.57	223.08
350.96	223.15
351.34	223.25
351.72	223.35
352.10	223.45
352.48	223.53
352.87	223.58
353.25	223.64
353.63	223.70
354.01	223.76
354.39	223.84
354.77	223.92
355.15	224.02
355.54	224.07
355.92	224.10
356.30	224.18
356.68	224.32
357.06	224.39
357.44	224.44
357.82	224.50
358.20	224.61
358.58	224.68
358.97	224.75
359.35	224.83
359.73	224.91
360.11	224.96
360.49	225.02
360.87	225.07
361.25	225.13
361.63	225.22
362.01	225.26
362.39	225.29
362.77	225.35
363.15	225.37
363.53	225.41
363.91	225.45
364.29	225.47
364.67	225.39
365.05	225.41
365.43	225.45
365.81	225.47
366.19	225.49
366.57	225.53
366.95	225.53
367.33	225.51
367.71	225.50
368.09	225.51
368.47	225.51
368.85	225.50
369.23	225.50
369.61	225.44
369.99	225.46
370.37	225.46
370.75	225.51
371.13	225.48
371.51	225.44
371.89	225.42
372.27	225.40
372.65	225.38
373.03	225.33
373.41	225.29
373.78	225.24
374.16	225.15
374.54	225.07
374.92	225.02
375.30	224.98
375.68	224.91
376.06	224.87
376.44	224.81
376.82	224.77
377.19	224.72
377.57	224.67
377.95	224.59
378.33	224.52
378.71	224.38
379.09	224.33
379.47	224.30
379.84	224.24
380.22	224.17
380.60	224.10
380.98	224.05
381.36	224.00
381.73	223.94
382.11	223.91
382.49	223.87
382.87	223.81
383.25	223.76
383.62	223.83
384.00	223.76
384.38	223.72
384.76	223.70
385.13	223.68
385.51	223.64
385.89	223.59
386.27	223.55
386.64	223.53
387.02	223.48
387.40	223.43
387.78	223.40
388.15	223.38
388.53	223.34
388.91	223.31
389.29	223.27
389.66	223.26
390.04	223.22
390.42	223.22
390.79	223.20
391.17	223.18
391.55	223.05
391.92	223.04
392.30	223.04
392.68	223.00
393.05	222.98
393.43	222.98
393.81	222.98
394.18	222.97
394.56	222.96
394.94	222.99
395.31	222.99
395.69	223.03
396.06	223.06
396.44	223.08
396.82	223.09
397.19	223.17
397.57	223.18
397.95	223.21
398.32	223.20
398.70	223.25
399.07	223.31
399.45	223.34
399.82	223.38
400.20	223.40
400.58	223.46
400.95	223.47
401.33	223.55
401.70	223.68
402.08	223.76
402.45	223.84
402.83	223.94
403.20	224.04
403.58	224.12
403.95	224.23
404.33	224.36
404.71	224.49
405.08	224.66
405.46	224.80
405.83	224.96
406.21	225.13
406.58	225.32
406.96	225.50
407.33	225.71
407.70	225.95
408.08	226.28
408.45	226.55
408.83	226.86
409.20	227.13
409.58	227.38
409.95	227.72
410.33	228.08
410.70	228.43
411.08	228.84
411.45	229.26
411.82	229.70
412.20	230.19
412.57	230.79
412.95	231.24
413.32	231.85
413.69	232.47
414.07	233.13
414.44	233.84
414.82	234.58
415.19	235.44
415.56	236.31
415.94	237.21
416.31	238.23
416.68	239.25
417.06	240.44
417.43	241.55
417.81	242.82
418.18	244.13
418.55	245.55
418.93	247.02
419.30	248.57
419.67	250.22
420.04	251.91
420.42	253.68
420.79	255.73
421.16	257.79
421.54	259.90
421.91	262.09
422.28	264.38
422.66	266.84
423.03	269.19
423.40	271.65
423.77	274.29
424.15	277.00
424.52	279.82
424.89	282.86
425.26	285.90
425.64	288.71
426.01	291.88
426.38	295.13
426.75	298.48
427.13	301.91
427.50	305.49
427.87	309.22
428.24	312.98
428.61	316.58
428.99	320.46
429.36	324.73
429.73	328.81
430.10	332.87
430.47	337.03
430.85	341.30
431.22	345.86
431.59	350.54
431.96	355.10
432.33	360.14
432.70	364.93
433.08	370.60
433.45	375.95
433.82	381.20
434.19	387.07
434.56	392.83
434.93	398.38
435.30	403.89
435.68	410.08
436.05	416.14
436.42	422.20
436.79	427.72
437.16	433.66
437.53	440.04
437.90	446.40
438.27	452.60
438.64	459.33
439.01	465.42
439.38	470.96
439.75	476.32
440.13	482.44
440.50	488.26
440.87	492.83
441.24	497.85
441.61	503.41
441.98	507.47
442.35	512.29
442.72	517.24
443.09	521.96
443.46	524.98
443.83	527.20
444.20	529.08
444.57	531.83
444.94	533.44
445.31	535.11
445.68	536.59
446.05	537.68
446.42	537.46
446.79	537.16
447.16	536.90
447.53	536.67
447.90	534.80
448.27	533.04
448.64	530.32
449.01	528.49
449.37	524.59
449.74	521.04
450.11	516.52
450.48	511.53
450.85	506.51
451.22	502.24
451.59	498.07
451.96	494.28
452.33	488.75
452.70	483.83
453.07	477.83
453.43	471.83
453.80	466.03
454.17	460.46
454.54	455.30
454.91	449.47
455.28	443.99
455.65	438.83
456.02	433.33
456.38	428.90
456.75	423.20
457.12	418.60
457.49	413.95
457.86	409.51
458.23	405.64
458.59	401.36
458.96	396.97
459.33	393.09
459.70	389.13
460.07	386.11
460.43	382.56
460.80	379.24
461.17	376.30
461.54	373.15
461.91	370.19
462.27	367.18
462.64	364.72
463.01	361.91
463.38	359.07
463.74	356.51
464.11	354.22
464.48	352.14
464.85	349.92
465.21	348.22
465.58	346.35
465.95	344.18
466.32	342.43
466.68	340.73
467.05	339.02
467.42	337.38
467.78	335.61
468.15	333.98
468.52	332.75
468.88	331.15
469.25	329.68
469.62	328.52
469.98	327.26
470.35	326.14
470.72	325.12
471.08	324.09
471.45	323.23
471.82	322.29
472.18	321.33
472.55	320.69
472.92	319.91
473.28	319.29
473.65	318.66
474.02	318.07
474.38	317.58
474.75	317.31
475.11	316.90
475.48	316.74
475.85	316.58
476.21	316.53
476.58	316.54
476.94	316.72
477.31	316.84
477.67	316.99
478.04	317.24
478.41	317.57
478.77	318.03
479.14	318.37
479.50	318.91
479.87	319.58
480.23	320.26
480.60	320.92
480.96	321.60
481.33	322.54
481.69	323.48
482.06	324.41
482.42	325.30
482.79	326.36
483.15	327.57
483.52	328.93
483.88	330.25
484.25	331.65
484.61	333.11
484.98	334.70
485.34	336.46
485.71	338.29
486.07	340.24
486.44	342.17
486.80	344.32
487.17	346.53
487.53	348.96
487.90	351.49
488.26	354.23
488.62	357.12
488.99	360.00
489.35	363.03
489.72	366.30
490.08	369.74
490.44	373.27
490.81	376.97
491.17	380.75
491.54	384.79
491.90	388.93
492.26	393.39
492.63	398.08
492.99	402.96
493.36	407.98
493.72	413.26
494.08	418.68
494.45	424.40
494.81	430.31
495.17	436.36
495.54	442.74
495.90	449.44
496.26	456.28
496.63	463.36
496.99	470.71
497.35	478.43
497.72	486.44
498.08	494.61
498.44	503.04
498.80	512.02
499.17	521.23
499.53	530.78
499.89	540.54
500.26	550.48
500.62	560.70
500.98	571.58
501.34	582.60
501.71	594.16
502.07	605.94
502.43	618.13
502.79	630.65
503.16	643.57
503.52	656.69
503.88	670.18
504.24	684.10
504.60	698.32
504.97	712.91
505.33	727.86
505.69	743.71
506.05	759.77
506.41	775.83
506.78	792.19
507.14	809.04
507.50	826.51
507.86	844.39
508.22	862.51
508.59	880.65
508.95	899.51
509.31	918.80
509.67	938.78
510.03	959.01
510.39	979.45
510.75	1000.13
511.12	1021.09
511.48	1042.38
511.84	1063.78
512.20	1085.49
512.56	1108.28
512.92	1131.30
513.28	1154.05
513.64	1177.14
514.00	1200.63
514.37	1224.45
514.73	1248.32
515.09	1271.99
515.45	1296.06
515.81	1320.71
516.17	1345.44
516.53	1369.90
516.89	1394.43
517.25	1419.15
517.61	1444.01
517.97	1469.11
518.33	1493.96
518.69	1518.96
519.05	1544.24
519.41	1569.65
519.77	1595.32
520.13	1620.29
520.49	1645.35
520.85	1670.69
521.21	1695.96
521.57	1721.87
521.93	1747.09
522.29	1773.13
522.65	1798.87
523.01	1824.51
523.37	1849.42
523.73	1874.99
524.09	1900.68
524.45	1926.24
524.81	1951.35
525.17	1976.41
525.53	2001.07
525.89	2025.82
526.25	2050.75
526.61	2075.11
526.97	2099.78
527.33	2124.41
527.68	2148.78
528.04	2172.43
528.40	2195.92
528.76	2219.59
529.12	2242.22
529.48	2265.18
529.84	2286.38
530.20	2308.15
530.56	2329.48
530.91	2350.92
531.27	2371.84
531.63	2392.17
531.99	2412.04
532.35	2431.57
532.71	2451.22
533.07	2471.42
533.42	2490.08
533.78	2509.13
534.14	2528.16
534.50	2546.33
534.86	2565.16
535.21	2582.21
535.57	2599.18
535.93	2615.39
536.29	2630.37
536.65	2646.18
537.00	2660.86
537.36	2676.02
537.72	2690.16
538.08	2704.09
538.44	2716.80
538.79	2729.76
539.15	2741.08
539.51	2752.31
539.87	2763.16
540.22	2771.80
540.58	2780.62
540.94	2789.92
541.29	2797.78
541.65	2804.64
542.01	2810.98
542.37	2815.45
542.72	2821.87
543.08	2827.64
543.44	2833.34
543.79	2838.23
544.15	2842.18
544.51	2846.22
544.87	2849.36
545.22	2852.04
545.58	2853.66
545.94	2855.78
546.29	2856.43
546.65	2857.13
547.01	2857.86
547.36	2858.73
547.72	2859.82
548.07	2859.40
548.43	2858.39
548.79	2856.67
549.14	2854.99
549.50	2853.90
549.86	2851.90
550.21	2847.40
550.57	2843.47
550.92	2838.11
551.28	2833.33
551.64	2828.46
551.99	2823.93
552.35	2818.98
552.70	2813.63
553.06	2809.05
553.41	2803.97
553.77	2798.18
554.13	2793.16
554.48	2787.26
554.84	2779.71
555.19	2772.32
555.55	2764.34
555.90	2756.94
556.26	2750.62
556.61	2743.61
556.97	2734.46
557.32	2726.15
557.68	2718.25
558.03	2709.64
558.39	2701.61
558.74	2693.84
559.10	2684.89
559.45	2675.56
559.81	2666.56
560.16	2656.86
560.52	2646.73
560.87	2637.70
561.23	2628.27
561.58	2618.34
561.94	2608.10
562.29	2597.42
562.64	2587.26
563.00	2577.43
563.35	2567.36
563.71	2556.37
564.06	2544.94
564.42	2534.46
564.77	2523.63
565.12	2512.98
565.48	2502.09
565.83	2491.91
566.19	2481.74
566.54	2471.17
566.89	2459.62
567.25	2447.98
567.60	2437.20
567.96	2425.92
568.31	2413.20
568.66	2400.47
569.02	2388.81
569.37	2376.96
569.72	2365.58
570.08	2353.48
570.43	2340.80
570.78	2327.84
571.14	2314.70
571.49	2302.31
571.84	2290.27
572.20	2276.96
572.55	2263.95
572.90	2250.82
573.26	2236.79
573.61	2222.07
573.96	2207.63
574.31	2193.59
574.67	2179.86
575.02	2165.71
575.37	2151.14
575.72	2136.77
576.08	2123.07
576.43	2108.22
576.78	2093.42
577.13	2079.41
577.49	2065.49
577.84	2051.96
578.19	2037.56
578.54	2022.73
578.90	2007.43
579.25	1991.82
579.60	1977.69
579.95	1963.23
580.30	1948.75
580.66	1934.53
581.01	1919.96
581.36	1905.78
581.71	1892.17
582.06	1878.02
582.42	1863.95
582.77	1850.60
583.12	1836.92
583.47	1823.22
583.82	1809.68
584.17	1796.02
584.53	1782.23
584.88	1768.42
585.23	1754.29
585.58	1740.70
585.93	1727.53
586.28	1715.11
586.63	1702.51
586.98	1689.17
587.34	1676.04
587.69	1662.42
588.04	1649.10
588.39	1636.47
588.74	1623.28
589.09	1609.85
589.44	1596.36
589.79	1583.38
590.14	1570.34
590.49	1557.47
590.84	1544.49
591.19	1532.17
591.54	1519.35
591.89	1506.35
592.25	1493.68
592.60	1480.58
592.95	1468.08
593.30	1455.87
593.65	1443.48
594.00	1431.29
594.35	1419.86
594.70	1407.62
595.05	1396.46
595.40	1385.11
595.75	1373.13
596.10	1361.97
596.45	1351.02
596.80	1340.57
597.15	1329.91
597.50	1319.22
597.85	1308.76
598.19	1298.47
598.54	1287.54
598.89	1277.33
599.24	1267.43
599.59	1257.32
599.94	1248.26
600.29	1239.08
600.64	1229.68
600.99	1219.68
601.34	1210.18
601.69	1200.06
602.04	1191.02
602.39	1181.84
602.74	1172.92
603.08	1164.23
603.43	1155.07
603.78	1145.76
604.13	1136.59
604.48	1127.35
604.83	1118.39
605.18	1109.33
605.53	1100.20
605.87	1091.23
606.22	1082.53
606.57	1073.57
606.92	1064.69
607.27	1055.65
607.62	1046.66
607.96	1037.88
608.31	1030.15
608.66	1021.95
609.01	1014.21
609.36	1006.42
609.70	998.40
610.05	990.19
610.40	982.33
610.75	974.58
611.10	967.14
611.44	959.29
611.79	951.75
612.14	943.81
612.49	936.04
612.83	928.79
613.18	921.58
613.53	914.17
613.88	906.86
614.22	900.15
614.57	893.28
614.92	886.39
615.27	879.50
615.61	872.46
615.96	865.64
616.31	858.73
616.65	851.72
617.00	844.97
617.35	838.36
617.70	831.78
618.04	825.28
618.39	818.79
618.74	812.67
619.08	806.33
619.43	800.26
619.78	794.20
620.12	787.95
620.47	781.88
620.82	775.89
621.16	770.26
621.51	764.23
621.85	758.20
622.20	752.22
622.55	746.45
622.89	740.63
623.24	734.88
623.59	729.22
623.93	723.57
624.28	718.07
624.62	712.53
624.97	706.99
625.32	701.56
625.66	695.96
626.01	690.36
626.35	684.92
626.70	679.52
627.04	674.32
627.39	669.15
627.73	664.09
628.08	659.29
628.43	654.34
628.77	649.50
629.12	644.77
629.46	640.23
629.81	635.50
630.15	630.63
630.50	625.90
630.84	621.37
631.19	617.06
631.53	612.77
631.88	608.40
632.22	604.12
632.57	600.08
632.91	596.01
633.26	592.02
633.60	588.12
633.95	584.33
634.29	580.39
634.64	576.41
634.98	572.31
635.32	568.36
635.67	564.56
636.01	560.69
636.36	556.87
636.70	553.19
637.05	549.50
637.39	546.03
637.73	542.43
638.08	538.89
638.42	535.31
638.77	531.62
639.11	527.89
639.45	524.22
639.80	520.54
640.14	517.05
640.49	513.51
640.83	509.87
641.17	506.26
641.52	502.83
641.86	499.39
642.20	496.13
642.55	492.73
642.89	489.39
643.23	486.26
643.58	483.38
643.92	480.37
644.26	477.40
644.61	474.40
644.95	471.41
645.29	468.37
645.64	465.30
645.98	462.37
646.32	459.61
646.66	456.87
647.01	454.09
647.35	451.37
647.69	448.53
648.04	445.84
648.38	443.18
648.72	440.47
649.06	437.85
649.41	435.27
649.75	432.67
650.09	430.10
650.43	427.53
650.78	424.93
651.12	422.32
651.46	419.84
651.80	417.45
652.14	415.13
652.49	412.83
652.83	410.58
653.17	408.32
653.51	406.12
653.85	404.00
654.20	401.81
654.54	399.54
654.88	397.47
655.22	395.45
655.56	393.39
655.90	391.43
656.25	389.49
656.59	387.53
656.93	385.69
657.27	383.89
657.61	381.98
657.95	380.14
658.29	378.31
658.64	376.51
658.98	374.68
659.32	372.88
659.66	371.19
660.00	369.51
660.34	367.86
660.68	366.16
661.02	364.39
661.36	362.75
661.70	361.18
662.05	359.58
662.39	357.97
662.73	356.45
663.07	354.96
663.41	353.48
663.75	352.03
664.09	350.58
664.43	349.05
664.77	347.63
665.11	346.15
665.45	344.75
665.79	343.35
666.13	341.94
666.47	340.51
666.81	339.07
667.15	337.59
667.49	336.21
667.83	334.87
668.17	333.58
668.51	332.31
668.85	331.06
669.19	329.89
669.53	328.65
669.87	327.38
670.21	326.14
670.55	324.92
670.89	323.77
671.23	322.59
671.57	321.42
671.91	320.31
672.25	319.27
672.58	318.21
672.92	317.11
673.26	316.08
673.60	315.06
673.94	314.03
674.28	313.06
674.62	312.08
674.96	311.08
675.30	310.12
675.64	309.15
675.97	308.20
676.31	307.20
676.65	306.23
676.99	305.32
677.33	304.36
677.67	303.44
678.01	302.46
678.34	301.54
678.68	300.68
679.02	299.80
679.36	298.91
679.70	298.03
680.04	297.19
680.37	296.33
680.71	295.51
681.05	294.74
681.39	293.93
681.73	293.09
682.06	292.28
682.40	291.48
682.74	290.71
683.08	289.96
683.42	289.19
683.75	288.50
684.09	287.73
684.43	287.01
684.77	286.28
685.10	285.59
685.44	284.89
685.78	284.17
686.12	283.49
686.45	282.81
686.79	282.13
687.13	281.46
687.46	280.78
687.80	280.11
688.14	279.39
688.48	278.74
688.81	278.09
689.15	277.49
689.49	276.85
689.82	276.22
690.16	275.53
690.50	274.92
690.83	274.29
691.17	273.69
691.51	273.09
691.84	272.52
692.18	271.92
692.52	271.31
692.85	270.72
693.19	270.17
693.52	269.61
693.86	269.04
694.20	268.49
694.53	267.96
694.87	267.41
695.21	266.90
695.54	266.38
695.88	265.85
696.21	265.29
696.55	264.77
696.88	264.26
697.22	263.77
697.56	263.27
697.89	262.73
698.23	262.21
698.56	261.69
698.90	261.20
699.23	260.70
699.57	260.25
699.90	259.78
700.24	259.28
700.58	258.82
700.91	258.39
701.25	258.04
701.58	257.66
701.92	257.26
702.25	256.83
702.59	256.40
702.92	255.99
703.26	255.59
703.59	255.19
703.93	254.86
704.26	254.48
704.60	254.09
704.93	253.73
705.26	253.35
705.60	253.02
705.93	252.64
706.27	252.31
706.60	251.98
706.94	251.66
707.27	251.28
707.61	250.92
707.94	250.55
708.27	250.11
708.61	249.71
708.94	249.35
709.28	249.00
709.61	248.67
709.94	248.37
710.28	248.05
710.61	247.76
710.95	247.38
711.28	247.14
711.61	246.85
711.95	246.58
712.28	246.29
712.61	245.98
712.95	245.76
713.28	245.52
713.61	245.23
713.95	244.93
714.28	244.69
714.61	244.42
714.95	244.17
715.28	243.91
715.61	243.66
715.95	243.43
716.28	243.19
716.61	242.97
716.95	242.72
717.28	242.49
717.61	242.25
717.94	242.02
718.28	241.72
718.61	241.49
718.94	241.25
719.27	241.03
719.61	240.84
719.94	240.59
720.27	240.32
720.60	240.12
720.94	239.91
721.27	239.72
721.60	239.55
721.93	239.35
722.27	239.19
722.60	239.02
722.93	238.81
723.26	238.64
723.59	238.43
723.93	238.25
724.26	238.08
724.59	237.90
724.92	237.74
725.25	237.60
725.59	237.43
725.92	237.29
726.25	237.13
726.58	236.97
726.91	236.80
727.24	236.67
727.57	236.51
727.91	236.34
728.24	236.20
728.57	236.04
728.90	235.90
729.23	235.72
729.56	235.62
729.89	235.48
730.22	235.33
730.55	235.19
730.89	235.05
731.22	234.90
731.55	234.76
731.88	234.63
732.21	234.47
732.54	234.34
732.87	234.21
733.20	234.10
733.53	233.97
733.86	233.87
734.19	233.72
734.52	233.63
734.85	233.59
735.18	233.45
735.51	233.37
735.84	233.25
736.17	233.17
736.50	233.01
736.83	233.02
737.16	232.92
737.49	232.82
737.82	232.72
738.15	232.64
738.48	232.54
738.81	232.43
739.14	232.32
739.47	232.21
739.80	232.10
740.13	232.01
740.46	231.90
740.79	231.78
741.12	231.69
741.45	231.58
741.78	231.42
742.11	231.36
742.44	231.24
742.77	231.16
743.10	231.05
743.43	230.96
743.75	230.75
744.08	230.82
744.41	230.73
744.74	230.64
745.07	230.52
745.40	230.46
745.73	230.42
746.06	230.35
746.39	230.28
746.71	230.20
747.04	230.11
747.37	230.04
747.70	229.98
748.03	229.91
748.36	229.85
748.68	229.77
749.01	229.66
749.34	229.59
749.67	229.52
750.00	229.46
750.33	229.47
750.65	229.41
750.98	229.19
751.31	229.12
751.64	229.07
751.97	229.06
752.29	228.98
752.62	228.86
752.95	228.78
753.28	228.70
753.60	228.63
753.93	228.59
754.26	228.53
754.59	228.43
754.91	228.35
755.24	228.27
755.57	228.26
755.90	228.20
756.22	228.12
756.55	228.04
756.88	227.96
757.20	227.83
757.53	227.74
757.86	227.68
758.19	227.63
758.51	227.56
758.84	227.45
759.17	227.39
759.49	227.35
759.82	227.34
760.15	227.31
760.47	227.25
760.80	227.17
761.13	227.13
761.45	227.09
761.78	227.04
762.11	226.99
762.43	226.89
762.76	226.85
763.08	226.82
763.41	226.78
763.74	226.74
764.06	226.70
764.39	226.66
764.71	226.62
765.04	226.57
765.37	226.52
765.69	226.49
766.02	226.44
766.34	226.39
766.67	226.31
767.00	226.28
767.32	226.30
767.65	226.33
767.97	226.28
768.30	226.25
768.62	226.21
768.95	226.16
769.27	226.12
769.60	226.10
769.92	226.05
770.25	225.99
770.57	225.94
770.90	225.90
771.22	225.85
771.55	225.82
771.87	225.80
772.20	225.76
772.52	225.81
772.85	225.90
773.17	225.88
773.50	225.83
773.82	225.78
774.15	225.70
774.47	225.61
774.80	225.57
775.12	225.54
775.45	225.51
775.77	225.48
776.09	225.46
776.42	225.43
776.74	225.44
777.07	225.41
777.39	225.38
777.72	225.35
778.04	225.34
778.36	225.30
778.69	225.27
779.01	225.26
779.33	225.14
779.66	225.00
779.98	224.96
780.31	224.95
780.63	224.98
780.95	224.97
781.28	224.94
781.60	224.91
781.92	224.89
782.25	224.87
782.57	224.85
782.89	224.82
783.22	224.79
783.54	224.75
783.86	224.73
784.19	224.71
784.51	224.73
784.83	224.69
785.16	224.67
785.48	224.65
785.80	224.63
786.12	224.61
786.45	224.60
786.77	224.59
787.09	224.57
787.42	224.51
787.74	224.50
788.06	224.49
788.38	224.47
788.71	224.44
789.03	224.43
789.35	224.43
789.67	224.40
789.99	224.39
790.32	224.37
790.64	224.36
790.96	224.44
791.28	224.39
791.61	224.38
791.93	224.37
792.25	224.35
792.57	224.40
792.89	224.37
793.21	224.36
793.54	224.34
793.86	224.31
794.18	224.30
794.50	224.27
794.82	224.25
795.14	224.25
795.47	224.26
795.79	224.25
796.11	224.21
796.43	224.20
796.75	224.18
797.07	224.18
797.39	224.16
797.71	224.06
798.04	224.05
798.36	224.05
798.68	224.03
799.00	224.03
799.32	223.97
799.64	223.98
799.96	223.97
800.28	223.97
800.60	223.96
800.92	223.95
801.24	223.94
801.56	223.93
801.89	223.91
802.21	223.91
802.53	223.88
802.85	223.89
803.17	223.94
803.49	223.90
803.81	223.88
804.13	223.86
804.45	223.84
804.77	223.83
805.09	223.82
805.41	223.80
805.73	223.78
806.05	223.74
806.37	223.72
806.69	223.70
807.01	223.68
807.33	223.69
807.65	223.64
807.97	223.68
808.28	223.66
808.60	223.64
808.92	223.62
809.24	223.68
809.56	223.65
809.88	223.60
810.20	223.60
810.52	223.62
810.84	223.60
811.16	223.59
811.48	223.57
811.80	223.60
812.12	223.60
812.43	223.61
812.75	223.62
813.07	223.60
813.39	223.60
813.71	223.58
814.03	223.56
814.35	223.56
814.67	223.51
814.98	223.50
815.30	223.50
815.62	223.48
815.94	223.40
816.26	223.41
816.58	223.38
816.89	223.39
817.21	223.36
817.53	223.36
817.85	223.36
