SpectraSuite Data File
++++++++++++++++++++++++++++++++++++
Date: Wed Sep 30 15:03:41 EDT 2015
User: lab3
Dark Spectrum Present: No
Reference Spectrum Present: No
Number of Sampled Component Spectra: 1
Spectrometers: USB2E7196
Integration Time (usec): 36000 (USB2E7196)
Spectra Averaged: 1500 (USB2E7196)
Boxcar Smoothing: 10 (USB2E7196)
Correct for Electrical Dark: No (USB2E7196)
Strobe/Lamp Enabled: No (USB2E7196)
Correct for Detector Non-linearity: No (USB2E7196)
Correct for Stray Light: No (USB2E7196)
Number of Pixels in Processed Spectrum: 2048
>>>>>Begin Processed Spectral Data<<<<<
339.09	0.00
339.48	211.23
339.86	212.66
340.24	214.23
340.63	215.58
341.01	218.46
341.39	218.20
341.78	219.69
342.16	220.90
342.54	221.35
342.93	209.83
343.31	220.43
343.69	220.97
344.07	221.45
344.46	221.87
344.84	222.25
345.22	222.50
345.60	222.76
345.99	222.94
346.37	223.07
346.75	223.17
347.13	223.25
347.52	223.31
347.90	223.41
348.28	223.43
348.66	223.49
349.05	223.48
349.43	223.52
349.81	223.58
350.19	223.63
350.57	223.69
350.96	223.77
351.34	223.86
351.72	223.95
352.10	224.04
352.48	224.12
352.87	224.17
353.25	224.23
353.63	224.28
354.01	224.35
354.39	224.43
354.77	224.51
355.15	224.60
355.54	224.66
355.92	224.70
356.30	224.77
356.68	224.90
357.06	224.97
357.44	225.03
357.82	225.08
358.20	225.19
358.58	225.25
358.97	225.32
359.35	225.39
359.73	225.48
360.11	225.52
360.49	225.59
360.87	225.64
361.25	225.70
361.63	225.78
362.01	225.83
362.39	225.85
362.77	225.90
363.15	225.93
363.53	225.97
363.91	226.00
364.29	226.03
364.67	225.95
365.05	225.99
365.43	226.01
365.81	226.05
366.19	226.07
366.57	226.12
366.95	226.12
367.33	226.10
367.71	226.09
368.09	226.12
368.47	226.11
368.85	226.09
369.23	226.11
369.61	226.06
369.99	226.08
370.37	226.07
370.75	226.12
371.13	226.09
371.51	226.05
371.89	226.02
372.27	225.99
372.65	225.97
373.03	225.92
373.41	225.88
373.78	225.82
374.16	225.73
374.54	225.65
374.92	225.60
375.30	225.55
375.68	225.49
376.06	225.43
376.44	225.38
376.82	225.35
377.19	225.30
377.57	225.24
377.95	225.16
378.33	225.10
378.71	224.96
379.09	224.91
379.47	224.88
379.84	224.83
380.22	224.77
380.60	224.70
380.98	224.65
381.36	224.60
381.73	224.54
382.11	224.51
382.49	224.46
382.87	224.40
383.25	224.35
383.62	224.42
384.00	224.35
384.38	224.31
384.76	224.28
385.13	224.25
385.51	224.21
385.89	224.16
386.27	224.12
386.64	224.10
387.02	224.06
387.40	224.01
387.78	223.97
388.15	223.95
388.53	223.93
388.91	223.90
389.29	223.85
389.66	223.84
390.04	223.80
390.42	223.80
390.79	223.78
391.17	223.76
391.55	223.63
391.92	223.63
392.30	223.62
392.68	223.58
393.05	223.57
393.43	223.57
393.81	223.57
394.18	223.55
394.56	223.55
394.94	223.58
395.31	223.58
395.69	223.62
396.06	223.64
396.44	223.66
396.82	223.67
397.19	223.74
397.57	223.76
397.95	223.80
398.32	223.79
398.70	223.83
399.07	223.89
399.45	223.92
399.82	223.95
400.20	223.98
400.58	224.04
400.95	224.06
401.33	224.13
401.70	224.26
402.08	224.35
402.45	224.43
402.83	224.53
403.20	224.62
403.58	224.70
403.95	224.82
404.33	224.95
404.71	225.07
405.08	225.25
405.46	225.39
405.83	225.55
406.21	225.72
406.58	225.92
406.96	226.11
407.33	226.33
407.70	226.57
408.08	226.91
408.45	227.19
408.83	227.50
409.20	227.79
409.58	228.05
409.95	228.40
410.33	228.78
410.70	229.12
411.08	229.54
411.45	229.98
411.82	230.43
412.20	230.95
412.57	231.56
412.95	232.05
413.32	232.67
413.69	233.31
414.07	233.99
414.44	234.73
414.82	235.49
415.19	236.38
415.56	237.28
415.94	238.21
416.31	239.25
416.68	240.29
417.06	241.50
417.43	242.64
417.81	243.94
418.18	245.29
418.55	246.76
418.93	248.28
419.30	249.87
419.67	251.55
420.04	253.28
420.42	255.10
420.79	257.19
421.16	259.31
421.54	261.46
421.91	263.72
422.28	266.06
422.66	268.58
423.03	270.98
423.40	273.50
423.77	276.22
424.15	279.02
424.52	281.91
424.89	285.05
425.26	288.16
425.64	291.07
426.01	294.32
426.38	297.65
426.75	301.09
427.13	304.63
427.50	308.33
427.87	312.17
428.24	316.06
428.61	319.80
428.99	323.82
429.36	328.21
429.73	332.41
430.10	336.60
430.47	340.90
430.85	345.31
431.22	350.00
431.59	354.82
431.96	359.52
432.33	364.77
432.70	369.73
433.08	375.59
433.45	381.11
433.82	386.55
434.19	392.64
434.56	398.62
434.93	404.38
435.30	410.09
435.68	416.48
436.05	422.73
436.42	428.98
436.79	434.66
437.16	440.86
437.53	447.45
437.90	454.03
438.27	460.47
438.64	467.40
439.01	473.70
439.38	479.45
439.75	485.00
440.13	491.27
440.50	497.23
440.87	501.94
441.24	507.11
441.61	512.78
441.98	516.93
442.35	521.89
442.72	526.97
443.09	531.78
443.46	534.84
443.83	537.13
444.20	539.03
444.57	541.81
444.94	543.41
445.31	545.07
445.68	546.52
446.05	547.56
446.42	547.35
446.79	547.03
447.16	546.74
447.53	546.48
447.90	544.56
448.27	542.76
448.64	539.94
449.01	538.09
449.37	534.13
449.74	530.50
450.11	525.85
450.48	520.71
450.85	515.57
451.22	511.22
451.59	506.91
451.96	502.99
452.33	497.32
452.70	492.25
453.07	486.11
453.43	479.97
453.80	474.01
454.17	468.25
454.54	462.92
454.91	456.93
455.28	451.27
455.65	445.95
456.02	440.29
456.38	435.74
456.75	429.84
457.12	425.11
457.49	420.33
457.86	415.75
458.23	411.76
458.59	407.35
458.96	402.84
459.33	398.89
459.70	394.87
460.07	391.82
460.43	388.24
460.80	384.86
461.17	381.90
461.54	378.70
461.91	375.70
462.27	372.64
462.64	370.14
463.01	367.28
463.38	364.40
463.74	361.81
464.11	359.49
464.48	357.41
464.85	355.14
465.21	353.39
465.58	351.49
465.95	349.27
466.32	347.51
466.68	345.78
467.05	344.03
467.42	342.34
467.78	340.52
468.15	338.81
468.52	337.57
468.88	335.93
469.25	334.43
469.62	333.26
469.98	331.98
470.35	330.86
470.72	329.84
471.08	328.80
471.45	327.93
471.82	326.96
472.18	325.94
472.55	325.31
472.92	324.53
473.28	323.92
473.65	323.28
474.02	322.68
474.38	322.16
474.75	321.88
475.11	321.48
475.48	321.34
475.85	321.18
476.21	321.12
476.58	321.13
476.94	321.33
477.31	321.44
477.67	321.59
478.04	321.83
478.41	322.15
478.77	322.61
479.14	322.94
479.50	323.50
479.87	324.19
480.23	324.89
480.60	325.58
480.96	326.29
481.33	327.27
481.69	328.24
482.06	329.24
482.42	330.18
482.79	331.29
483.15	332.55
483.52	334.00
483.88	335.39
484.25	336.86
484.61	338.40
484.98	340.05
485.34	341.89
485.71	343.81
486.07	345.86
486.44	347.90
486.80	350.16
487.17	352.47
487.53	355.00
487.90	357.62
488.26	360.41
488.62	363.39
488.99	366.41
489.35	369.58
489.72	372.98
490.08	376.54
490.44	380.19
490.81	384.03
491.17	387.95
491.54	392.15
491.90	396.41
492.26	400.98
492.63	405.80
492.99	410.82
493.36	416.00
493.72	421.47
494.08	427.08
494.45	432.99
494.81	439.12
495.17	445.35
495.54	451.98
495.90	458.98
496.26	466.08
496.63	473.37
496.99	480.95
497.35	488.83
497.72	497.03
498.08	505.44
498.44	514.10
498.80	523.25
499.17	532.67
499.53	542.43
499.89	552.44
500.26	562.66
500.62	573.08
500.98	584.15
501.34	595.37
501.71	607.09
502.07	619.04
502.43	631.36
502.79	644.11
503.16	657.24
503.52	670.48
503.88	684.14
504.24	698.21
504.60	712.47
504.97	727.17
505.33	742.22
505.69	758.03
506.05	774.05
506.41	790.27
506.78	806.72
507.14	823.71
507.50	841.06
507.86	858.75
508.22	876.77
508.59	894.85
508.95	913.54
509.31	932.71
509.67	952.69
510.03	972.87
510.39	993.17
510.75	1013.56
511.12	1034.25
511.48	1055.22
511.84	1076.55
512.20	1098.09
512.56	1120.43
512.92	1142.93
513.28	1165.36
513.64	1188.07
514.00	1211.18
514.37	1234.84
514.73	1258.49
515.09	1281.90
515.45	1305.50
515.81	1329.43
516.17	1353.56
516.53	1377.43
516.89	1401.20
517.25	1424.80
517.61	1448.68
517.97	1472.83
518.33	1496.94
518.69	1521.24
519.05	1545.86
519.41	1570.36
519.77	1595.31
520.13	1619.60
520.49	1644.00
520.85	1668.31
521.21	1692.54
521.57	1717.33
521.93	1741.18
522.29	1765.49
522.65	1789.74
523.01	1813.97
523.37	1837.63
523.73	1861.87
524.09	1886.06
524.45	1910.20
524.81	1934.22
525.17	1957.61
525.53	1980.73
525.89	2003.68
526.25	2026.69
526.61	2048.46
526.97	2070.64
527.33	2092.63
527.68	2114.40
528.04	2135.62
528.40	2156.84
528.76	2177.88
529.12	2198.05
529.48	2219.05
529.84	2238.11
530.20	2257.56
530.56	2276.44
530.91	2295.85
531.27	2314.48
531.63	2332.46
531.99	2350.03
532.35	2367.19
532.71	2385.01
533.07	2403.20
533.42	2420.01
533.78	2437.20
534.14	2454.71
534.50	2471.18
534.86	2488.02
535.21	2503.02
535.57	2517.98
535.93	2532.27
536.29	2545.94
536.65	2559.60
537.00	2571.92
537.36	2585.12
537.72	2597.10
538.08	2609.12
538.44	2619.81
538.79	2630.37
539.15	2639.67
539.51	2648.87
539.87	2657.04
540.22	2663.12
540.58	2669.19
540.94	2675.68
541.29	2680.86
541.65	2685.56
542.01	2690.14
542.37	2692.99
542.72	2697.50
543.08	2701.04
543.44	2704.30
543.79	2706.71
544.15	2708.42
544.51	2709.89
544.87	2711.12
545.22	2712.04
545.58	2711.83
545.94	2711.68
546.29	2710.28
546.65	2709.29
547.01	2708.11
547.36	2707.36
547.72	2706.93
548.07	2705.34
548.43	2702.67
548.79	2699.47
549.14	2696.30
549.50	2693.34
549.86	2689.79
550.21	2684.75
550.57	2680.29
550.92	2674.59
551.28	2669.16
551.64	2663.52
551.99	2658.00
552.35	2651.58
552.70	2645.17
553.06	2639.43
553.41	2633.42
553.77	2626.98
554.13	2620.75
554.48	2613.53
554.84	2605.29
555.19	2596.79
555.55	2587.60
555.90	2579.37
556.26	2571.63
556.61	2563.05
556.97	2552.79
557.32	2543.22
557.68	2533.80
558.03	2524.04
558.39	2514.97
558.74	2506.36
559.10	2496.70
559.45	2486.73
559.81	2477.04
560.16	2466.76
560.52	2456.20
560.87	2446.13
561.23	2435.55
561.58	2425.13
561.94	2414.59
562.29	2403.60
562.64	2393.17
563.00	2382.92
563.35	2372.66
563.71	2361.57
564.06	2350.72
564.42	2340.44
564.77	2329.81
565.12	2318.98
565.48	2307.57
565.83	2296.39
566.19	2285.06
566.54	2273.86
566.89	2261.98
567.25	2250.32
567.60	2239.73
567.96	2228.58
568.31	2216.28
568.66	2204.28
569.02	2192.54
569.37	2181.06
569.72	2170.34
570.08	2158.82
570.43	2146.83
570.78	2134.38
571.14	2122.15
571.49	2109.84
571.84	2097.68
572.20	2084.56
572.55	2071.84
572.90	2059.41
573.26	2046.93
573.61	2033.67
573.96	2020.87
574.31	2008.45
574.67	1995.77
575.02	1982.06
575.37	1968.39
575.72	1955.11
576.08	1942.03
576.43	1928.25
576.78	1914.49
577.13	1900.72
577.49	1887.17
577.84	1874.12
578.19	1860.90
578.54	1847.30
578.90	1833.34
579.25	1819.09
579.60	1806.08
579.95	1792.97
580.30	1779.95
580.66	1766.57
581.01	1753.24
581.36	1739.59
581.71	1726.38
582.06	1713.34
582.42	1700.75
582.77	1688.14
583.12	1675.62
583.47	1663.39
583.82	1650.91
584.17	1637.75
584.53	1624.85
584.88	1612.14
585.23	1599.07
585.58	1586.24
585.93	1573.87
586.28	1562.12
586.63	1550.40
586.98	1538.03
587.34	1525.83
587.69	1513.10
588.04	1500.79
588.39	1488.87
588.74	1476.75
589.09	1464.84
589.44	1452.34
589.79	1440.09
590.14	1428.10
590.49	1416.00
590.84	1404.02
591.19	1392.76
591.54	1381.39
591.89	1369.67
592.25	1358.39
592.60	1346.80
592.95	1335.60
593.30	1324.37
593.65	1313.23
594.00	1302.25
594.35	1291.87
594.70	1280.67
595.05	1270.23
595.40	1259.48
595.75	1248.50
596.10	1238.24
596.45	1227.78
596.80	1217.95
597.15	1208.11
597.50	1198.16
597.85	1188.71
598.19	1179.19
598.54	1169.38
598.89	1160.20
599.24	1151.39
599.59	1142.44
599.94	1134.21
600.29	1125.63
600.64	1117.02
600.99	1107.74
601.34	1098.96
601.69	1090.00
602.04	1081.96
602.39	1073.65
602.74	1065.74
603.08	1058.09
603.43	1050.14
603.78	1042.16
604.13	1034.22
604.48	1026.15
604.83	1018.30
605.18	1010.27
605.53	1002.25
605.87	994.15
606.22	986.35
606.57	978.30
606.92	970.13
607.27	962.07
607.62	954.25
607.96	946.59
608.31	939.95
608.66	933.02
609.01	926.11
609.36	919.09
609.70	912.10
610.05	904.94
610.40	897.97
610.75	890.93
611.10	884.20
611.44	877.23
611.79	870.57
612.14	863.76
612.49	856.88
612.83	850.45
613.18	844.17
613.53	837.87
613.88	831.70
614.22	825.86
614.57	819.80
614.92	813.87
615.27	807.95
615.61	801.65
615.96	795.51
616.31	789.45
616.65	783.28
617.00	777.23
617.35	771.29
617.70	765.41
618.04	759.75
618.39	753.97
618.74	748.48
619.08	742.80
619.43	737.27
619.78	731.79
620.12	726.14
620.47	720.72
620.82	715.36
621.16	710.12
621.51	704.68
621.85	699.33
622.20	693.88
622.55	688.47
622.89	683.14
623.24	677.93
623.59	672.85
623.93	668.04
624.28	663.35
624.62	658.60
624.97	653.78
625.32	649.03
625.66	644.18
626.01	639.34
626.35	634.66
626.70	630.00
627.04	625.61
627.39	621.20
627.73	616.76
628.08	612.42
628.43	608.03
628.77	603.67
629.12	599.41
629.46	595.35
629.81	591.22
630.15	587.13
630.50	583.12
630.84	579.15
631.19	575.24
631.53	571.42
631.88	567.60
632.22	563.71
632.57	560.03
632.91	556.36
633.26	552.69
633.60	549.06
633.95	545.59
634.29	541.98
634.64	538.41
634.98	534.79
635.32	531.26
635.67	527.97
636.01	524.69
636.36	521.41
636.70	518.23
637.05	515.07
637.39	511.97
637.73	508.69
638.08	505.53
638.42	502.39
638.77	499.12
639.11	495.76
639.45	492.55
639.80	489.34
640.14	486.26
640.49	483.22
640.83	480.10
641.17	477.00
641.52	473.98
641.86	470.93
642.20	468.02
642.55	465.01
642.89	462.01
643.23	459.19
643.58	456.55
643.92	453.78
644.26	451.10
644.61	448.42
644.95	445.78
645.29	443.06
645.64	440.28
645.98	437.65
646.32	435.15
646.66	432.65
647.01	430.17
647.35	427.81
647.69	425.33
648.04	422.96
648.38	420.59
648.72	418.21
649.06	415.88
649.41	413.61
649.75	411.36
650.09	409.09
650.43	406.82
650.78	404.52
651.12	402.26
651.46	400.04
651.80	397.92
652.14	395.87
652.49	393.87
652.83	391.92
653.17	389.97
653.51	388.09
653.85	386.26
654.20	384.35
654.54	382.34
654.88	380.46
655.22	378.63
655.56	376.80
655.90	375.04
656.25	373.29
656.59	371.55
656.93	369.90
657.27	368.32
657.61	366.66
657.95	365.07
658.29	363.47
658.64	361.91
658.98	360.28
659.32	358.61
659.66	357.06
660.00	355.53
660.34	354.01
660.68	352.46
661.02	350.86
661.36	349.35
661.70	347.90
662.05	346.46
662.39	345.03
662.73	343.67
663.07	342.36
663.41	341.06
663.75	339.77
664.09	338.48
664.43	337.09
664.77	335.79
665.11	334.43
665.45	333.15
665.79	331.88
666.13	330.64
666.47	329.46
666.81	328.21
667.15	326.93
667.49	325.72
667.83	324.54
668.17	323.40
668.51	322.29
668.85	321.19
669.19	320.14
669.53	319.01
669.87	317.84
670.21	316.72
670.55	315.61
670.89	314.59
671.23	313.51
671.57	312.48
671.91	311.51
672.25	310.58
672.58	309.66
672.92	308.71
673.26	307.80
673.60	306.89
673.94	305.98
674.28	305.11
674.62	304.23
674.96	303.32
675.30	302.49
675.64	301.64
675.97	300.80
676.31	299.92
676.65	299.10
676.99	298.36
677.33	297.53
677.67	296.74
678.01	295.86
678.34	295.07
678.68	294.31
679.02	293.52
679.36	292.75
679.70	291.96
680.04	291.18
680.37	290.41
680.71	289.66
681.05	288.97
681.39	288.26
681.73	287.53
682.06	286.82
682.40	286.12
682.74	285.44
683.08	284.77
683.42	284.10
683.75	283.46
684.09	282.76
684.43	282.12
684.77	281.47
685.10	280.86
685.44	280.24
685.78	279.62
686.12	279.02
686.45	278.41
686.79	277.79
687.13	277.20
687.46	276.57
687.80	275.99
688.14	275.37
688.48	274.80
688.81	274.22
689.15	273.69
689.49	273.09
689.82	272.51
690.16	271.88
690.50	271.30
690.83	270.72
691.17	270.14
691.51	269.59
691.84	269.06
692.18	268.51
692.52	267.95
692.85	267.41
693.19	266.92
693.52	266.39
693.86	265.89
694.20	265.39
694.53	264.92
694.87	264.41
695.21	263.90
695.54	263.38
695.88	262.88
696.21	262.35
696.55	261.90
696.88	261.43
697.22	260.99
697.56	260.56
697.89	260.10
698.23	259.67
698.56	259.23
698.90	258.81
699.23	258.38
699.57	257.98
699.90	257.56
700.24	257.12
700.58	256.72
700.91	256.35
701.25	256.02
701.58	255.66
701.92	255.30
702.25	254.93
702.59	254.54
702.92	254.17
703.26	253.82
703.59	253.43
703.93	253.16
704.26	252.80
704.60	252.43
704.93	252.06
705.26	251.69
705.60	251.37
705.93	250.99
706.27	250.69
706.60	250.39
706.94	250.11
707.27	249.76
707.61	249.43
707.94	249.08
708.27	248.68
708.61	248.32
708.94	247.99
709.28	247.68
709.61	247.39
709.94	247.11
710.28	246.83
710.61	246.57
710.95	246.21
711.28	246.00
711.61	245.73
711.95	245.50
712.28	245.24
712.61	244.96
712.95	244.76
713.28	244.53
713.61	244.25
713.95	243.96
714.28	243.70
714.61	243.45
714.95	243.20
715.28	242.97
715.61	242.74
715.95	242.53
716.28	242.31
716.61	242.10
716.95	241.87
717.28	241.65
717.61	241.43
717.94	241.23
718.28	240.95
718.61	240.75
718.94	240.54
719.27	240.34
719.61	240.16
719.94	239.94
720.27	239.70
720.60	239.50
720.94	239.32
721.27	239.15
721.60	238.99
721.93	238.81
722.27	238.68
722.60	238.52
722.93	238.32
723.26	238.14
723.59	237.95
723.93	237.79
724.26	237.63
724.59	237.47
724.92	237.30
725.25	237.18
725.59	237.02
725.92	236.88
726.25	236.73
726.58	236.57
726.91	236.42
727.24	236.29
727.57	236.15
727.91	236.00
728.24	235.86
728.57	235.69
728.90	235.57
729.23	235.39
729.56	235.30
729.89	235.18
730.22	235.05
730.55	234.92
730.89	234.79
731.22	234.66
731.55	234.53
731.88	234.41
732.21	234.26
732.54	234.13
732.87	234.00
733.20	233.90
733.53	233.80
733.86	233.70
734.19	233.58
734.52	233.49
734.85	233.45
735.18	233.34
735.51	233.27
735.84	233.17
736.17	233.11
736.50	232.95
736.83	232.96
737.16	232.86
737.49	232.77
737.82	232.68
738.15	232.60
738.48	232.51
738.81	232.40
739.14	232.31
739.47	232.21
739.80	232.11
740.13	232.03
740.46	231.91
740.79	231.81
741.12	231.71
741.45	231.60
741.78	231.45
742.11	231.39
742.44	231.28
742.77	231.20
743.10	231.08
743.43	231.00
743.75	230.81
744.08	230.89
744.41	230.80
744.74	230.71
745.07	230.61
745.40	230.55
745.73	230.52
746.06	230.45
746.39	230.39
746.71	230.31
747.04	230.23
747.37	230.16
747.70	230.10
748.03	230.04
748.36	229.99
748.68	229.91
749.01	229.80
749.34	229.74
749.67	229.67
750.00	229.63
750.33	229.63
750.65	229.58
750.98	229.36
751.31	229.30
751.64	229.24
751.97	229.23
752.29	229.16
752.62	229.05
752.95	228.99
753.28	228.92
753.60	228.86
753.93	228.83
754.26	228.77
754.59	228.68
754.91	228.61
755.24	228.54
755.57	228.54
755.90	228.49
756.22	228.43
756.55	228.36
756.88	228.28
757.20	228.16
757.53	228.07
757.86	228.01
758.19	227.97
758.51	227.91
758.84	227.81
759.17	227.75
759.49	227.70
759.82	227.70
760.15	227.66
760.47	227.61
760.80	227.54
761.13	227.51
761.45	227.47
761.78	227.42
762.11	227.37
762.43	227.27
762.76	227.22
763.08	227.18
763.41	227.15
763.74	227.10
764.06	227.06
764.39	227.03
764.71	226.99
765.04	226.93
765.37	226.89
765.69	226.85
766.02	226.81
766.34	226.76
766.67	226.68
767.00	226.67
767.32	226.69
767.65	226.71
767.97	226.66
768.30	226.64
768.62	226.61
768.95	226.57
769.27	226.54
769.60	226.52
769.92	226.47
770.25	226.42
770.57	226.38
770.90	226.35
771.22	226.31
771.55	226.28
771.87	226.25
772.20	226.22
772.52	226.28
772.85	226.38
773.17	226.34
773.50	226.32
773.82	226.26
774.15	226.18
774.47	226.08
774.80	226.04
775.12	226.00
775.45	225.98
775.77	225.95
776.09	225.94
776.42	225.92
776.74	225.92
777.07	225.89
777.39	225.87
777.72	225.84
778.04	225.83
778.36	225.80
778.69	225.77
779.01	225.75
779.33	225.63
779.66	225.49
779.98	225.46
780.31	225.43
780.63	225.45
780.95	225.44
781.28	225.43
781.60	225.40
781.92	225.38
782.25	225.36
782.57	225.34
782.89	225.31
783.22	225.28
783.54	225.24
783.86	225.23
784.19	225.21
784.51	225.22
784.83	225.19
785.16	225.17
785.48	225.16
785.80	225.14
786.12	225.13
786.45	225.12
786.77	225.11
787.09	225.10
787.42	225.05
787.74	225.04
788.06	225.03
788.38	225.00
788.71	224.98
789.03	224.97
789.35	224.97
789.67	224.94
789.99	224.93
790.32	224.91
790.64	224.91
790.96	224.98
791.28	224.93
791.61	224.91
791.93	224.90
792.25	224.88
792.57	224.94
792.89	224.91
793.21	224.91
793.54	224.90
793.86	224.88
794.18	224.87
794.50	224.83
794.82	224.82
795.14	224.83
795.47	224.84
795.79	224.82
796.11	224.78
796.43	224.77
796.75	224.76
797.07	224.74
797.39	224.73
797.71	224.63
798.04	224.63
798.36	224.62
798.68	224.60
799.00	224.60
799.32	224.54
799.64	224.56
799.96	224.54
800.28	224.55
800.60	224.52
800.92	224.52
801.24	224.52
801.56	224.51
801.89	224.49
802.21	224.47
802.53	224.45
802.85	224.47
803.17	224.51
803.49	224.48
803.81	224.46
804.13	224.45
804.45	224.43
804.77	224.43
805.09	224.42
805.41	224.42
805.73	224.38
806.05	224.34
806.37	224.32
806.69	224.30
807.01	224.28
807.33	224.28
807.65	224.23
807.97	224.26
808.28	224.24
808.60	224.24
808.92	224.22
809.24	224.29
809.56	224.26
809.88	224.22
810.20	224.22
810.52	224.23
810.84	224.21
811.16	224.20
811.48	224.18
811.80	224.22
812.12	224.20
812.43	224.22
812.75	224.22
813.07	224.19
813.39	224.20
813.71	224.17
814.03	224.16
814.35	224.16
814.67	224.11
814.98	224.10
815.30	224.09
815.62	224.07
815.94	223.98
816.26	223.99
816.58	223.96
816.89	223.96
817.21	223.93
817.53	223.92
817.85	223.92
818.17	223.91
