SpectraSuite Data File
++++++++++++++++++++++++++++++++++++
Date: Wed Sep 30 17:59:00 EDT 2015
User: lab3
Dark Spectrum Present: No
Reference Spectrum Present: No
Number of Sampled Component Spectra: 1
Spectrometers: USB2E7196
Integration Time (usec): 36000 (USB2E7196)
Spectra Averaged: 3000 (USB2E7196)
Boxcar Smoothing: 10 (USB2E7196)
Correct for Electrical Dark: No (USB2E7196)
Strobe/Lamp Enabled: No (USB2E7196)
Correct for Detector Non-linearity: No (USB2E7196)
Correct for Stray Light: No (USB2E7196)
Number of Pixels in Processed Spectrum: 2048
>>>>>Begin Processed Spectral Data<<<<<
339.09	0.00
339.48	211.12
339.86	212.69
340.24	214.02
340.63	215.45
341.01	218.35
341.39	218.08
341.78	219.55
342.16	220.65
342.54	221.21
342.93	209.72
343.31	220.33
343.69	220.87
344.07	221.34
344.46	221.76
344.84	222.15
345.22	222.40
345.60	222.66
345.99	222.85
346.37	222.99
346.75	223.10
347.13	223.18
347.52	223.24
347.90	223.33
348.28	223.37
348.66	223.43
349.05	223.43
349.43	223.48
349.81	223.53
350.19	223.58
350.57	223.64
350.96	223.72
351.34	223.81
351.72	223.90
352.10	224.00
352.48	224.08
352.87	224.13
353.25	224.19
353.63	224.25
354.01	224.31
354.39	224.39
354.77	224.46
355.15	224.56
355.54	224.62
355.92	224.65
356.30	224.72
356.68	224.85
357.06	224.92
357.44	224.97
357.82	225.03
358.20	225.14
358.58	225.20
358.97	225.27
359.35	225.35
359.73	225.43
360.11	225.47
360.49	225.53
360.87	225.57
361.25	225.63
361.63	225.71
362.01	225.75
362.39	225.78
362.77	225.82
363.15	225.84
363.53	225.88
363.91	225.92
364.29	225.94
364.67	225.86
365.05	225.88
365.43	225.92
365.81	225.94
366.19	225.95
366.57	226.00
366.95	225.99
367.33	225.95
367.71	225.95
368.09	225.97
368.47	225.96
368.85	225.95
369.23	225.96
369.61	225.91
369.99	225.93
370.37	225.93
370.75	225.98
371.13	225.95
371.51	225.91
371.89	225.88
372.27	225.85
372.65	225.84
373.03	225.79
373.41	225.74
373.78	225.70
374.16	225.61
374.54	225.54
374.92	225.49
375.30	225.46
375.68	225.40
376.06	225.35
376.44	225.30
376.82	225.26
377.19	225.21
377.57	225.15
377.95	225.06
378.33	225.01
378.71	224.86
379.09	224.82
379.47	224.79
379.84	224.72
380.22	224.66
380.60	224.58
380.98	224.53
381.36	224.48
381.73	224.42
382.11	224.39
382.49	224.35
382.87	224.29
383.25	224.24
383.62	224.31
384.00	224.24
384.38	224.20
384.76	224.18
385.13	224.17
385.51	224.13
385.89	224.08
386.27	224.04
386.64	224.02
387.02	223.98
387.40	223.94
387.78	223.91
388.15	223.90
388.53	223.87
388.91	223.84
389.29	223.80
389.66	223.79
390.04	223.75
390.42	223.74
390.79	223.72
391.17	223.70
391.55	223.57
391.92	223.56
392.30	223.56
392.68	223.52
393.05	223.50
393.43	223.50
393.81	223.50
394.18	223.49
394.56	223.48
394.94	223.50
395.31	223.50
395.69	223.53
396.06	223.55
396.44	223.57
396.82	223.58
397.19	223.66
397.57	223.67
397.95	223.72
398.32	223.71
398.70	223.75
399.07	223.81
399.45	223.85
399.82	223.89
400.20	223.92
400.58	223.97
400.95	223.98
401.33	224.06
401.70	224.19
402.08	224.28
402.45	224.36
402.83	224.46
403.20	224.55
403.58	224.63
403.95	224.75
404.33	224.88
404.71	225.01
405.08	225.18
405.46	225.32
405.83	225.48
406.21	225.64
406.58	225.83
406.96	226.01
407.33	226.22
407.70	226.46
408.08	226.78
408.45	227.07
408.83	227.37
409.20	227.64
409.58	227.88
409.95	228.21
410.33	228.58
410.70	228.92
411.08	229.33
411.45	229.76
411.82	230.19
412.20	230.68
412.57	231.27
412.95	231.73
413.32	232.34
413.69	232.95
414.07	233.61
414.44	234.32
414.82	235.05
415.19	235.90
415.56	236.77
415.94	237.66
416.31	238.66
416.68	239.67
417.06	240.84
417.43	241.95
417.81	243.21
418.18	244.51
418.55	245.93
418.93	247.40
419.30	248.93
419.67	250.57
420.04	252.25
420.42	254.00
420.79	256.04
421.16	258.09
421.54	260.17
421.91	262.35
422.28	264.61
422.66	267.06
423.03	269.39
423.40	271.83
423.77	274.45
424.15	277.14
424.52	279.93
424.89	282.97
425.26	285.98
425.64	288.78
426.01	291.92
426.38	295.14
426.75	298.46
427.13	301.86
427.50	305.42
427.87	309.11
428.24	312.84
428.61	316.41
428.99	320.26
429.36	324.49
429.73	328.54
430.10	332.57
430.47	336.68
430.85	340.92
431.22	345.44
431.59	350.08
431.96	354.59
432.33	359.60
432.70	364.35
433.08	369.96
433.45	375.26
433.82	380.46
434.19	386.28
434.56	392.00
434.93	397.50
435.30	402.95
435.68	409.08
436.05	415.07
436.42	421.07
436.79	426.55
437.16	432.43
437.53	438.75
437.90	445.05
438.27	451.20
438.64	457.88
439.01	463.91
439.38	469.41
439.75	474.72
440.13	480.76
440.50	486.50
440.87	491.02
441.24	496.00
441.61	501.50
441.98	505.51
442.35	510.28
442.72	515.18
443.09	519.86
443.46	522.87
443.83	525.08
444.20	526.93
444.57	529.67
444.94	531.27
445.31	532.93
445.68	534.41
446.05	535.49
446.42	535.29
446.79	535.00
447.16	534.75
447.53	534.55
447.90	532.74
448.27	531.06
448.64	528.39
449.01	526.63
449.37	522.80
449.74	519.33
450.11	514.87
450.48	509.95
450.85	505.00
451.22	500.79
451.59	496.67
451.96	492.94
452.33	487.47
452.70	482.61
453.07	476.69
453.43	470.74
453.80	465.01
454.17	459.51
454.54	454.41
454.91	448.63
455.28	443.21
455.65	438.09
456.02	432.65
456.38	428.26
456.75	422.59
457.12	418.03
457.49	413.41
457.86	409.01
458.23	405.18
458.59	400.93
458.96	396.56
459.33	392.72
459.70	388.81
460.07	385.82
460.43	382.30
460.80	379.00
461.17	376.11
461.54	372.97
461.91	370.05
462.27	367.06
462.64	364.63
463.01	361.83
463.38	359.01
463.74	356.44
464.11	354.16
464.48	352.09
464.85	349.88
465.21	348.20
465.58	346.34
465.95	344.17
466.32	342.45
466.68	340.77
467.05	339.07
467.42	337.43
467.78	335.67
468.15	334.03
468.52	332.82
468.88	331.23
469.25	329.78
469.62	328.62
469.98	327.36
470.35	326.25
470.72	325.24
471.08	324.21
471.45	323.36
471.82	322.43
472.18	321.46
472.55	320.83
472.92	320.05
473.28	319.44
473.65	318.82
474.02	318.23
474.38	317.74
474.75	317.45
475.11	317.04
475.48	316.89
475.85	316.73
476.21	316.68
476.58	316.67
476.94	316.84
477.31	316.95
477.67	317.10
478.04	317.34
478.41	317.67
478.77	318.11
479.14	318.44
479.50	318.98
479.87	319.65
480.23	320.33
480.60	320.97
480.96	321.65
481.33	322.57
481.69	323.50
482.06	324.43
482.42	325.32
482.79	326.39
483.15	327.59
483.52	328.94
483.88	330.24
484.25	331.65
484.61	333.11
484.98	334.67
485.34	336.41
485.71	338.24
486.07	340.18
486.44	342.09
486.80	344.24
487.17	346.44
487.53	348.86
487.90	351.37
488.26	354.11
488.62	356.97
488.99	359.85
489.35	362.86
489.72	366.11
490.08	369.53
490.44	373.02
490.81	376.70
491.17	380.46
491.54	384.48
491.90	388.61
492.26	393.05
492.63	397.73
492.99	402.59
493.36	407.58
493.72	412.82
494.08	418.23
494.45	423.91
494.81	429.81
495.17	435.82
495.54	442.18
495.90	448.84
496.26	455.65
496.63	462.70
496.99	470.04
497.35	477.73
497.72	485.71
498.08	493.86
498.44	502.24
498.80	511.18
499.17	520.32
499.53	529.78
499.89	539.48
500.26	549.38
500.62	559.54
500.98	570.38
501.34	581.35
501.71	592.85
502.07	604.58
502.43	616.72
502.79	629.18
503.16	642.06
503.52	655.10
503.88	668.49
504.24	682.34
504.60	696.42
504.97	710.88
505.33	725.77
505.69	741.54
506.05	757.53
506.41	773.54
506.78	789.88
507.14	806.71
507.50	824.10
507.86	841.86
508.22	859.90
508.59	877.99
508.95	896.82
509.31	916.05
509.67	935.98
510.03	956.13
510.39	976.51
510.75	997.10
511.12	1017.99
511.48	1039.17
511.84	1060.54
512.20	1082.27
512.56	1105.08
512.92	1128.01
513.28	1150.68
513.64	1173.71
514.00	1197.17
514.37	1220.92
514.73	1244.72
515.09	1268.36
515.45	1292.44
515.81	1317.08
516.17	1341.75
516.53	1366.16
516.89	1390.68
517.25	1415.36
517.61	1440.23
517.97	1465.33
518.33	1490.28
518.69	1515.40
519.05	1540.84
519.41	1566.35
519.77	1592.16
520.13	1617.24
520.49	1642.53
520.85	1668.04
521.21	1693.41
521.57	1719.35
521.93	1744.62
522.29	1770.72
522.65	1796.57
523.01	1822.24
523.37	1847.13
523.73	1872.77
524.09	1898.62
524.45	1924.31
524.81	1949.52
525.17	1974.61
525.53	1999.36
525.89	2024.05
526.25	2048.95
526.61	2073.28
526.97	2097.93
527.33	2122.49
527.68	2146.80
528.04	2170.46
528.40	2193.94
528.76	2217.65
529.12	2240.32
529.48	2263.49
529.84	2284.81
530.20	2306.58
530.56	2328.01
530.91	2349.66
531.27	2370.68
531.63	2391.05
531.99	2410.97
532.35	2430.76
532.71	2450.72
533.07	2471.16
533.42	2490.11
533.78	2509.32
534.14	2528.63
534.50	2547.00
534.86	2566.09
535.21	2583.45
535.57	2600.49
535.93	2616.91
536.29	2632.00
536.65	2647.98
537.00	2662.80
537.36	2678.29
537.72	2692.78
538.08	2706.99
538.44	2719.99
538.79	2733.26
539.15	2744.76
539.51	2756.11
539.87	2766.80
540.22	2775.25
540.58	2784.10
540.94	2793.39
541.29	2801.38
541.65	2808.33
542.01	2814.82
542.37	2819.33
542.72	2825.85
543.08	2831.74
543.44	2837.44
543.79	2842.64
544.15	2846.79
544.51	2850.88
544.87	2853.95
545.22	2856.75
545.58	2858.47
545.94	2860.76
546.29	2861.55
546.65	2862.23
547.01	2863.28
547.36	2864.44
547.72	2865.93
548.07	2865.75
548.43	2865.04
548.79	2863.57
549.14	2861.97
549.50	2861.11
549.86	2859.13
550.21	2854.92
550.57	2851.26
550.92	2846.15
551.28	2841.58
551.64	2836.92
551.99	2832.58
552.35	2827.87
552.70	2822.62
553.06	2818.08
553.41	2812.94
553.77	2807.11
554.13	2802.37
554.48	2796.28
554.84	2788.85
555.19	2781.48
555.55	2773.47
555.90	2766.02
556.26	2759.63
556.61	2752.65
556.97	2743.37
557.32	2735.35
557.68	2727.31
558.03	2718.76
558.39	2710.96
558.74	2703.15
559.10	2694.31
559.45	2685.01
559.81	2675.91
560.16	2666.20
560.52	2656.19
560.87	2647.26
561.23	2637.84
561.58	2627.98
561.94	2618.01
562.29	2607.34
562.64	2597.22
563.00	2587.42
563.35	2577.47
563.71	2566.40
564.06	2555.08
564.42	2544.70
564.77	2533.89
565.12	2523.15
565.48	2512.16
565.83	2501.81
566.19	2491.63
566.54	2480.74
566.89	2469.13
567.25	2457.64
567.60	2446.90
567.96	2435.62
568.31	2423.03
568.66	2410.54
569.02	2398.98
569.37	2387.19
569.72	2375.98
570.08	2363.99
570.43	2351.43
570.78	2338.47
571.14	2325.61
571.49	2313.34
571.84	2301.30
572.20	2287.93
572.55	2275.13
572.90	2262.04
573.26	2248.03
573.61	2233.39
573.96	2219.20
574.31	2205.28
574.67	2191.55
575.02	2177.32
575.37	2162.75
575.72	2148.40
576.08	2134.47
576.43	2119.43
576.78	2104.52
577.13	2090.40
577.49	2076.38
577.84	2062.80
578.19	2048.43
578.54	2033.56
578.90	2018.15
579.25	2002.54
579.60	1988.49
579.95	1973.93
580.30	1959.53
580.66	1945.34
581.01	1930.72
581.36	1916.52
581.71	1902.93
582.06	1888.71
582.42	1874.80
582.77	1861.43
583.12	1847.57
583.47	1833.94
583.82	1820.46
584.17	1806.77
584.53	1793.00
584.88	1779.25
585.23	1765.08
585.58	1751.49
585.93	1738.22
586.28	1725.86
586.63	1713.17
586.98	1699.66
587.34	1686.46
587.69	1672.77
588.04	1659.43
588.39	1646.69
588.74	1633.29
589.09	1619.78
589.44	1606.27
589.79	1593.19
590.14	1580.10
590.49	1567.20
590.84	1554.16
591.19	1541.68
591.54	1528.79
591.89	1515.69
592.25	1502.87
592.60	1489.74
592.95	1477.13
593.30	1464.95
593.65	1452.50
594.00	1440.41
594.35	1428.93
594.70	1416.63
595.05	1405.33
595.40	1393.74
595.75	1381.66
596.10	1370.48
596.45	1359.51
596.80	1348.97
597.15	1338.22
597.50	1327.41
597.85	1316.88
598.19	1306.52
598.54	1295.66
598.89	1285.51
599.24	1275.56
599.59	1265.45
599.94	1256.35
600.29	1247.09
600.64	1237.59
600.99	1227.45
601.34	1217.78
601.69	1207.64
602.04	1198.63
602.39	1189.53
602.74	1180.70
603.08	1172.10
603.43	1162.97
603.78	1153.65
604.13	1144.47
604.48	1135.22
604.83	1126.25
605.18	1117.19
605.53	1108.04
605.87	1098.92
606.22	1090.09
606.57	1081.09
606.92	1072.10
607.27	1062.94
607.62	1053.93
607.96	1045.12
608.31	1037.43
608.66	1029.25
609.01	1021.47
609.36	1013.57
609.70	1005.40
610.05	997.12
610.40	989.20
610.75	981.31
611.10	973.72
611.44	965.82
611.79	958.19
612.14	950.14
612.49	942.30
612.83	934.92
613.18	927.64
613.53	920.21
613.88	912.86
614.22	906.18
614.57	899.26
614.92	892.30
615.27	885.36
615.61	878.23
615.96	871.34
616.31	864.38
616.65	857.36
617.00	850.58
617.35	843.90
617.70	837.27
618.04	830.77
618.39	824.24
618.74	818.05
619.08	811.71
619.43	805.62
619.78	799.50
620.12	793.24
620.47	787.15
620.82	781.13
621.16	775.42
621.51	769.33
621.85	763.26
622.20	757.26
622.55	751.44
622.89	745.50
623.24	739.66
623.59	733.89
623.93	728.18
624.28	722.65
624.62	717.07
624.97	711.46
625.32	705.97
625.66	700.36
626.01	694.72
626.35	689.24
626.70	683.81
627.04	678.60
627.39	673.44
627.73	668.40
628.08	663.56
628.43	658.54
628.77	653.58
629.12	648.82
629.46	644.21
629.81	639.41
630.15	634.57
630.50	629.87
630.84	625.37
631.19	621.03
631.53	616.71
631.88	612.30
632.22	608.00
632.57	603.90
632.91	599.75
633.26	595.70
633.60	591.74
633.95	587.93
634.29	583.94
634.64	579.88
634.98	575.73
635.32	571.74
635.67	567.93
636.01	564.10
636.36	560.24
636.70	556.55
637.05	552.87
637.39	549.35
637.73	545.69
638.08	542.11
638.42	538.50
638.77	534.78
639.11	531.02
639.45	527.32
639.80	523.65
640.14	520.14
640.49	516.59
640.83	512.92
641.17	509.30
641.52	505.85
641.86	502.38
642.20	499.11
642.55	495.68
642.89	492.33
643.23	489.18
643.58	486.30
643.92	483.26
644.26	480.26
644.61	477.25
644.95	474.23
645.29	471.15
645.64	468.05
645.98	465.10
646.32	462.36
646.66	459.59
647.01	456.79
647.35	454.06
647.69	451.20
648.04	448.52
648.38	445.83
648.72	443.11
649.06	440.49
649.41	437.88
649.75	435.29
650.09	432.71
650.43	430.13
650.78	427.51
651.12	424.88
651.46	422.37
651.80	419.96
652.14	417.63
652.49	415.32
652.83	413.08
653.17	410.80
653.51	408.58
653.85	406.44
654.20	404.23
654.54	401.94
654.88	399.86
655.22	397.81
655.56	395.73
655.90	393.76
656.25	391.79
656.59	389.82
656.93	387.96
657.27	386.14
657.61	384.20
657.95	382.35
658.29	380.50
658.64	378.66
658.98	376.81
659.32	374.99
659.66	373.27
660.00	371.56
660.34	369.91
660.68	368.19
661.02	366.40
661.36	364.75
661.70	363.16
662.05	361.53
662.39	359.90
662.73	358.35
663.07	356.83
663.41	355.34
663.75	353.89
664.09	352.42
664.43	350.87
664.77	349.44
665.11	347.95
665.45	346.54
665.79	345.13
666.13	343.71
666.47	342.29
666.81	340.83
667.15	339.34
667.49	337.94
667.83	336.59
668.17	335.28
668.51	333.99
668.85	332.72
669.19	331.53
669.53	330.26
669.87	328.97
670.21	327.72
670.55	326.47
670.89	325.30
671.23	324.10
671.57	322.91
671.91	321.78
672.25	320.70
672.58	319.61
672.92	318.51
673.26	317.48
673.60	316.43
673.94	315.38
674.28	314.41
674.62	313.41
674.96	312.39
675.30	311.43
675.64	310.45
675.97	309.49
676.31	308.49
676.65	307.53
676.99	306.63
677.33	305.67
677.67	304.76
678.01	303.77
678.34	302.84
678.68	301.99
679.02	301.10
679.36	300.21
679.70	299.34
680.04	298.48
680.37	297.61
680.71	296.78
681.05	296.01
681.39	295.19
681.73	294.34
682.06	293.53
682.40	292.72
682.74	291.94
683.08	291.19
683.42	290.43
683.75	289.73
684.09	288.95
684.43	288.22
684.77	287.48
685.10	286.78
685.44	286.08
685.78	285.36
686.12	284.67
686.45	283.97
686.79	283.28
687.13	282.60
687.46	281.90
687.80	281.23
688.14	280.51
688.48	279.85
688.81	279.20
689.15	278.59
689.49	277.95
689.82	277.31
690.16	276.62
690.50	275.99
690.83	275.36
691.17	274.75
691.51	274.15
691.84	273.56
692.18	272.95
692.52	272.33
692.85	271.73
693.19	271.18
693.52	270.62
693.86	270.06
694.20	269.50
694.53	268.96
694.87	268.41
695.21	267.89
695.54	267.36
695.88	266.82
696.21	266.24
696.55	265.71
696.88	265.19
697.22	264.69
697.56	264.19
697.89	263.64
698.23	263.12
698.56	262.59
698.90	262.12
699.23	261.61
699.57	261.15
699.90	260.68
700.24	260.17
700.58	259.70
700.91	259.27
701.25	258.92
701.58	258.52
701.92	258.12
702.25	257.70
702.59	257.26
702.92	256.86
703.26	256.45
703.59	256.03
703.93	255.71
704.26	255.33
704.60	254.94
704.93	254.56
705.26	254.19
705.60	253.86
705.93	253.46
706.27	253.14
706.60	252.80
706.94	252.46
707.27	252.08
707.61	251.73
707.94	251.36
708.27	250.91
708.61	250.52
708.94	250.15
709.28	249.81
709.61	249.47
709.94	249.16
710.28	248.84
710.61	248.55
710.95	248.17
711.28	247.93
711.61	247.63
711.95	247.36
712.28	247.06
712.61	246.75
712.95	246.53
713.28	246.28
713.61	246.00
713.95	245.70
714.28	245.45
714.61	245.18
714.95	244.92
715.28	244.66
715.61	244.40
715.95	244.17
716.28	243.92
716.61	243.71
716.95	243.45
717.28	243.22
717.61	242.98
717.94	242.75
718.28	242.44
718.61	242.22
718.94	241.98
719.27	241.76
719.61	241.56
719.94	241.31
720.27	241.05
720.60	240.84
720.94	240.63
721.27	240.43
721.60	240.26
721.93	240.06
722.27	239.90
722.60	239.73
722.93	239.52
723.26	239.34
723.59	239.12
723.93	238.95
724.26	238.78
724.59	238.60
724.92	238.44
725.25	238.30
725.59	238.13
725.92	237.98
726.25	237.82
726.58	237.65
726.91	237.48
727.24	237.33
727.57	237.18
727.91	237.01
728.24	236.88
728.57	236.71
728.90	236.58
729.23	236.40
729.56	236.29
729.89	236.14
730.22	235.99
730.55	235.85
730.89	235.71
731.22	235.56
731.55	235.41
731.88	235.28
732.21	235.12
732.54	234.99
732.87	234.86
733.20	234.74
733.53	234.62
733.86	234.51
734.19	234.37
734.52	234.27
734.85	234.22
735.18	234.08
735.51	233.99
735.84	233.86
736.17	233.77
736.50	233.61
736.83	233.62
737.16	233.52
737.49	233.42
737.82	233.31
738.15	233.21
738.48	233.12
738.81	233.01
739.14	232.89
739.47	232.78
739.80	232.67
740.13	232.58
740.46	232.46
740.79	232.35
741.12	232.25
741.45	232.13
741.78	231.98
742.11	231.92
742.44	231.80
742.77	231.72
743.10	231.61
743.43	231.51
743.75	231.31
744.08	231.38
744.41	231.29
744.74	231.20
745.07	231.09
745.40	231.02
745.73	230.99
746.06	230.91
746.39	230.85
746.71	230.76
747.04	230.67
747.37	230.58
747.70	230.52
748.03	230.45
748.36	230.39
748.68	230.31
749.01	230.21
749.34	230.13
749.67	230.06
750.00	230.01
750.33	230.02
750.65	229.96
750.98	229.73
751.31	229.67
751.64	229.61
751.97	229.60
752.29	229.52
752.62	229.40
752.95	229.33
753.28	229.24
753.60	229.17
753.93	229.13
754.26	229.08
754.59	228.97
754.91	228.89
755.24	228.81
755.57	228.78
755.90	228.72
756.22	228.65
756.55	228.56
756.88	228.47
757.20	228.34
757.53	228.26
757.86	228.20
758.19	228.15
758.51	228.09
758.84	227.98
759.17	227.92
759.49	227.87
759.82	227.88
760.15	227.83
760.47	227.78
760.80	227.70
761.13	227.68
761.45	227.63
761.78	227.59
762.11	227.55
762.43	227.45
762.76	227.41
763.08	227.38
763.41	227.34
763.74	227.30
764.06	227.25
764.39	227.22
764.71	227.17
765.04	227.11
765.37	227.06
765.69	227.01
766.02	226.97
766.34	226.91
766.67	226.83
767.00	226.81
767.32	226.82
767.65	226.85
767.97	226.79
768.30	226.76
768.62	226.73
768.95	226.68
769.27	226.64
769.60	226.62
769.92	226.56
770.25	226.51
770.57	226.46
770.90	226.42
771.22	226.37
771.55	226.34
771.87	226.32
772.20	226.29
772.52	226.34
772.85	226.43
773.17	226.40
773.50	226.36
773.82	226.31
774.15	226.23
774.47	226.14
774.80	226.10
775.12	226.06
775.45	226.02
775.77	226.00
776.09	225.99
776.42	225.95
776.74	225.96
777.07	225.93
777.39	225.92
777.72	225.88
778.04	225.86
778.36	225.83
778.69	225.81
779.01	225.79
779.33	225.68
779.66	225.54
779.98	225.52
780.31	225.51
780.63	225.53
780.95	225.53
781.28	225.50
781.60	225.47
781.92	225.45
782.25	225.44
782.57	225.42
782.89	225.39
783.22	225.37
783.54	225.31
783.86	225.31
784.19	225.28
784.51	225.29
784.83	225.27
785.16	225.24
785.48	225.23
785.80	225.20
786.12	225.20
786.45	225.18
786.77	225.17
787.09	225.14
787.42	225.09
787.74	225.07
788.06	225.06
788.38	225.04
788.71	225.02
789.03	225.01
789.35	225.01
789.67	224.98
789.99	224.97
790.32	224.95
790.64	224.94
790.96	225.02
791.28	224.97
791.61	224.95
791.93	224.94
792.25	224.92
792.57	224.98
792.89	224.95
793.21	224.94
793.54	224.92
793.86	224.90
794.18	224.88
794.50	224.85
794.82	224.83
795.14	224.83
795.47	224.83
795.79	224.82
796.11	224.78
796.43	224.76
796.75	224.75
797.07	224.75
797.39	224.73
797.71	224.63
798.04	224.62
798.36	224.61
798.68	224.60
799.00	224.59
799.32	224.53
799.64	224.54
799.96	224.52
800.28	224.53
800.60	224.51
800.92	224.51
801.24	224.49
801.56	224.49
801.89	224.47
802.21	224.47
802.53	224.44
802.85	224.46
803.17	224.50
803.49	224.46
803.81	224.44
804.13	224.42
804.45	224.40
804.77	224.39
805.09	224.38
805.41	224.37
805.73	224.34
806.05	224.30
806.37	224.28
806.69	224.25
807.01	224.23
807.33	224.22
807.65	224.18
807.97	224.22
808.28	224.19
808.60	224.18
808.92	224.15
809.24	224.20
809.56	224.17
809.88	224.12
810.20	224.12
810.52	224.13
810.84	224.12
811.16	224.10
811.48	224.09
811.80	224.11
812.12	224.10
812.43	224.11
812.75	224.12
813.07	224.10
813.39	224.11
813.71	224.09
814.03	224.07
814.35	224.07
814.67	224.01
814.98	224.01
815.30	224.00
815.62	223.98
815.94	223.91
816.26	223.91
816.58	223.89
816.89	223.89
817.21	223.86
817.53	223.86
817.85	223.85
