SpectraSuite Data File
++++++++++++++++++++++++++++++++++++
Date: Wed Sep 30 15:55:19 EDT 2015
User: lab3
Dark Spectrum Present: No
Reference Spectrum Present: No
Number of Sampled Component Spectra: 1
Spectrometers: USB2E7196
Integration Time (usec): 36000 (USB2E7196)
Spectra Averaged: 3000 (USB2E7196)
Boxcar Smoothing: 10 (USB2E7196)
Correct for Electrical Dark: No (USB2E7196)
Strobe/Lamp Enabled: No (USB2E7196)
Correct for Detector Non-linearity: No (USB2E7196)
Correct for Stray Light: No (USB2E7196)
Number of Pixels in Processed Spectrum: 2048
>>>>>Begin Processed Spectral Data<<<<<
339.09	0.00
339.48	211.89
339.86	213.32
340.24	214.74
340.63	216.11
341.01	219.01
341.39	218.86
341.78	220.16
342.16	221.26
342.54	221.80
342.93	210.32
343.31	220.95
343.69	221.49
344.07	221.95
344.46	222.37
344.84	222.75
345.22	222.99
345.60	223.24
345.99	223.43
346.37	223.57
346.75	223.68
347.13	223.75
347.52	223.82
347.90	223.90
348.28	223.93
348.66	223.99
349.05	223.99
349.43	224.03
349.81	224.09
350.19	224.14
350.57	224.21
350.96	224.28
351.34	224.37
351.72	224.45
352.10	224.56
352.48	224.63
352.87	224.68
353.25	224.74
353.63	224.81
354.01	224.87
354.39	224.93
354.77	225.01
355.15	225.11
355.54	225.16
355.92	225.20
356.30	225.28
356.68	225.42
357.06	225.49
357.44	225.55
357.82	225.61
358.20	225.71
358.58	225.77
358.97	225.84
359.35	225.92
359.73	225.99
360.11	226.04
360.49	226.10
360.87	226.15
361.25	226.21
361.63	226.28
362.01	226.34
362.39	226.38
362.77	226.43
363.15	226.45
363.53	226.49
363.91	226.53
364.29	226.55
364.67	226.46
365.05	226.49
365.43	226.52
365.81	226.55
366.19	226.57
366.57	226.62
366.95	226.63
367.33	226.61
367.71	226.62
368.09	226.64
368.47	226.63
368.85	226.63
369.23	226.65
369.61	226.60
369.99	226.62
370.37	226.61
370.75	226.66
371.13	226.63
371.51	226.58
371.89	226.56
372.27	226.54
372.65	226.52
373.03	226.48
373.41	226.44
373.78	226.39
374.16	226.30
374.54	226.22
374.92	226.16
375.30	226.12
375.68	226.05
376.06	226.01
376.44	225.95
376.82	225.91
377.19	225.86
377.57	225.80
377.95	225.71
378.33	225.66
378.71	225.51
379.09	225.47
379.47	225.43
379.84	225.37
380.22	225.30
380.60	225.23
380.98	225.19
381.36	225.13
381.73	225.07
382.11	225.04
382.49	225.00
382.87	224.94
383.25	224.89
383.62	224.97
384.00	224.90
384.38	224.86
384.76	224.84
385.13	224.82
385.51	224.78
385.89	224.73
386.27	224.69
386.64	224.67
387.02	224.62
387.40	224.57
387.78	224.55
388.15	224.52
388.53	224.49
388.91	224.45
389.29	224.42
389.66	224.40
390.04	224.37
390.42	224.36
390.79	224.35
391.17	224.33
391.55	224.20
391.92	224.19
392.30	224.18
392.68	224.14
393.05	224.12
393.43	224.12
393.81	224.12
394.18	224.11
394.56	224.11
394.94	224.14
395.31	224.14
395.69	224.18
396.06	224.20
396.44	224.22
396.82	224.23
397.19	224.31
397.57	224.32
397.95	224.36
398.32	224.35
398.70	224.39
399.07	224.44
399.45	224.48
399.82	224.52
400.20	224.55
400.58	224.60
400.95	224.61
401.33	224.69
401.70	224.82
402.08	224.91
402.45	224.98
402.83	225.08
403.20	225.18
403.58	225.26
403.95	225.39
404.33	225.52
404.71	225.64
405.08	225.82
405.46	225.96
405.83	226.12
406.21	226.29
406.58	226.48
406.96	226.66
407.33	226.87
407.70	227.11
408.08	227.44
408.45	227.72
408.83	228.02
409.20	228.30
409.58	228.55
409.95	228.89
410.33	229.26
410.70	229.61
411.08	230.02
411.45	230.46
411.82	230.90
412.20	231.41
412.57	232.01
412.95	232.48
413.32	233.09
413.69	233.72
414.07	234.39
414.44	235.12
414.82	235.86
415.19	236.73
415.56	237.62
415.94	238.53
416.31	239.56
416.68	240.60
417.06	241.80
417.43	242.92
417.81	244.21
418.18	245.54
418.55	246.98
418.93	248.47
419.30	250.03
419.67	251.69
420.04	253.40
420.42	255.19
420.79	257.26
421.16	259.35
421.54	261.47
421.91	263.70
422.28	266.00
422.66	268.49
423.03	270.87
423.40	273.36
423.77	276.03
424.15	278.77
424.52	281.62
424.89	284.71
425.26	287.78
425.64	290.64
426.01	293.84
426.38	297.13
426.75	300.52
427.13	303.98
427.50	307.62
427.87	311.39
428.24	315.20
428.61	318.85
428.99	322.79
429.36	327.10
429.73	331.24
430.10	335.36
430.47	339.57
430.85	343.90
431.22	348.52
431.59	353.28
431.96	357.90
432.33	363.02
432.70	367.89
433.08	373.63
433.45	379.05
433.82	384.40
434.19	390.36
434.56	396.23
434.93	401.89
435.30	407.47
435.68	413.75
436.05	419.90
436.42	426.05
436.79	431.65
437.16	437.71
437.53	444.17
437.90	450.63
438.27	456.95
438.64	463.78
439.01	469.96
439.38	475.58
439.75	481.03
440.13	487.21
440.50	493.09
440.87	497.71
441.24	502.80
441.61	508.42
441.98	512.52
442.35	517.40
442.72	522.38
443.09	527.16
443.46	530.23
443.83	532.47
444.20	534.34
444.57	537.11
444.94	538.73
445.31	540.40
445.68	541.88
446.05	542.95
446.42	542.71
446.79	542.38
447.16	542.09
447.53	541.85
447.90	539.97
448.27	538.20
448.64	535.44
449.01	533.60
449.37	529.65
449.74	526.07
450.11	521.46
450.48	516.41
450.85	511.34
451.22	507.02
451.59	502.79
451.96	498.94
452.33	493.33
452.70	488.36
453.07	482.29
453.43	476.23
453.80	470.37
454.17	464.74
454.54	459.53
454.91	453.63
455.28	448.10
455.65	442.89
456.02	437.33
456.38	432.87
456.75	427.09
457.12	422.43
457.49	417.73
457.86	413.27
458.23	409.36
458.59	405.02
458.96	400.58
459.33	396.68
459.70	392.71
460.07	389.68
460.43	386.11
460.80	382.75
461.17	379.81
461.54	376.64
461.91	373.67
462.27	370.65
462.64	368.18
463.01	365.34
463.38	362.47
463.74	359.87
464.11	357.57
464.48	355.49
464.85	353.24
465.21	351.54
465.58	349.65
465.95	347.47
466.32	345.73
466.68	344.02
467.05	342.31
467.42	340.65
467.78	338.87
468.15	337.21
468.52	336.00
468.88	334.37
469.25	332.88
469.62	331.71
469.98	330.43
470.35	329.30
470.72	328.28
471.08	327.24
471.45	326.39
471.82	325.44
472.18	324.45
472.55	323.82
472.92	323.04
473.28	322.43
473.65	321.80
474.02	321.21
474.38	320.71
474.75	320.43
475.11	320.02
475.48	319.86
475.85	319.71
476.21	319.66
476.58	319.67
476.94	319.87
477.31	320.00
477.67	320.15
478.04	320.42
478.41	320.75
478.77	321.22
479.14	321.56
479.50	322.13
479.87	322.83
480.23	323.53
480.60	324.21
480.96	324.90
481.33	325.86
481.69	326.82
482.06	327.77
482.42	328.69
482.79	329.77
483.15	331.02
483.52	332.42
483.88	333.77
484.25	335.21
484.61	336.70
484.98	338.31
485.34	340.11
485.71	341.98
486.07	343.99
486.44	345.97
486.80	348.17
487.17	350.43
487.53	352.92
487.90	355.51
488.26	358.30
488.62	361.26
488.99	364.21
489.35	367.31
489.72	370.65
490.08	374.16
490.44	377.77
490.81	381.53
491.17	385.39
491.54	389.53
491.90	393.76
492.26	398.30
492.63	403.09
492.99	408.07
493.36	413.18
493.72	418.54
494.08	424.07
494.45	429.88
494.81	435.90
495.17	442.04
495.54	448.53
495.90	455.35
496.26	462.31
496.63	469.49
496.99	476.98
497.35	484.85
497.72	492.97
498.08	501.27
498.44	509.83
498.80	518.93
499.17	528.24
499.53	537.86
499.89	547.73
500.26	557.78
500.62	568.12
500.98	579.11
501.34	590.25
501.71	601.92
502.07	613.82
502.43	626.10
502.79	638.71
503.16	651.74
503.52	664.89
503.88	678.40
504.24	692.39
504.60	706.58
504.97	721.15
505.33	736.14
505.69	752.01
506.05	768.07
506.41	784.16
506.78	800.54
507.14	817.44
507.50	834.84
507.86	852.65
508.22	870.68
508.59	888.78
508.95	907.56
509.31	926.78
509.67	946.66
510.03	966.79
510.39	987.12
510.75	1007.61
511.12	1028.40
511.48	1049.42
511.84	1070.67
512.20	1092.26
512.56	1114.93
512.92	1137.62
513.28	1160.02
513.64	1182.79
514.00	1205.98
514.37	1229.43
514.73	1252.90
515.09	1276.18
515.45	1299.87
515.81	1324.09
516.17	1348.28
516.53	1372.26
516.89	1396.24
517.25	1420.43
517.61	1444.73
517.97	1469.28
518.33	1493.65
518.69	1518.13
519.05	1542.96
519.41	1567.76
519.77	1592.86
520.13	1617.16
520.49	1641.72
520.85	1666.48
521.21	1691.02
521.57	1716.13
521.93	1740.53
522.29	1765.67
522.65	1790.59
523.01	1815.29
523.37	1839.15
523.73	1863.83
524.09	1888.67
524.45	1913.29
524.81	1937.33
525.17	1961.29
525.53	1984.84
525.89	2008.36
526.25	2032.09
526.61	2055.15
526.97	2078.56
527.33	2101.80
527.68	2124.73
528.04	2147.08
528.40	2169.17
528.76	2191.52
529.12	2212.78
529.48	2234.52
529.84	2254.44
530.20	2274.76
530.56	2294.72
530.91	2314.92
531.27	2334.47
531.63	2353.27
531.99	2371.73
532.35	2390.11
532.71	2408.57
533.07	2427.40
533.42	2444.83
533.78	2462.47
534.14	2480.21
534.50	2497.04
534.86	2514.51
535.21	2530.28
535.57	2545.62
535.93	2560.50
536.29	2573.94
536.65	2588.27
537.00	2601.48
537.36	2615.40
537.72	2628.35
538.08	2640.92
538.44	2652.43
538.79	2664.11
539.15	2674.08
539.51	2683.82
539.87	2692.85
540.22	2699.70
540.58	2707.07
540.94	2714.75
541.29	2721.23
541.65	2726.71
542.01	2731.67
542.37	2734.82
542.72	2739.97
543.08	2744.42
543.44	2748.63
543.79	2752.54
544.15	2755.26
544.51	2758.02
544.87	2759.74
545.22	2761.22
545.58	2761.75
545.94	2762.67
546.29	2762.21
546.65	2761.58
547.01	2761.38
547.36	2761.26
547.72	2761.54
548.07	2760.15
548.43	2758.33
548.79	2755.75
549.14	2753.06
549.50	2751.10
549.86	2747.92
550.21	2742.76
550.57	2738.11
550.92	2732.19
551.28	2726.67
551.64	2721.19
551.99	2715.90
552.35	2710.33
552.70	2704.25
553.06	2698.83
553.41	2692.90
553.77	2686.18
554.13	2680.72
554.48	2673.83
554.84	2665.80
555.19	2657.78
555.55	2649.26
555.90	2641.22
556.26	2634.20
556.61	2626.56
556.97	2616.87
557.32	2608.44
557.68	2599.83
558.03	2590.91
558.39	2582.60
558.74	2574.30
559.10	2565.10
559.45	2555.36
559.81	2545.83
560.16	2535.71
560.52	2525.51
560.87	2516.22
561.23	2506.54
561.58	2496.45
561.94	2486.28
562.29	2475.48
562.64	2465.24
563.00	2455.23
563.35	2445.09
563.71	2433.76
564.06	2422.45
564.42	2411.90
564.77	2400.99
565.12	2390.15
565.48	2379.13
565.83	2368.77
566.19	2358.58
566.54	2347.62
566.89	2336.15
567.25	2324.75
567.60	2314.11
567.96	2302.87
568.31	2290.43
568.66	2278.20
569.02	2266.82
569.37	2255.21
569.72	2244.18
570.08	2232.47
570.43	2220.22
570.78	2207.58
571.14	2195.20
571.49	2183.17
571.84	2171.38
572.20	2158.48
572.55	2146.08
572.90	2133.39
573.26	2119.72
573.61	2105.50
573.96	2091.81
574.31	2078.26
574.67	2065.00
575.02	2051.23
575.37	2037.19
575.72	2023.34
576.08	2009.80
576.43	1995.21
576.78	1980.85
577.13	1967.19
577.49	1953.60
577.84	1940.42
578.19	1926.51
578.54	1912.23
578.90	1897.54
579.25	1882.63
579.60	1869.10
579.95	1855.17
580.30	1841.37
580.66	1827.80
581.01	1813.85
581.36	1800.31
581.71	1787.45
582.06	1773.90
582.42	1760.75
582.77	1747.92
583.12	1734.74
583.47	1721.87
583.82	1709.15
584.17	1696.23
584.53	1683.23
584.88	1670.23
585.23	1656.82
585.58	1644.01
585.93	1631.43
586.28	1619.68
586.63	1607.62
586.98	1594.82
587.34	1582.24
587.69	1569.26
588.04	1556.77
588.39	1544.73
588.74	1532.02
589.09	1519.25
589.44	1506.51
589.79	1494.09
590.14	1481.84
590.49	1469.69
590.84	1457.38
591.19	1445.56
591.54	1433.37
591.89	1421.00
592.25	1408.91
592.60	1396.59
592.95	1384.77
593.30	1373.35
593.65	1361.68
594.00	1350.39
594.35	1339.61
594.70	1328.11
595.05	1317.49
595.40	1306.51
595.75	1295.20
596.10	1284.80
596.45	1274.51
596.80	1264.65
597.15	1254.63
597.50	1244.47
597.85	1234.63
598.19	1224.94
598.54	1214.82
598.89	1205.38
599.24	1196.05
599.59	1186.66
599.94	1178.21
600.29	1169.57
600.64	1160.64
600.99	1151.13
601.34	1142.06
601.69	1132.67
602.04	1124.31
602.39	1115.91
602.74	1107.74
603.08	1099.72
603.43	1091.26
603.78	1082.66
604.13	1074.15
604.48	1065.59
604.83	1057.29
605.18	1048.88
605.53	1040.39
605.87	1031.95
606.22	1023.71
606.57	1015.39
606.92	1007.03
607.27	998.47
607.62	990.09
607.96	981.97
608.31	974.87
608.66	967.38
609.01	960.18
609.36	952.87
609.70	945.30
610.05	937.64
610.40	930.32
610.75	922.99
611.10	915.95
611.44	908.63
611.79	901.50
612.14	894.06
612.49	886.84
612.83	880.02
613.18	873.29
613.53	866.46
613.88	859.73
614.22	853.59
614.57	847.22
614.92	840.84
615.27	834.47
615.61	827.93
615.96	821.56
616.31	815.13
616.65	808.67
617.00	802.40
617.35	796.26
617.70	790.15
618.04	784.17
618.39	778.15
618.74	772.44
619.08	766.64
619.43	761.04
619.78	755.36
620.12	749.62
620.47	744.01
620.82	738.52
621.16	733.24
621.51	727.63
621.85	722.06
622.20	716.57
622.55	711.18
622.89	705.71
623.24	700.36
623.59	695.09
623.93	689.86
624.28	684.81
624.62	679.72
624.97	674.59
625.32	669.56
625.66	664.42
626.01	659.26
626.35	654.23
626.70	649.23
627.04	644.54
627.39	639.81
627.73	635.20
628.08	630.76
628.43	626.12
628.77	621.55
629.12	617.18
629.46	612.92
629.81	608.49
630.15	604.04
630.50	599.69
630.84	595.54
631.19	591.53
631.53	587.54
631.88	583.48
632.22	579.50
632.57	575.73
632.91	571.89
633.26	568.15
633.60	564.51
633.95	561.01
634.29	557.28
634.64	553.56
634.98	549.75
635.32	546.06
635.67	542.56
636.01	539.04
636.36	535.50
636.70	532.14
637.05	528.78
637.39	525.57
637.73	522.20
638.08	518.91
638.42	515.59
638.77	512.18
639.11	508.67
639.45	505.29
639.80	501.92
640.14	498.69
640.49	495.42
640.83	492.01
641.17	488.70
641.52	485.49
641.86	482.28
642.20	479.27
642.55	476.09
642.89	473.02
643.23	470.11
643.58	467.45
643.92	464.61
644.26	461.81
644.61	459.01
644.95	456.25
645.29	453.39
645.64	450.54
645.98	447.82
646.32	445.31
646.66	442.74
647.01	440.15
647.35	437.62
647.69	435.01
648.04	432.56
648.38	430.06
648.72	427.56
649.06	425.17
649.41	422.77
649.75	420.38
650.09	418.02
650.43	415.65
650.78	413.25
651.12	410.84
651.46	408.54
651.80	406.32
652.14	404.18
652.49	402.06
652.83	400.00
653.17	397.90
653.51	395.86
653.85	393.90
654.20	391.85
654.54	389.76
654.88	387.84
655.22	385.93
655.56	384.02
655.90	382.23
656.25	380.40
656.59	378.59
656.93	376.89
657.27	375.20
657.61	373.43
657.95	371.71
658.29	370.01
658.64	368.32
658.98	366.63
659.32	364.95
659.66	363.36
660.00	361.77
660.34	360.25
660.68	358.66
661.02	357.00
661.36	355.51
661.70	354.03
662.05	352.53
662.39	351.02
662.73	349.60
663.07	348.20
663.41	346.84
663.75	345.50
664.09	344.13
664.43	342.70
664.77	341.39
665.11	340.02
665.45	338.73
665.79	337.43
666.13	336.12
666.47	334.80
666.81	333.46
667.15	332.09
667.49	330.79
667.83	329.55
668.17	328.35
668.51	327.14
668.85	325.98
669.19	324.90
669.53	323.74
669.87	322.55
670.21	321.39
670.55	320.23
670.89	319.15
671.23	318.05
671.57	316.96
671.91	315.90
672.25	314.92
672.58	313.90
672.92	312.88
673.26	311.93
673.60	310.98
673.94	310.02
674.28	309.12
674.62	308.22
674.96	307.28
675.30	306.40
675.64	305.51
675.97	304.63
676.31	303.69
676.65	302.79
676.99	301.96
677.33	301.08
677.67	300.25
678.01	299.33
678.34	298.48
678.68	297.70
679.02	296.87
679.36	296.05
679.70	295.24
680.04	294.46
680.37	293.65
680.71	292.89
681.05	292.17
681.39	291.41
681.73	290.62
682.06	289.87
682.40	289.13
682.74	288.40
683.08	287.70
683.42	287.00
683.75	286.35
684.09	285.62
684.43	284.94
684.77	284.25
685.10	283.61
685.44	282.95
685.78	282.29
686.12	281.66
686.45	281.00
686.79	280.36
687.13	279.72
687.46	279.07
687.80	278.46
688.14	277.78
688.48	277.17
688.81	276.56
689.15	276.00
689.49	275.38
689.82	274.79
690.16	274.14
690.50	273.56
690.83	272.97
691.17	272.39
691.51	271.83
691.84	271.28
692.18	270.70
692.52	270.12
692.85	269.56
693.19	269.04
693.52	268.52
693.86	267.99
694.20	267.47
694.53	266.98
694.87	266.46
695.21	265.98
695.54	265.48
695.88	264.98
696.21	264.44
696.55	263.96
696.88	263.47
697.22	263.00
697.56	262.52
697.89	262.01
698.23	261.54
698.56	261.05
698.90	260.60
699.23	260.13
699.57	259.71
699.90	259.27
700.24	258.80
700.58	258.37
700.91	257.97
701.25	257.63
701.58	257.26
701.92	256.89
702.25	256.49
702.59	256.08
702.92	255.70
703.26	255.31
703.59	254.93
703.93	254.63
704.26	254.26
704.60	253.90
704.93	253.55
705.26	253.20
705.60	252.88
705.93	252.52
706.27	252.22
706.60	251.90
706.94	251.59
707.27	251.22
707.61	250.88
707.94	250.52
708.27	250.11
708.61	249.73
708.94	249.39
709.28	249.06
709.61	248.75
709.94	248.47
710.28	248.19
710.61	247.90
710.95	247.54
711.28	247.32
711.61	247.03
711.95	246.78
712.28	246.50
712.61	246.20
712.95	245.99
713.28	245.77
713.61	245.50
713.95	245.22
714.28	245.00
714.61	244.74
714.95	244.50
715.28	244.25
715.61	244.02
715.95	243.79
716.28	243.56
716.61	243.36
716.95	243.11
717.28	242.89
717.61	242.67
717.94	242.46
718.28	242.17
718.61	241.96
718.94	241.72
719.27	241.51
719.61	241.33
719.94	241.10
720.27	240.84
720.60	240.64
720.94	240.44
721.27	240.25
721.60	240.08
721.93	239.89
722.27	239.74
722.60	239.56
722.93	239.36
723.26	239.18
723.59	238.98
723.93	238.82
724.26	238.65
724.59	238.48
724.92	238.31
725.25	238.18
725.59	238.02
725.92	237.88
726.25	237.73
726.58	237.58
726.91	237.41
727.24	237.27
727.57	237.12
727.91	236.96
728.24	236.83
728.57	236.67
728.90	236.55
729.23	236.37
729.56	236.28
729.89	236.15
730.22	236.00
730.55	235.87
730.89	235.73
731.22	235.59
731.55	235.45
731.88	235.33
732.21	235.18
732.54	235.05
732.87	234.93
733.20	234.81
733.53	234.70
733.86	234.60
734.19	234.47
734.52	234.38
734.85	234.33
735.18	234.20
735.51	234.12
735.84	234.00
736.17	233.92
736.50	233.76
736.83	233.78
737.16	233.68
737.49	233.59
737.82	233.49
738.15	233.40
738.48	233.31
738.81	233.20
739.14	233.10
739.47	232.99
739.80	232.89
740.13	232.80
740.46	232.69
740.79	232.58
741.12	232.48
741.45	232.37
741.78	232.23
742.11	232.18
742.44	232.06
742.77	232.00
743.10	231.89
743.43	231.80
743.75	231.61
744.08	231.68
744.41	231.59
744.74	231.50
745.07	231.40
745.40	231.34
745.73	231.31
746.06	231.24
746.39	231.18
746.71	231.10
747.04	231.02
747.37	230.94
747.70	230.89
748.03	230.82
748.36	230.77
748.68	230.69
749.01	230.58
749.34	230.51
749.67	230.44
750.00	230.38
750.33	230.40
750.65	230.34
750.98	230.12
751.31	230.06
751.64	230.00
751.97	230.00
752.29	229.92
752.62	229.81
752.95	229.74
753.28	229.66
753.60	229.59
753.93	229.55
754.26	229.49
754.59	229.39
754.91	229.32
755.24	229.24
755.57	229.22
755.90	229.17
756.22	229.10
756.55	229.02
756.88	228.94
757.20	228.81
757.53	228.72
757.86	228.67
758.19	228.62
758.51	228.56
758.84	228.45
759.17	228.39
759.49	228.34
759.82	228.34
760.15	228.30
760.47	228.25
760.80	228.17
761.13	228.14
761.45	228.10
761.78	228.05
762.11	228.01
762.43	227.92
762.76	227.87
763.08	227.83
763.41	227.80
763.74	227.76
764.06	227.72
764.39	227.67
764.71	227.63
765.04	227.58
765.37	227.52
765.69	227.48
766.02	227.44
766.34	227.39
766.67	227.31
767.00	227.29
767.32	227.31
767.65	227.33
767.97	227.29
768.30	227.26
768.62	227.22
768.95	227.18
769.27	227.14
769.60	227.12
769.92	227.07
770.25	227.02
770.57	226.97
770.90	226.93
771.22	226.89
771.55	226.86
771.87	226.84
772.20	226.80
772.52	226.86
772.85	226.95
773.17	226.92
773.50	226.89
773.82	226.84
774.15	226.76
774.47	226.67
774.80	226.63
775.12	226.59
775.45	226.56
775.77	226.55
776.09	226.53
776.42	226.50
776.74	226.51
777.07	226.48
777.39	226.46
777.72	226.43
778.04	226.42
778.36	226.39
778.69	226.37
779.01	226.36
779.33	226.24
779.66	226.10
779.98	226.08
780.31	226.06
780.63	226.08
780.95	226.08
781.28	226.07
781.60	226.04
781.92	226.02
782.25	226.00
782.57	225.97
782.89	225.95
783.22	225.92
783.54	225.87
783.86	225.86
784.19	225.84
784.51	225.85
784.83	225.81
785.16	225.79
785.48	225.77
785.80	225.75
786.12	225.74
786.45	225.72
786.77	225.71
787.09	225.68
787.42	225.62
787.74	225.61
788.06	225.59
788.38	225.57
788.71	225.55
789.03	225.54
789.35	225.54
789.67	225.51
789.99	225.50
790.32	225.48
790.64	225.47
790.96	225.55
791.28	225.51
791.61	225.50
791.93	225.49
792.25	225.48
792.57	225.54
792.89	225.51
793.21	225.50
793.54	225.48
793.86	225.46
794.18	225.44
794.50	225.41
794.82	225.40
795.14	225.40
795.47	225.40
795.79	225.39
796.11	225.35
796.43	225.33
796.75	225.32
797.07	225.31
797.39	225.30
797.71	225.20
798.04	225.19
798.36	225.19
798.68	225.17
799.00	225.16
799.32	225.10
799.64	225.11
799.96	225.09
800.28	225.10
800.60	225.09
800.92	225.09
801.24	225.07
801.56	225.06
801.89	225.04
802.21	225.03
802.53	225.00
802.85	225.01
803.17	225.06
803.49	225.02
803.81	225.01
804.13	224.99
804.45	224.97
804.77	224.97
805.09	224.95
805.41	224.94
805.73	224.90
806.05	224.86
806.37	224.85
806.69	224.83
807.01	224.82
807.33	224.81
807.65	224.76
807.97	224.80
808.28	224.78
808.60	224.77
808.92	224.75
809.24	224.81
809.56	224.78
809.88	224.73
810.20	224.73
810.52	224.74
810.84	224.72
811.16	224.70
811.48	224.69
811.80	224.72
812.12	224.71
812.43	224.72
812.75	224.72
813.07	224.70
813.39	224.70
813.71	224.68
814.03	224.67
814.35	224.68
814.67	224.63
814.98	224.62
815.30	224.61
815.62	224.58
815.94	224.51
816.26	224.52
816.58	224.50
816.89	224.51
817.21	224.48
817.53	224.48
817.85	224.48
