SpectraSuite Data File
++++++++++++++++++++++++++++++++++++
Date: Wed Sep 30 19:45:55 EDT 2015
User: lab3
Dark Spectrum Present: No
Reference Spectrum Present: No
Number of Sampled Component Spectra: 1
Spectrometers: USB2E7196
Integration Time (usec): 36000 (USB2E7196)
Spectra Averaged: 10000 (USB2E7196)
Boxcar Smoothing: 10 (USB2E7196)
Correct for Electrical Dark: No (USB2E7196)
Strobe/Lamp Enabled: No (USB2E7196)
Correct for Detector Non-linearity: No (USB2E7196)
Correct for Stray Light: No (USB2E7196)
Number of Pixels in Processed Spectrum: 2048
>>>>>Begin Processed Spectral Data<<<<<
339.09	0.00
339.48	211.02
339.86	212.37
340.24	213.76
340.63	215.22
341.01	218.17
341.39	217.91
341.78	219.26
342.16	220.51
342.54	220.95
342.93	209.49
343.31	220.07
343.69	220.60
344.07	221.07
344.46	221.50
344.84	221.89
345.22	222.12
345.60	222.38
345.99	222.57
346.37	222.70
346.75	222.81
347.13	222.89
347.52	222.95
347.90	223.04
348.28	223.08
348.66	223.13
349.05	223.13
349.43	223.19
349.81	223.24
350.19	223.30
350.57	223.36
350.96	223.45
351.34	223.54
351.72	223.63
352.10	223.74
352.48	223.81
352.87	223.86
353.25	223.93
353.63	223.99
354.01	224.05
354.39	224.13
354.77	224.20
355.15	224.31
355.54	224.36
355.92	224.39
356.30	224.47
356.68	224.60
357.06	224.68
357.44	224.72
357.82	224.78
358.20	224.89
358.58	224.95
358.97	225.01
359.35	225.09
359.73	225.17
360.11	225.22
360.49	225.28
360.87	225.33
361.25	225.39
361.63	225.47
362.01	225.53
362.39	225.55
362.77	225.60
363.15	225.62
363.53	225.66
363.91	225.69
364.29	225.71
364.67	225.64
365.05	225.66
365.43	225.69
365.81	225.72
366.19	225.73
366.57	225.78
366.95	225.78
367.33	225.76
367.71	225.75
368.09	225.77
368.47	225.76
368.85	225.75
369.23	225.76
369.61	225.71
369.99	225.72
370.37	225.72
370.75	225.77
371.13	225.74
371.51	225.70
371.89	225.68
372.27	225.66
372.65	225.64
373.03	225.59
373.41	225.55
373.78	225.50
374.16	225.41
374.54	225.33
374.92	225.29
375.30	225.24
375.68	225.17
376.06	225.13
376.44	225.07
376.82	225.03
377.19	224.98
377.57	224.92
377.95	224.84
378.33	224.78
378.71	224.64
379.09	224.59
379.47	224.56
379.84	224.49
380.22	224.43
380.60	224.35
380.98	224.30
381.36	224.25
381.73	224.19
382.11	224.16
382.49	224.12
382.87	224.06
383.25	224.01
383.62	224.09
384.00	224.02
384.38	223.98
384.76	223.96
385.13	223.95
385.51	223.91
385.89	223.86
386.27	223.82
386.64	223.80
387.02	223.75
387.40	223.70
387.78	223.67
388.15	223.65
388.53	223.62
388.91	223.59
389.29	223.56
389.66	223.55
390.04	223.51
390.42	223.51
390.79	223.49
391.17	223.47
391.55	223.34
391.92	223.32
392.30	223.32
392.68	223.29
393.05	223.26
393.43	223.26
393.81	223.27
394.18	223.25
394.56	223.25
394.94	223.28
395.31	223.27
395.69	223.31
396.06	223.34
396.44	223.35
396.82	223.36
397.19	223.44
397.57	223.45
397.95	223.49
398.32	223.49
398.70	223.53
399.07	223.59
399.45	223.62
399.82	223.66
400.20	223.70
400.58	223.75
400.95	223.77
401.33	223.84
401.70	223.98
402.08	224.06
402.45	224.14
402.83	224.24
403.20	224.34
403.58	224.42
403.95	224.54
404.33	224.67
404.71	224.79
405.08	224.97
405.46	225.11
405.83	225.27
406.21	225.43
406.58	225.62
406.96	225.80
407.33	226.01
407.70	226.25
408.08	226.57
408.45	226.84
408.83	227.14
409.20	227.41
409.58	227.66
409.95	228.00
410.33	228.37
410.70	228.71
411.08	229.12
411.45	229.55
411.82	229.98
412.20	230.49
412.57	231.08
412.95	231.54
413.32	232.15
413.69	232.77
414.07	233.43
414.44	234.15
414.82	234.88
415.19	235.74
415.56	236.61
415.94	237.52
416.31	238.54
416.68	239.56
417.06	240.75
417.43	241.86
417.81	243.14
418.18	244.44
418.55	245.86
418.93	247.35
419.30	248.89
419.67	250.55
420.04	252.24
420.42	254.01
420.79	256.06
421.16	258.12
421.54	260.23
421.91	262.42
422.28	264.70
422.66	267.17
423.03	269.52
423.40	271.98
423.77	274.63
424.15	277.34
424.52	280.16
424.89	283.21
425.26	286.24
425.64	289.06
426.01	292.22
426.38	295.47
426.75	298.81
427.13	302.24
427.50	305.82
427.87	309.54
428.24	313.29
428.61	316.89
428.99	320.77
429.36	325.03
429.73	329.11
430.10	333.17
430.47	337.32
430.85	341.59
431.22	346.14
431.59	350.81
431.96	355.37
432.33	360.40
432.70	365.18
433.08	370.84
433.45	376.18
433.82	381.42
434.19	387.27
434.56	393.02
434.93	398.56
435.30	404.05
435.68	410.23
436.05	416.28
436.42	422.32
436.79	427.83
437.16	433.76
437.53	440.11
437.90	446.46
438.27	452.66
438.64	459.38
439.01	465.45
439.38	471.00
439.75	476.35
440.13	482.46
440.50	488.26
440.87	492.82
441.24	497.85
441.61	503.39
441.98	507.45
442.35	512.27
442.72	517.21
443.09	521.94
443.46	524.96
443.83	527.19
444.20	529.08
444.57	531.85
444.94	533.48
445.31	535.17
445.68	536.66
446.05	537.77
446.42	537.57
446.79	537.28
447.16	537.03
447.53	536.83
447.90	534.99
448.27	533.27
448.64	530.58
449.01	528.78
449.37	524.92
449.74	521.41
450.11	516.90
450.48	511.95
450.85	506.96
451.22	502.72
451.59	498.57
451.96	494.79
452.33	489.28
452.70	484.37
453.07	478.39
453.43	472.39
453.80	466.61
454.17	461.04
454.54	455.88
454.91	450.06
455.28	444.58
455.65	439.42
456.02	433.93
456.38	429.50
456.75	423.79
457.12	419.18
457.49	414.54
457.86	410.10
458.23	406.22
458.59	401.93
458.96	397.52
459.33	393.64
459.70	389.68
460.07	386.66
460.43	383.11
460.80	379.78
461.17	376.84
461.54	373.68
461.91	370.73
462.27	367.73
462.64	365.27
463.01	362.45
463.38	359.60
463.74	357.02
464.11	354.73
464.48	352.66
464.85	350.44
465.21	348.73
465.58	346.86
465.95	344.69
466.32	342.95
466.68	341.25
467.05	339.55
467.42	337.90
467.78	336.12
468.15	334.48
468.52	333.26
468.88	331.65
469.25	330.19
469.62	329.03
469.98	327.76
470.35	326.63
470.72	325.62
471.08	324.59
471.45	323.73
471.82	322.79
472.18	321.81
472.55	321.17
472.92	320.39
473.28	319.77
473.65	319.14
474.02	318.55
474.38	318.06
474.75	317.78
475.11	317.37
475.48	317.22
475.85	317.06
476.21	317.00
476.58	317.01
476.94	317.19
477.31	317.31
477.67	317.45
478.04	317.71
478.41	318.04
478.77	318.50
479.14	318.83
479.50	319.37
479.87	320.05
480.23	320.73
480.60	321.39
480.96	322.07
481.33	323.01
481.69	323.96
482.06	324.89
482.42	325.78
482.79	326.84
483.15	328.06
483.52	329.42
483.88	330.74
484.25	332.14
484.61	333.61
484.98	335.19
485.34	336.95
485.71	338.78
486.07	340.73
486.44	342.66
486.80	344.82
487.17	347.03
487.53	349.46
487.90	351.99
488.26	354.73
488.62	357.62
488.99	360.51
489.35	363.53
489.72	366.80
490.08	370.23
490.44	373.76
490.81	377.45
491.17	381.24
491.54	385.28
491.90	389.42
492.26	393.88
492.63	398.57
492.99	403.45
493.36	408.46
493.72	413.74
494.08	419.15
494.45	424.87
494.81	430.79
495.17	436.83
495.54	443.20
495.90	449.89
496.26	456.73
496.63	463.80
496.99	471.15
497.35	478.87
497.72	486.88
498.08	495.05
498.44	503.48
498.80	512.46
499.17	521.65
499.53	531.18
499.89	540.94
500.26	550.87
500.62	561.09
500.98	571.96
501.34	582.98
501.71	594.54
502.07	606.31
502.43	618.50
502.79	631.00
503.16	643.93
503.52	657.03
503.88	670.50
504.24	684.41
504.60	698.60
504.97	713.17
505.33	728.13
505.69	743.98
506.05	760.01
506.41	776.05
506.78	792.39
507.14	809.23
507.50	826.66
507.86	844.50
508.22	862.60
508.59	880.73
508.95	899.59
509.31	918.87
509.67	938.82
510.03	959.01
510.39	979.43
510.75	1000.06
511.12	1021.02
511.48	1042.26
511.84	1063.65
512.20	1085.37
512.56	1108.13
512.92	1131.08
513.28	1153.77
513.64	1176.84
514.00	1200.31
514.37	1224.10
514.73	1247.97
515.09	1271.60
515.45	1295.67
515.81	1320.31
516.17	1344.99
516.53	1369.38
516.89	1393.86
517.25	1418.57
517.61	1443.44
517.97	1468.52
518.33	1493.38
518.69	1518.32
519.05	1543.56
519.41	1568.93
519.77	1594.56
520.13	1619.49
520.49	1644.58
520.85	1669.90
521.21	1695.13
521.57	1720.99
521.93	1746.16
522.29	1772.14
522.65	1797.88
523.01	1823.45
523.37	1848.27
523.73	1873.82
524.09	1899.51
524.45	1925.02
524.81	1950.06
525.17	1975.01
525.53	1999.60
525.89	2024.26
526.25	2049.15
526.61	2073.48
526.97	2098.09
527.33	2122.62
527.68	2146.89
528.04	2170.46
528.40	2193.88
528.76	2217.49
529.12	2240.02
529.48	2262.94
529.84	2284.08
530.20	2305.75
530.56	2327.03
530.91	2348.41
531.27	2369.27
531.63	2389.51
531.99	2409.31
532.35	2428.81
532.71	2448.44
533.07	2468.55
533.42	2487.18
533.78	2506.12
534.14	2525.11
534.50	2543.23
534.86	2562.03
535.21	2579.07
535.57	2595.90
535.93	2612.08
536.29	2626.99
536.65	2642.79
537.00	2657.40
537.36	2672.52
537.72	2686.66
538.08	2700.49
538.44	2713.12
538.79	2726.02
539.15	2737.26
539.51	2748.43
539.87	2759.18
540.22	2767.66
540.58	2776.43
540.94	2785.62
541.29	2793.47
541.65	2800.25
542.01	2806.54
542.37	2810.96
542.72	2817.37
543.08	2823.16
543.44	2828.76
543.79	2833.63
544.15	2837.49
544.51	2841.46
544.87	2844.48
545.22	2847.09
545.58	2848.71
545.94	2850.85
546.29	2851.50
546.65	2852.09
547.01	2852.82
547.36	2853.63
547.72	2854.71
548.07	2854.26
548.43	2853.23
548.79	2851.49
549.14	2849.71
549.50	2848.65
549.86	2846.47
550.21	2841.96
550.57	2837.93
550.92	2832.59
551.28	2827.78
551.64	2822.96
551.99	2818.42
552.35	2813.50
552.70	2808.15
553.06	2803.54
553.41	2798.43
553.77	2792.53
554.13	2787.59
554.48	2781.58
554.84	2774.06
555.19	2766.70
555.55	2758.77
555.90	2751.42
556.26	2745.08
556.61	2738.09
556.97	2728.87
557.32	2720.66
557.68	2712.69
558.03	2704.12
558.39	2696.11
558.74	2688.32
559.10	2679.34
559.45	2669.95
559.81	2660.93
560.16	2651.19
560.52	2641.13
560.87	2632.11
561.23	2622.68
561.58	2612.73
561.94	2602.51
562.29	2591.81
562.64	2581.70
563.00	2571.81
563.35	2561.70
563.71	2550.63
564.06	2539.22
564.42	2528.75
564.77	2517.92
565.12	2507.25
565.48	2496.38
565.83	2486.22
566.19	2476.06
566.54	2465.40
566.89	2453.91
567.25	2442.28
567.60	2431.48
567.96	2420.15
568.31	2407.40
568.66	2394.78
569.02	2383.17
569.37	2371.32
569.72	2359.98
570.08	2347.87
570.43	2335.25
570.78	2322.32
571.14	2309.26
571.49	2296.87
571.84	2284.85
572.20	2271.58
572.55	2258.64
572.90	2245.51
573.26	2231.37
573.61	2216.65
573.96	2202.30
574.31	2188.27
574.67	2174.57
575.02	2160.46
575.37	2145.90
575.72	2131.52
576.08	2117.76
576.43	2102.84
576.78	2088.06
577.13	2074.04
577.49	2060.08
577.84	2046.51
578.19	2032.10
578.54	2017.30
578.90	2002.02
579.25	1986.40
579.60	1972.27
579.95	1957.77
580.30	1943.32
580.66	1929.16
581.01	1914.66
581.36	1900.48
581.71	1886.92
582.06	1872.77
582.42	1858.75
582.77	1845.39
583.12	1831.70
583.47	1818.05
583.82	1804.60
584.17	1790.99
584.53	1777.26
584.88	1763.50
585.23	1749.39
585.58	1735.81
585.93	1722.63
586.28	1710.29
586.63	1697.69
586.98	1684.38
587.34	1671.27
587.69	1657.67
588.04	1644.44
588.39	1631.83
588.74	1618.65
589.09	1605.26
589.44	1591.83
589.79	1578.87
590.14	1565.90
590.49	1553.11
590.84	1540.16
591.19	1527.85
591.54	1515.04
591.89	1502.05
592.25	1489.39
592.60	1476.37
592.95	1463.92
593.30	1451.80
593.65	1439.42
594.00	1427.32
594.35	1415.90
594.70	1403.73
595.05	1392.64
595.40	1381.24
595.75	1369.28
596.10	1358.17
596.45	1347.26
596.80	1336.84
597.15	1326.23
597.50	1315.55
597.85	1305.14
598.19	1294.89
598.54	1284.02
598.89	1273.89
599.24	1264.03
599.59	1253.99
599.94	1244.98
600.29	1235.84
600.64	1226.46
600.99	1216.48
601.34	1206.97
601.69	1196.91
602.04	1187.90
602.39	1178.76
602.74	1169.88
603.08	1161.23
603.43	1152.10
603.78	1142.84
604.13	1133.70
604.48	1124.48
604.83	1115.53
605.18	1106.52
605.53	1097.42
605.87	1088.47
606.22	1079.78
606.57	1070.87
606.92	1062.02
607.27	1052.96
607.62	1044.00
607.96	1035.25
608.31	1027.56
608.66	1019.42
609.01	1011.70
609.36	1003.94
609.70	995.91
610.05	987.72
610.40	979.88
610.75	972.13
611.10	964.69
611.44	956.87
611.79	949.34
612.14	941.42
612.49	933.69
612.83	926.45
613.18	919.25
613.53	911.83
613.88	904.52
614.22	897.85
614.57	891.00
614.92	884.15
615.27	877.29
615.61	870.27
615.96	863.45
616.31	856.55
616.65	849.57
617.00	842.84
617.35	836.27
617.70	829.73
618.04	823.26
618.39	816.78
618.74	810.65
619.08	804.35
619.43	798.29
619.78	792.23
620.12	786.00
620.47	779.94
620.82	774.02
621.16	768.40
621.51	762.39
621.85	756.38
622.20	750.44
622.55	744.69
622.89	738.88
623.24	733.16
623.59	727.50
623.93	721.88
624.28	716.40
624.62	710.88
624.97	705.36
625.32	699.95
625.66	694.37
626.01	688.81
626.35	683.39
626.70	678.01
627.04	672.85
627.39	667.71
627.73	662.70
628.08	657.89
628.43	652.95
628.77	648.10
629.12	643.40
629.46	638.86
629.81	634.10
630.15	629.25
630.50	624.55
630.84	620.07
631.19	615.78
631.53	611.51
631.88	607.14
632.22	602.88
632.57	598.86
632.91	594.80
633.26	590.82
633.60	586.92
633.95	583.15
634.29	579.20
634.64	575.23
634.98	571.14
635.32	567.21
635.67	563.41
636.01	559.58
636.36	555.77
636.70	552.11
637.05	548.46
637.39	545.01
637.73	541.40
638.08	537.86
638.42	534.28
638.77	530.60
639.11	526.90
639.45	523.24
639.80	519.58
640.14	516.11
640.49	512.60
640.83	508.95
641.17	505.37
641.52	501.93
641.86	498.50
642.20	495.26
642.55	491.86
642.89	488.55
643.23	485.43
643.58	482.57
643.92	479.57
644.26	476.60
644.61	473.60
644.95	470.64
645.29	467.60
645.64	464.55
645.98	461.63
646.32	458.90
646.66	456.16
647.01	453.40
647.35	450.67
647.69	447.83
648.04	445.18
648.38	442.53
648.72	439.84
649.06	437.25
649.41	434.67
649.75	432.08
650.09	429.53
650.43	426.98
650.78	424.40
651.12	421.79
651.46	419.33
651.80	416.95
652.14	414.65
652.49	412.36
652.83	410.13
653.17	407.87
653.51	405.68
653.85	403.57
654.20	401.39
654.54	399.14
654.88	397.09
655.22	395.07
655.56	393.03
655.90	391.09
656.25	389.14
656.59	387.20
656.93	385.37
657.27	383.57
657.61	381.67
657.95	379.83
658.29	378.01
658.64	376.21
658.98	374.39
659.32	372.60
659.66	370.92
660.00	369.24
660.34	367.60
660.68	365.91
661.02	364.16
661.36	362.53
661.70	360.96
662.05	359.35
662.39	357.75
662.73	356.22
663.07	354.72
663.41	353.26
663.75	351.82
664.09	350.38
664.43	348.85
664.77	347.42
665.11	345.95
665.45	344.56
665.79	343.16
666.13	341.75
666.47	340.33
666.81	338.89
667.15	337.41
667.49	336.04
667.83	334.71
668.17	333.42
668.51	332.15
668.85	330.90
669.19	329.74
669.53	328.50
669.87	327.24
670.21	326.00
670.55	324.78
670.89	323.64
671.23	322.46
671.57	321.31
671.91	320.20
672.25	319.16
672.58	318.10
672.92	317.01
673.26	315.99
673.60	314.97
673.94	313.94
674.28	312.98
674.62	312.00
674.96	310.98
675.30	310.04
675.64	309.07
675.97	308.11
676.31	307.12
676.65	306.16
676.99	305.25
677.33	304.30
677.67	303.38
678.01	302.40
678.34	301.49
678.68	300.63
679.02	299.74
679.36	298.86
679.70	297.99
680.04	297.15
680.37	296.30
680.71	295.48
681.05	294.72
681.39	293.91
681.73	293.06
682.06	292.27
682.40	291.47
682.74	290.70
683.08	289.96
683.42	289.20
683.75	288.51
684.09	287.75
684.43	287.03
684.77	286.30
685.10	285.61
685.44	284.90
685.78	284.19
686.12	283.52
686.45	282.83
686.79	282.14
687.13	281.48
687.46	280.79
687.80	280.12
688.14	279.41
688.48	278.77
688.81	278.11
689.15	277.51
689.49	276.87
689.82	276.25
690.16	275.57
690.50	274.95
690.83	274.32
691.17	273.72
691.51	273.13
691.84	272.56
692.18	271.96
692.52	271.35
692.85	270.76
693.19	270.22
693.52	269.66
693.86	269.10
694.20	268.56
694.53	268.03
694.87	267.49
695.21	266.98
695.54	266.46
695.88	265.93
696.21	265.37
696.55	264.86
696.88	264.35
697.22	263.85
697.56	263.36
697.89	262.81
698.23	262.30
698.56	261.78
698.90	261.30
699.23	260.81
699.57	260.36
699.90	259.89
700.24	259.40
700.58	258.94
700.91	258.51
701.25	258.16
701.58	257.77
701.92	257.37
702.25	256.95
702.59	256.52
702.92	256.11
703.26	255.71
703.59	255.30
703.93	254.99
704.26	254.62
704.60	254.24
704.93	253.87
705.26	253.50
705.60	253.17
705.93	252.79
706.27	252.47
706.60	252.13
706.94	251.81
707.27	251.43
707.61	251.07
707.94	250.71
708.27	250.27
708.61	249.88
708.94	249.51
709.28	249.17
709.61	248.84
709.94	248.54
710.28	248.23
710.61	247.94
710.95	247.55
711.28	247.32
711.61	247.02
711.95	246.76
712.28	246.47
712.61	246.17
712.95	245.94
713.28	245.72
713.61	245.43
713.95	245.13
714.28	244.90
714.61	244.63
714.95	244.38
715.28	244.12
715.61	243.88
715.95	243.65
716.28	243.40
716.61	243.18
716.95	242.94
717.28	242.71
717.61	242.47
717.94	242.24
718.28	241.94
718.61	241.72
718.94	241.47
719.27	241.25
719.61	241.05
719.94	240.82
720.27	240.55
720.60	240.34
720.94	240.14
721.27	239.94
721.60	239.77
721.93	239.57
722.27	239.42
722.60	239.24
722.93	239.04
723.26	238.86
723.59	238.66
723.93	238.49
724.26	238.32
724.59	238.14
724.92	237.98
725.25	237.85
725.59	237.68
725.92	237.53
726.25	237.38
726.58	237.22
726.91	237.05
727.24	236.91
727.57	236.75
727.91	236.59
728.24	236.45
728.57	236.29
728.90	236.15
729.23	235.97
729.56	235.86
729.89	235.72
730.22	235.57
730.55	235.43
730.89	235.28
731.22	235.13
731.55	235.00
731.88	234.86
732.21	234.71
732.54	234.58
732.87	234.45
733.20	234.33
733.53	234.21
733.86	234.10
734.19	233.97
734.52	233.86
734.85	233.82
735.18	233.68
735.51	233.60
735.84	233.48
736.17	233.40
736.50	233.24
736.83	233.25
737.16	233.15
737.49	233.06
737.82	232.95
738.15	232.87
738.48	232.77
738.81	232.66
739.14	232.55
739.47	232.44
739.80	232.33
740.13	232.24
740.46	232.13
740.79	232.02
741.12	231.92
741.45	231.82
741.78	231.66
742.11	231.60
742.44	231.48
742.77	231.40
743.10	231.30
743.43	231.20
743.75	231.00
744.08	231.07
744.41	230.97
744.74	230.88
745.07	230.77
745.40	230.71
745.73	230.67
746.06	230.60
746.39	230.54
746.71	230.45
747.04	230.36
747.37	230.28
747.70	230.22
748.03	230.15
748.36	230.09
748.68	230.01
749.01	229.91
749.34	229.84
749.67	229.77
750.00	229.71
750.33	229.72
750.65	229.66
750.98	229.44
751.31	229.38
751.64	229.32
751.97	229.31
752.29	229.24
752.62	229.12
752.95	229.04
753.28	228.96
753.60	228.89
753.93	228.85
754.26	228.79
754.59	228.70
754.91	228.62
755.24	228.54
755.57	228.52
755.90	228.46
756.22	228.39
756.55	228.31
756.88	228.22
757.20	228.09
757.53	228.01
757.86	227.95
758.19	227.90
758.51	227.84
758.84	227.73
759.17	227.66
759.49	227.62
759.82	227.62
760.15	227.58
760.47	227.53
760.80	227.45
761.13	227.41
761.45	227.36
761.78	227.32
762.11	227.28
762.43	227.18
762.76	227.13
763.08	227.09
763.41	227.06
763.74	227.01
764.06	226.97
764.39	226.93
764.71	226.89
765.04	226.83
765.37	226.78
765.69	226.74
766.02	226.70
766.34	226.65
766.67	226.57
767.00	226.54
767.32	226.56
767.65	226.58
767.97	226.53
768.30	226.50
768.62	226.46
768.95	226.41
769.27	226.37
769.60	226.35
769.92	226.29
770.25	226.24
770.57	226.19
770.90	226.15
771.22	226.11
771.55	226.08
771.87	226.05
772.20	226.02
772.52	226.07
772.85	226.16
773.17	226.13
773.50	226.09
773.82	226.04
774.15	225.96
774.47	225.86
774.80	225.82
775.12	225.79
775.45	225.76
775.77	225.74
776.09	225.72
776.42	225.69
776.74	225.69
777.07	225.66
777.39	225.64
777.72	225.61
778.04	225.60
778.36	225.56
778.69	225.53
779.01	225.52
779.33	225.40
779.66	225.26
779.98	225.23
780.31	225.21
780.63	225.24
780.95	225.23
781.28	225.21
781.60	225.19
781.92	225.17
782.25	225.15
782.57	225.12
782.89	225.10
783.22	225.07
783.54	225.03
783.86	225.02
784.19	225.00
784.51	225.01
784.83	224.97
785.16	224.95
785.48	224.94
785.80	224.92
786.12	224.91
786.45	224.89
786.77	224.88
787.09	224.86
787.42	224.80
787.74	224.78
788.06	224.77
788.38	224.75
788.71	224.73
789.03	224.72
789.35	224.71
789.67	224.69
789.99	224.68
790.32	224.65
790.64	224.64
790.96	224.72
791.28	224.67
791.61	224.66
791.93	224.65
792.25	224.62
792.57	224.68
792.89	224.65
793.21	224.65
793.54	224.63
793.86	224.60
794.18	224.59
794.50	224.56
794.82	224.54
795.14	224.54
795.47	224.55
795.79	224.54
796.11	224.50
796.43	224.49
796.75	224.47
797.07	224.47
797.39	224.45
797.71	224.35
798.04	224.34
798.36	224.34
798.68	224.32
799.00	224.32
799.32	224.26
799.64	224.26
799.96	224.25
800.28	224.26
800.60	224.24
800.92	224.24
801.24	224.22
801.56	224.22
801.89	224.19
802.21	224.19
802.53	224.16
802.85	224.17
803.17	224.21
803.49	224.18
803.81	224.16
804.13	224.14
804.45	224.12
804.77	224.11
805.09	224.10
805.41	224.09
805.73	224.06
806.05	224.02
806.37	224.00
806.69	223.97
807.01	223.95
807.33	223.95
807.65	223.91
807.97	223.95
808.28	223.92
808.60	223.91
808.92	223.89
809.24	223.94
809.56	223.91
809.88	223.87
810.20	223.87
810.52	223.88
810.84	223.86
811.16	223.84
811.48	223.83
811.80	223.86
812.12	223.84
812.43	223.85
812.75	223.86
813.07	223.84
813.39	223.84
813.71	223.82
814.03	223.81
814.35	223.81
814.67	223.76
814.98	223.75
815.30	223.74
815.62	223.71
815.94	223.64
816.26	223.65
816.58	223.62
816.89	223.63
817.21	223.59
817.53	223.60
817.85	223.60
