SpectraSuite Data File
++++++++++++++++++++++++++++++++++++
Date: Tue Oct 06 15:18:06 EDT 2015
User: lab3
Dark Spectrum Present: No
Reference Spectrum Present: No
Number of Sampled Component Spectra: 1
Spectrometers: USB2E7196
Integration Time (usec): 66000 (USB2E7196)
Spectra Averaged: 400 (USB2E7196)
Boxcar Smoothing: 10 (USB2E7196)
Correct for Electrical Dark: No (USB2E7196)
Strobe/Lamp Enabled: No (USB2E7196)
Correct for Detector Non-linearity: No (USB2E7196)
Correct for Stray Light: No (USB2E7196)
Number of Pixels in Processed Spectrum: 2048
>>>>>Begin Processed Spectral Data<<<<<
339.09	0.00
339.48	214.88
339.86	216.50
340.24	217.62
340.63	219.43
341.01	223.30
341.39	221.88
341.78	223.37
342.16	224.75
342.54	224.95
342.93	213.52
343.31	224.28
343.69	224.83
344.07	225.29
344.46	225.74
344.84	226.14
345.22	226.34
345.60	226.63
345.99	226.84
346.37	227.00
346.75	227.11
347.13	227.20
347.52	227.27
347.90	227.39
348.28	227.43
348.66	227.52
349.05	227.51
349.43	227.58
349.81	227.65
350.19	227.72
350.57	227.80
350.96	227.90
351.34	228.04
351.72	228.14
352.10	228.27
352.48	228.33
352.87	228.38
353.25	228.43
353.63	228.48
354.01	228.55
354.39	228.61
354.77	228.69
355.15	228.83
355.54	228.87
355.92	228.88
356.30	228.95
356.68	229.12
357.06	229.18
357.44	229.22
357.82	229.26
358.20	229.46
358.58	229.50
358.97	229.56
359.35	229.64
359.73	229.73
360.11	229.78
360.49	229.84
360.87	229.88
361.25	229.96
361.63	230.05
362.01	230.08
362.39	230.10
362.77	230.15
363.15	230.15
363.53	230.18
363.91	230.21
364.29	230.23
364.67	230.08
365.05	230.13
365.43	230.17
365.81	230.22
366.19	230.19
366.57	230.28
366.95	230.27
367.33	230.22
367.71	230.20
368.09	230.23
368.47	230.22
368.85	230.20
369.23	230.22
369.61	230.15
369.99	230.19
370.37	230.21
370.75	230.32
371.13	230.29
371.51	230.24
371.89	230.22
372.27	230.20
372.65	230.19
373.03	230.14
373.41	230.08
373.78	230.03
374.16	229.90
374.54	229.79
374.92	229.73
375.30	229.70
375.68	229.62
376.06	229.58
376.44	229.53
376.82	229.50
377.19	229.45
377.57	229.41
377.95	229.31
378.33	229.25
378.71	229.05
379.09	229.01
379.47	229.00
379.84	228.94
380.22	228.86
380.60	228.79
380.98	228.74
381.36	228.69
381.73	228.61
382.11	228.61
382.49	228.59
382.87	228.54
383.25	228.50
383.62	228.69
384.00	228.63
384.38	228.59
384.76	228.59
385.13	228.60
385.51	228.57
385.89	228.51
386.27	228.49
386.64	228.49
387.02	228.44
387.40	228.38
387.78	228.36
388.15	228.38
388.53	228.34
388.91	228.34
389.29	228.31
389.66	228.33
390.04	228.29
390.42	228.29
390.79	228.29
391.17	228.27
391.55	228.05
391.92	228.03
392.30	228.05
392.68	228.00
393.05	227.99
393.43	228.00
393.81	228.03
394.18	228.01
394.56	228.02
394.94	228.07
395.31	228.08
395.69	228.16
396.06	228.20
396.44	228.26
396.82	228.26
397.19	228.41
397.57	228.45
397.95	228.50
398.32	228.50
398.70	228.55
399.07	228.65
399.45	228.71
399.82	228.80
400.20	228.86
400.58	228.95
400.95	228.98
401.33	229.11
401.70	229.34
402.08	229.49
402.45	229.61
402.83	229.80
403.20	229.99
403.58	230.11
403.95	230.31
404.33	230.52
404.71	230.73
405.08	231.04
405.46	231.28
405.83	231.58
406.21	231.87
406.58	232.20
406.96	232.53
407.33	232.90
407.70	233.31
408.08	233.88
408.45	234.39
408.83	234.94
409.20	235.44
409.58	235.90
409.95	236.52
410.33	237.19
410.70	237.84
411.08	238.58
411.45	239.40
411.82	240.20
412.20	241.15
412.57	242.28
412.95	243.18
413.32	244.34
413.69	245.51
414.07	246.78
414.44	248.15
414.82	249.56
415.19	251.21
415.56	252.89
415.94	254.65
416.31	256.61
416.68	258.56
417.06	260.86
417.43	263.00
417.81	265.45
418.18	267.96
418.55	270.68
418.93	273.53
419.30	276.51
419.67	279.67
420.04	282.93
420.42	286.32
420.79	290.23
421.16	294.17
421.54	298.18
421.91	302.38
422.28	306.76
422.66	311.44
423.03	315.91
423.40	320.60
423.77	325.60
424.15	330.74
424.52	336.06
424.89	341.79
425.26	347.49
425.64	352.83
426.01	358.80
426.38	364.91
426.75	371.20
427.13	377.61
427.50	384.33
427.87	391.25
428.24	398.28
428.61	404.99
428.99	412.24
429.36	420.21
429.73	427.81
430.10	435.37
430.47	443.14
430.85	451.20
431.22	459.75
431.59	468.50
431.96	477.05
432.33	486.57
432.70	495.63
433.08	506.36
433.45	516.45
433.82	526.40
434.19	537.54
434.56	548.47
434.93	559.13
435.30	569.69
435.68	581.74
436.05	593.47
436.42	605.23
436.79	615.99
437.16	627.63
437.53	640.13
437.90	652.63
438.27	664.86
438.64	678.06
439.01	690.06
439.38	701.08
439.75	711.76
440.13	723.89
440.50	735.45
440.87	744.70
441.24	754.82
441.61	766.00
441.98	774.23
442.35	784.03
442.72	793.98
443.09	803.43
443.46	809.59
443.83	814.29
444.20	818.17
444.57	823.80
444.94	827.15
445.31	830.57
445.68	833.53
446.05	835.77
446.42	835.48
446.79	834.96
447.16	834.55
447.53	834.17
447.90	830.63
448.27	827.19
448.64	821.74
449.01	818.05
449.37	810.33
449.74	803.41
450.11	794.40
450.48	784.50
450.85	774.56
451.22	766.02
451.59	757.62
451.96	750.03
452.33	738.98
452.70	729.20
453.07	717.29
453.43	705.48
453.80	693.90
454.17	682.80
454.54	672.55
454.91	660.97
455.28	650.07
455.65	639.78
456.02	628.91
456.38	620.20
456.75	608.98
457.12	599.92
457.49	590.72
457.86	582.07
458.23	574.43
458.59	566.04
458.96	557.38
459.33	549.81
459.70	542.09
460.07	536.22
460.43	529.28
460.80	522.82
461.17	517.16
461.54	511.05
461.91	505.35
462.27	499.54
462.64	494.82
463.01	489.36
463.38	483.89
463.74	478.95
464.11	474.56
464.48	470.58
464.85	466.29
465.21	463.03
465.58	459.38
465.95	455.28
466.32	452.02
466.68	448.83
467.05	445.57
467.42	442.41
467.78	439.03
468.15	435.90
468.52	433.61
468.88	430.56
469.25	427.81
469.62	425.62
469.98	423.23
470.35	421.06
470.72	419.13
471.08	417.17
471.45	415.52
471.82	413.68
472.18	411.80
472.55	410.56
472.92	409.02
473.28	407.81
473.65	406.50
474.02	405.25
474.38	404.20
474.75	403.57
475.11	402.73
475.48	402.31
475.85	401.87
476.21	401.60
476.58	401.41
476.94	401.60
477.31	401.64
477.67	401.72
478.04	402.05
478.41	402.48
478.77	403.10
479.14	403.49
479.50	404.28
479.87	405.29
480.23	406.27
480.60	407.22
480.96	408.17
481.33	409.62
481.69	411.06
482.06	412.46
482.42	413.73
482.79	415.35
483.15	417.24
483.52	419.37
483.88	421.41
484.25	423.54
484.61	425.80
484.98	428.23
485.34	430.98
485.71	433.85
486.07	436.93
486.44	439.95
486.80	443.36
487.17	446.87
487.53	450.67
487.90	454.63
488.26	458.96
488.62	463.48
488.99	467.99
489.35	472.77
489.72	477.92
490.08	483.35
490.44	488.85
490.81	494.58
491.17	500.51
491.54	506.80
491.90	513.28
492.26	520.18
492.63	527.38
492.99	534.92
493.36	542.64
493.72	550.72
494.08	559.00
494.45	567.65
494.81	576.68
495.17	585.99
495.54	595.81
495.90	606.07
496.26	616.48
496.63	627.19
496.99	638.28
497.35	649.90
497.72	661.79
498.08	674.02
498.44	686.57
498.80	699.82
499.17	713.42
499.53	727.44
499.89	741.80
500.26	756.38
500.62	771.29
500.98	787.02
501.34	802.84
501.71	819.41
502.07	836.28
502.43	853.56
502.79	871.03
503.16	889.04
503.52	907.20
503.88	925.85
504.24	944.90
504.60	964.19
504.97	984.03
505.33	1004.29
505.69	1025.67
506.05	1047.20
506.41	1068.54
506.78	1090.02
507.14	1112.11
507.50	1134.74
507.86	1157.69
508.22	1180.83
508.59	1203.69
508.95	1227.63
509.31	1252.02
509.67	1277.03
510.03	1301.98
510.39	1326.79
510.75	1351.75
511.12	1377.02
511.48	1402.31
511.84	1427.62
512.20	1453.05
512.56	1479.48
512.92	1505.84
513.28	1531.54
513.64	1557.60
514.00	1583.97
514.37	1610.62
514.73	1637.24
515.09	1663.07
515.45	1689.19
515.81	1715.46
516.17	1741.48
516.53	1766.81
516.89	1791.96
517.25	1817.38
517.61	1842.60
517.97	1868.40
518.33	1893.35
518.69	1918.26
519.05	1943.55
519.41	1968.82
519.77	1994.26
520.13	2018.21
520.49	2042.23
520.85	2066.56
521.21	2090.26
521.57	2114.28
521.93	2137.22
522.29	2160.83
522.65	2184.12
523.01	2207.21
523.37	2229.68
523.73	2252.78
524.09	2275.43
524.45	2297.80
524.81	2319.38
525.17	2340.73
525.53	2361.39
525.89	2382.57
526.25	2403.22
526.61	2422.46
526.97	2441.66
527.33	2460.65
527.68	2479.25
528.04	2497.29
528.40	2514.11
528.76	2531.18
529.12	2547.67
529.48	2564.72
529.84	2579.24
530.20	2594.32
530.56	2608.29
530.91	2622.39
531.27	2635.91
531.63	2648.67
531.99	2660.91
532.35	2672.91
532.71	2684.39
533.07	2696.15
533.42	2706.08
533.78	2716.25
534.14	2727.23
534.50	2737.14
534.86	2747.60
535.21	2756.04
535.57	2764.29
535.93	2772.50
536.29	2779.17
536.65	2785.64
537.00	2790.43
537.36	2796.27
537.72	2801.10
538.08	2805.59
538.44	2808.80
538.79	2812.09
539.15	2813.94
539.51	2815.46
539.87	2815.86
540.22	2814.56
540.58	2813.46
540.94	2813.15
541.29	2811.84
541.65	2808.97
542.01	2805.82
542.37	2801.16
542.72	2798.04
543.08	2793.48
543.44	2788.99
543.79	2783.72
544.15	2777.81
544.51	2772.47
544.87	2765.94
545.22	2758.68
545.58	2751.16
545.94	2744.01
546.29	2735.38
546.65	2726.96
547.01	2718.45
547.36	2710.29
547.72	2702.43
548.07	2692.96
548.43	2682.50
548.79	2671.61
549.14	2661.30
549.50	2651.19
549.86	2640.06
550.21	2627.45
550.57	2615.74
550.92	2602.29
551.28	2589.51
551.64	2577.05
551.99	2564.20
552.35	2551.15
552.70	2537.87
553.06	2525.20
553.41	2512.16
553.77	2498.61
554.13	2485.23
554.48	2470.86
554.84	2455.74
555.19	2441.46
555.55	2426.93
555.90	2412.70
556.26	2399.03
556.61	2384.26
556.97	2368.37
557.32	2352.95
557.68	2337.79
558.03	2322.44
558.39	2307.93
558.74	2294.04
559.10	2278.37
559.45	2263.07
559.81	2248.58
560.16	2233.73
560.52	2218.68
560.87	2203.71
561.23	2188.46
561.58	2173.68
561.94	2158.52
562.29	2143.00
562.64	2127.48
563.00	2112.26
563.35	2097.25
563.71	2081.72
564.06	2066.38
564.42	2051.57
564.77	2036.89
565.12	2022.07
565.48	2007.12
565.83	1992.55
566.19	1977.94
566.54	1963.61
566.89	1948.49
567.25	1933.18
567.60	1918.64
567.96	1903.49
568.31	1887.16
568.66	1871.77
569.02	1856.91
569.37	1842.70
569.72	1828.94
570.08	1814.77
570.43	1800.08
570.78	1785.20
571.14	1770.22
571.49	1755.31
571.84	1740.91
572.20	1725.36
572.55	1710.54
572.90	1695.68
573.26	1680.66
573.61	1665.00
573.96	1649.95
574.31	1634.99
574.67	1619.89
575.02	1604.62
575.37	1589.31
575.72	1574.71
576.08	1560.07
576.43	1544.86
576.78	1529.69
577.13	1514.79
577.49	1500.11
577.84	1485.86
578.19	1471.11
578.54	1456.38
578.90	1441.71
579.25	1426.89
579.60	1413.16
579.95	1399.22
580.30	1385.27
580.66	1371.11
581.01	1357.21
581.36	1343.28
581.71	1330.02
582.06	1316.68
582.42	1303.21
582.77	1290.25
583.12	1277.51
583.47	1264.61
583.82	1251.98
584.17	1238.97
584.53	1226.08
584.88	1213.43
585.23	1200.63
585.58	1188.26
585.93	1175.90
586.28	1164.42
586.63	1152.72
586.98	1140.75
587.34	1129.05
587.69	1117.21
588.04	1105.83
588.39	1094.58
588.74	1083.08
589.09	1071.70
589.44	1060.07
589.79	1049.01
590.14	1037.91
590.49	1026.99
590.84	1016.35
591.19	1005.78
591.54	995.35
591.89	984.54
592.25	974.16
592.60	963.66
592.95	953.34
593.30	943.30
593.65	932.91
594.00	922.90
594.35	913.67
594.70	903.90
595.05	894.68
595.40	885.25
595.75	875.68
596.10	866.62
596.45	857.58
596.80	848.90
597.15	840.26
597.50	831.68
597.85	823.24
598.19	814.74
598.54	806.33
598.89	798.33
599.24	790.78
599.59	782.99
599.94	775.77
600.29	768.54
600.64	761.24
600.99	753.84
601.34	746.62
601.69	738.94
602.04	732.03
602.39	725.07
602.74	718.31
603.08	711.69
603.43	705.04
603.78	698.36
604.13	691.79
604.48	685.21
604.83	678.83
605.18	672.58
605.53	666.48
605.87	660.36
606.22	654.35
606.57	648.21
606.92	642.01
607.27	635.89
607.62	629.99
607.96	624.26
608.31	618.94
608.66	613.51
609.01	608.36
609.36	603.21
609.70	597.98
610.05	592.74
610.40	587.68
610.75	582.68
611.10	577.91
611.44	573.10
611.79	568.42
612.14	563.66
612.49	558.95
612.83	554.50
613.18	550.08
613.53	545.67
613.88	541.38
614.22	537.42
614.57	533.32
614.92	529.31
615.27	525.44
615.61	521.52
615.96	517.62
616.31	513.73
616.65	509.96
617.00	506.31
617.35	502.73
617.70	499.13
618.04	495.63
618.39	492.22
618.74	489.01
619.08	485.76
619.43	482.62
619.78	479.44
620.12	476.26
620.47	473.30
620.82	470.35
621.16	467.46
621.51	464.63
621.85	461.82
622.20	459.07
622.55	456.32
622.89	453.58
623.24	451.05
623.59	448.51
623.93	446.04
624.28	443.70
624.62	441.56
624.97	439.44
625.32	437.18
625.66	434.92
626.01	432.63
626.35	430.48
626.70	428.28
627.04	426.30
627.39	424.23
627.73	422.22
628.08	420.29
628.43	418.39
628.77	416.38
629.12	414.49
629.46	412.70
629.81	411.01
630.15	409.25
630.50	407.50
630.84	405.78
631.19	404.13
631.53	402.53
631.88	400.75
632.22	399.07
632.57	397.67
632.91	396.21
633.26	394.85
633.60	393.51
633.95	392.23
634.29	390.80
634.64	389.47
634.98	387.97
635.32	386.65
635.67	385.45
636.01	384.27
636.36	383.10
636.70	382.05
637.05	380.82
637.39	379.73
637.73	378.64
638.08	377.63
638.42	376.65
638.77	375.53
639.11	374.39
639.45	373.29
639.80	372.10
640.14	371.03
640.49	369.92
640.83	368.80
641.17	367.73
641.52	366.67
641.86	365.64
642.20	364.79
642.55	363.78
642.89	362.78
643.23	361.83
643.58	361.00
643.92	359.97
644.26	359.06
644.61	358.16
644.95	357.26
645.29	356.28
645.64	355.27
645.98	354.37
646.32	353.57
646.66	352.72
647.01	351.92
647.35	351.15
647.69	350.36
648.04	349.65
648.38	348.88
648.72	348.17
649.06	347.42
649.41	346.65
649.75	345.89
650.09	345.16
650.43	344.43
650.78	343.67
651.12	342.95
651.46	342.24
651.80	341.54
652.14	340.86
652.49	340.24
652.83	339.54
653.17	338.84
653.51	338.15
653.85	337.57
654.20	336.94
654.54	336.23
654.88	335.56
655.22	334.93
655.56	334.28
655.90	333.61
656.25	332.99
656.59	332.36
656.93	331.77
657.27	331.23
657.61	330.61
657.95	330.03
658.29	329.47
658.64	328.91
658.98	328.30
659.32	327.72
659.66	327.17
660.00	326.67
660.34	326.16
660.68	325.61
661.02	324.98
661.36	324.37
661.70	323.81
662.05	323.28
662.39	322.73
662.73	322.26
663.07	321.85
663.41	321.38
663.75	320.85
664.09	320.36
664.43	319.73
664.77	319.22
665.11	318.64
665.45	318.09
665.79	317.57
666.13	317.03
666.47	316.47
666.81	315.88
667.15	315.29
667.49	314.80
667.83	314.36
668.17	313.88
668.51	313.47
668.85	313.07
669.19	312.68
669.53	312.16
669.87	311.62
670.21	311.06
670.55	310.55
670.89	310.16
671.23	309.71
671.57	309.33
671.91	308.95
672.25	308.60
672.58	308.25
672.92	307.82
673.26	307.45
673.60	307.08
673.94	306.72
674.28	306.39
674.62	306.00
674.96	305.54
675.30	305.16
675.64	304.68
675.97	304.18
676.31	303.70
676.65	303.26
676.99	302.90
677.33	302.47
677.67	302.07
678.01	301.57
678.34	301.15
678.68	300.73
679.02	300.26
679.36	299.81
679.70	299.33
680.04	298.92
680.37	298.50
680.71	298.11
681.05	297.71
681.39	297.26
681.73	296.77
682.06	296.35
682.40	295.93
682.74	295.59
683.08	295.31
683.42	294.91
683.75	294.54
684.09	294.08
684.43	293.67
684.77	293.24
685.10	292.85
685.44	292.43
685.78	292.02
686.12	291.64
686.45	291.21
686.79	290.79
687.13	290.38
687.46	289.94
687.80	289.49
688.14	289.02
688.48	288.59
688.81	288.21
689.15	287.86
689.49	287.43
689.82	286.99
690.16	286.46
690.50	286.00
690.83	285.57
691.17	285.11
691.51	284.68
691.84	284.33
692.18	283.91
692.52	283.48
692.85	283.03
693.19	282.67
693.52	282.26
693.86	281.85
694.20	281.42
694.53	281.02
694.87	280.58
695.21	280.17
695.54	279.75
695.88	279.30
696.21	278.82
696.55	278.38
696.88	277.95
697.22	277.53
697.56	277.15
697.89	276.70
698.23	276.31
698.56	275.89
698.90	275.46
699.23	275.01
699.57	274.62
699.90	274.22
700.24	273.76
700.58	273.38
700.91	273.03
701.25	272.82
701.58	272.50
701.92	272.18
702.25	271.80
702.59	271.41
702.92	271.05
703.26	270.66
703.59	270.29
703.93	270.07
704.26	269.70
704.60	269.33
704.93	268.96
705.26	268.56
705.60	268.25
705.93	267.84
706.27	267.57
706.60	267.25
706.94	266.96
707.27	266.56
707.61	266.21
707.94	265.81
708.27	265.28
708.61	264.86
708.94	264.48
709.28	264.13
709.61	263.77
709.94	263.46
710.28	263.13
710.61	262.80
710.95	262.32
711.28	262.11
711.61	261.77
711.95	261.51
712.28	261.18
712.61	260.82
712.95	260.60
713.28	260.32
713.61	259.97
713.95	259.61
714.28	259.32
714.61	259.00
714.95	258.71
715.28	258.40
715.61	258.10
715.95	257.82
716.28	257.53
716.61	257.29
716.95	256.97
717.28	256.70
717.61	256.40
717.94	256.11
718.28	255.72
718.61	255.45
718.94	255.13
719.27	254.88
719.61	254.65
719.94	254.34
720.27	253.99
720.60	253.73
720.94	253.46
721.27	253.21
721.60	252.98
721.93	252.72
722.27	252.50
722.60	252.29
722.93	252.02
723.26	251.79
723.59	251.51
723.93	251.30
724.26	251.08
724.59	250.86
724.92	250.64
725.25	250.45
725.59	250.24
725.92	250.05
726.25	249.83
726.58	249.61
726.91	249.37
727.24	249.16
727.57	248.94
727.91	248.70
728.24	248.51
728.57	248.28
728.90	248.11
729.23	247.86
729.56	247.73
729.89	247.56
730.22	247.33
730.55	247.14
730.89	246.93
731.22	246.74
731.55	246.55
731.88	246.38
732.21	246.17
732.54	245.95
732.87	245.78
733.20	245.62
733.53	245.44
733.86	245.28
734.19	245.09
734.52	244.97
734.85	244.94
735.18	244.76
735.51	244.64
735.84	244.47
736.17	244.35
736.50	244.09
736.83	244.13
737.16	243.97
737.49	243.82
737.82	243.65
738.15	243.51
738.48	243.35
738.81	243.19
739.14	243.02
739.47	242.89
739.80	242.72
740.13	242.58
740.46	242.40
740.79	242.23
741.12	242.08
741.45	241.88
741.78	241.62
742.11	241.52
742.44	241.33
742.77	241.22
743.10	241.05
743.43	240.90
743.75	240.57
744.08	240.72
744.41	240.58
744.74	240.44
745.07	240.27
745.40	240.16
745.73	240.11
746.06	240.00
746.39	239.89
746.71	239.74
747.04	239.59
747.37	239.47
747.70	239.38
748.03	239.27
748.36	239.18
748.68	239.07
749.01	238.89
749.34	238.78
749.67	238.67
750.00	238.58
750.33	238.61
750.65	238.51
750.98	238.12
751.31	238.01
751.64	237.93
751.97	237.93
752.29	237.81
752.62	237.60
752.95	237.48
753.28	237.34
753.60	237.26
753.93	237.19
754.26	237.09
754.59	236.94
754.91	236.82
755.24	236.71
755.57	236.63
755.90	236.53
756.22	236.41
756.55	236.28
756.88	236.14
757.20	235.92
757.53	235.77
757.86	235.66
758.19	235.58
758.51	235.48
758.84	235.27
759.17	235.17
759.49	235.07
759.82	235.05
760.15	234.99
760.47	234.88
760.80	234.74
761.13	234.67
761.45	234.59
761.78	234.50
762.11	234.43
762.43	234.32
762.76	234.23
763.08	234.17
763.41	234.09
763.74	234.02
764.06	233.94
764.39	233.87
764.71	233.79
765.04	233.70
765.37	233.61
765.69	233.54
766.02	233.48
766.34	233.42
766.67	233.29
767.00	233.22
767.32	233.26
767.65	233.31
767.97	233.22
768.30	233.16
768.62	233.09
768.95	232.98
769.27	232.91
769.60	232.86
769.92	232.75
770.25	232.68
770.57	232.60
770.90	232.55
771.22	232.47
771.55	232.43
771.87	232.39
772.20	232.33
772.52	232.43
772.85	232.59
773.17	232.53
773.50	232.46
773.82	232.39
774.15	232.26
774.47	232.08
774.80	232.03
775.12	231.97
775.45	231.93
775.77	231.90
776.09	231.87
776.42	231.84
776.74	231.88
777.07	231.82
777.39	231.77
777.72	231.71
778.04	231.70
778.36	231.64
778.69	231.60
779.01	231.58
779.33	231.38
779.66	231.14
779.98	231.08
780.31	231.06
780.63	231.09
780.95	231.08
781.28	231.05
781.60	231.00
781.92	230.96
782.25	230.94
782.57	230.92
782.89	230.88
783.22	230.82
783.54	230.74
783.86	230.74
784.19	230.73
784.51	230.75
784.83	230.69
785.16	230.67
785.48	230.64
785.80	230.60
786.12	230.59
786.45	230.56
786.77	230.56
787.09	230.53
787.42	230.44
787.74	230.42
788.06	230.41
788.38	230.38
788.71	230.34
789.03	230.31
789.35	230.30
789.67	230.25
789.99	230.25
790.32	230.22
790.64	230.18
790.96	230.31
791.28	230.21
791.61	230.19
791.93	230.16
792.25	230.14
792.57	230.23
792.89	230.18
793.21	230.16
793.54	230.12
793.86	230.09
794.18	230.09
794.50	230.02
794.82	229.98
795.14	229.99
795.47	229.99
795.79	229.97
796.11	229.92
796.43	229.90
796.75	229.87
797.07	229.85
797.39	229.83
797.71	229.67
798.04	229.68
798.36	229.66
798.68	229.63
799.00	229.62
799.32	229.51
799.64	229.52
799.96	229.49
800.28	229.51
800.60	229.50
800.92	229.47
801.24	229.45
801.56	229.45
801.89	229.41
802.21	229.41
802.53	229.37
802.85	229.39
803.17	229.45
803.49	229.40
803.81	229.38
804.13	229.37
804.45	229.33
804.77	229.33
805.09	229.31
805.41	229.27
805.73	229.24
806.05	229.20
806.37	229.17
806.69	229.15
807.01	229.12
807.33	229.10
807.65	229.02
807.97	229.10
808.28	229.06
808.60	229.03
808.92	228.98
809.24	229.07
809.56	229.01
809.88	228.94
810.20	228.94
810.52	228.97
810.84	228.91
811.16	228.88
811.48	228.84
811.80	228.87
812.12	228.87
812.43	228.88
812.75	228.88
813.07	228.86
813.39	228.84
813.71	228.81
814.03	228.77
814.35	228.79
814.67	228.69
814.98	228.68
815.30	228.67
815.62	228.63
815.94	228.51
816.26	228.52
816.58	228.47
816.89	228.47
817.21	228.41
817.53	228.44
817.85	228.44
818.17	228.43
818.48	228.38
818.80	228.39
