SpectraSuite Data File
++++++++++++++++++++++++++++++++++++
Date: Tue Oct 06 15:57:05 EDT 2015
User: lab3
Dark Spectrum Present: No
Reference Spectrum Present: No
Number of Sampled Component Spectra: 1
Spectrometers: USB2E7196
Integration Time (usec): 66000 (USB2E7196)
Spectra Averaged: 1000 (USB2E7196)
Boxcar Smoothing: 10 (USB2E7196)
Correct for Electrical Dark: No (USB2E7196)
Strobe/Lamp Enabled: No (USB2E7196)
Correct for Detector Non-linearity: No (USB2E7196)
Correct for Stray Light: No (USB2E7196)
Number of Pixels in Processed Spectrum: 2048
>>>>>Begin Processed Spectral Data<<<<<
339.09	0.00
339.48	216.07
339.86	217.60
340.24	218.80
340.63	220.43
341.01	224.44
341.39	223.09
341.78	224.32
342.16	225.83
342.54	226.07
342.93	214.50
343.31	225.33
343.69	225.88
344.07	226.34
344.46	226.78
344.84	227.18
345.22	227.38
345.60	227.65
345.99	227.86
346.37	228.00
346.75	228.12
347.13	228.20
347.52	228.30
347.90	228.42
348.28	228.47
348.66	228.54
349.05	228.52
349.43	228.59
349.81	228.66
350.19	228.73
350.57	228.80
350.96	228.91
351.34	229.02
351.72	229.11
352.10	229.22
352.48	229.29
352.87	229.33
353.25	229.40
353.63	229.46
354.01	229.52
354.39	229.60
354.77	229.68
355.15	229.80
355.54	229.83
355.92	229.84
356.30	229.92
356.68	230.11
357.06	230.21
357.44	230.25
357.82	230.30
358.20	230.52
358.58	230.56
358.97	230.62
359.35	230.70
359.73	230.81
360.11	230.87
360.49	230.95
360.87	230.99
361.25	231.07
361.63	231.17
362.01	231.23
362.39	231.25
362.77	231.30
363.15	231.32
363.53	231.35
363.91	231.39
364.29	231.42
364.67	231.26
365.05	231.29
365.43	231.32
365.81	231.37
366.19	231.32
366.57	231.41
366.95	231.42
367.33	231.38
367.71	231.36
368.09	231.39
368.47	231.38
368.85	231.38
369.23	231.39
369.61	231.31
369.99	231.35
370.37	231.36
370.75	231.47
371.13	231.44
371.51	231.40
371.89	231.39
372.27	231.38
372.65	231.36
373.03	231.32
373.41	231.28
373.78	231.23
374.16	231.09
374.54	230.99
374.92	230.94
375.30	230.91
375.68	230.84
376.06	230.80
376.44	230.75
376.82	230.70
377.19	230.66
377.57	230.61
377.95	230.50
378.33	230.43
378.71	230.22
379.09	230.18
379.47	230.16
379.84	230.09
380.22	230.02
380.60	229.94
380.98	229.90
381.36	229.85
381.73	229.79
382.11	229.78
382.49	229.75
382.87	229.69
383.25	229.64
383.62	229.81
384.00	229.74
384.38	229.70
384.76	229.71
385.13	229.72
385.51	229.69
385.89	229.63
386.27	229.62
386.64	229.62
387.02	229.56
387.40	229.51
387.78	229.50
388.15	229.50
388.53	229.47
388.91	229.44
389.29	229.39
389.66	229.40
390.04	229.34
390.42	229.35
390.79	229.35
391.17	229.35
391.55	229.14
391.92	229.13
392.30	229.14
392.68	229.10
393.05	229.07
393.43	229.09
393.81	229.11
394.18	229.10
394.56	229.11
394.94	229.17
395.31	229.18
395.69	229.25
396.06	229.30
396.44	229.34
396.82	229.38
397.19	229.51
397.57	229.53
397.95	229.62
398.32	229.62
398.70	229.68
399.07	229.78
399.45	229.85
399.82	229.92
400.20	229.97
400.58	230.06
400.95	230.08
401.33	230.21
401.70	230.44
402.08	230.58
402.45	230.71
402.83	230.88
403.20	231.05
403.58	231.17
403.95	231.37
404.33	231.60
404.71	231.81
405.08	232.12
405.46	232.37
405.83	232.64
406.21	232.94
406.58	233.28
406.96	233.60
407.33	233.97
407.70	234.41
408.08	234.98
408.45	235.47
408.83	236.03
409.20	236.52
409.58	236.98
409.95	237.59
410.33	238.27
410.70	238.92
411.08	239.67
411.45	240.49
411.82	241.30
412.20	242.22
412.57	243.33
412.95	244.22
413.32	245.38
413.69	246.57
414.07	247.83
414.44	249.20
414.82	250.58
415.19	252.23
415.56	253.89
415.94	255.64
416.31	257.60
416.68	259.56
417.06	261.84
417.43	263.96
417.81	266.41
418.18	268.92
418.55	271.64
418.93	274.48
419.30	277.46
419.67	280.62
420.04	283.87
420.42	287.27
420.79	291.16
421.16	295.10
421.54	299.09
421.91	303.27
422.28	307.61
422.66	312.31
423.03	316.76
423.40	321.44
423.77	326.44
424.15	331.57
424.52	336.88
424.89	342.61
425.26	348.31
425.64	353.60
426.01	359.54
426.38	365.62
426.75	371.87
427.13	378.24
427.50	384.94
427.87	391.88
428.24	398.88
428.61	405.63
428.99	412.86
429.36	420.80
429.73	428.38
430.10	435.94
430.47	443.69
430.85	451.70
431.22	460.24
431.59	469.01
431.96	477.55
432.33	487.04
432.70	496.07
433.08	506.78
433.45	516.86
433.82	526.79
434.19	537.96
434.56	548.96
434.93	559.63
435.30	570.20
435.68	582.22
436.05	593.92
436.42	605.64
436.79	616.35
437.16	628.00
437.53	640.47
437.90	652.93
438.27	665.15
438.64	678.35
439.01	690.33
439.38	701.33
439.75	711.96
440.13	724.09
440.50	735.62
440.87	744.83
441.24	754.97
441.61	766.08
441.98	774.25
442.35	783.95
442.72	793.81
443.09	803.19
443.46	809.28
443.83	813.93
444.20	817.77
444.57	823.38
444.94	826.69
445.31	830.09
445.68	832.99
446.05	835.22
446.42	834.86
446.79	834.25
447.16	833.77
447.53	833.36
447.90	829.76
448.27	826.29
448.64	820.87
449.01	817.11
449.37	809.40
449.74	802.40
450.11	793.37
450.48	783.44
450.85	773.51
451.22	764.95
451.59	756.50
451.96	748.86
452.33	737.80
452.70	727.97
453.07	716.07
453.43	704.23
453.80	692.61
454.17	681.55
454.54	671.32
454.91	659.78
455.28	648.88
455.65	638.61
456.02	627.74
456.38	619.02
456.75	607.83
457.12	598.81
457.49	589.70
457.86	581.08
458.23	573.47
458.59	565.12
458.96	556.55
459.33	549.03
459.70	541.37
460.07	535.53
460.43	528.63
460.80	522.17
461.17	516.56
461.54	510.50
461.91	504.81
462.27	499.04
462.64	494.32
463.01	488.91
463.38	483.45
463.74	478.54
464.11	474.18
464.48	470.25
464.85	466.01
465.21	462.76
465.58	459.14
465.95	455.07
466.32	451.79
466.68	448.60
467.05	445.36
467.42	442.20
467.78	438.85
468.15	435.77
468.52	433.51
468.88	430.50
469.25	427.77
469.62	425.59
469.98	423.22
470.35	421.09
470.72	419.18
471.08	417.26
471.45	415.62
471.82	413.78
472.18	411.90
472.55	410.65
472.92	409.12
473.28	407.93
473.65	406.65
474.02	405.43
474.38	404.39
474.75	403.80
475.11	402.98
475.48	402.57
475.85	402.15
476.21	401.90
476.58	401.72
476.94	401.91
477.31	401.98
477.67	402.07
478.04	402.41
478.41	402.85
478.77	403.48
479.14	403.90
479.50	404.68
479.87	405.70
480.23	406.71
480.60	407.66
480.96	408.63
481.33	410.08
481.69	411.51
482.06	412.92
482.42	414.22
482.79	415.84
483.15	417.75
483.52	419.90
483.88	421.94
484.25	424.09
484.61	426.36
484.98	428.79
485.34	431.54
485.71	434.41
486.07	437.49
486.44	440.51
486.80	443.90
487.17	447.42
487.53	451.20
487.90	455.16
488.26	459.47
488.62	464.00
488.99	468.55
489.35	473.30
489.72	478.43
490.08	483.82
490.44	489.33
490.81	495.06
491.17	500.97
491.54	507.28
491.90	513.76
492.26	520.64
492.63	527.86
492.99	535.41
493.36	543.10
493.72	551.18
494.08	559.46
494.45	568.12
494.81	577.16
495.17	586.47
495.54	596.28
495.90	606.54
496.26	616.98
496.63	627.67
496.99	638.81
497.35	650.42
497.72	662.30
498.08	674.52
498.44	687.05
498.80	700.27
499.17	713.82
499.53	727.82
499.89	742.22
500.26	756.81
500.62	771.71
500.98	787.46
501.34	803.25
501.71	819.85
502.07	836.72
502.43	854.03
502.79	871.53
503.16	889.56
503.52	907.71
503.88	926.31
504.24	945.36
504.60	964.66
504.97	984.56
505.33	1004.89
505.69	1026.26
506.05	1047.78
506.41	1069.12
506.78	1090.64
507.14	1112.76
507.50	1135.26
507.86	1158.20
508.22	1181.29
508.59	1204.22
508.95	1228.22
509.31	1252.63
509.67	1277.67
510.03	1302.56
510.39	1327.42
510.75	1352.29
511.12	1377.62
511.48	1402.94
511.84	1428.30
512.20	1453.94
512.56	1480.52
512.92	1506.88
513.28	1532.65
513.64	1558.81
514.00	1585.24
514.37	1611.94
514.73	1638.58
515.09	1664.59
515.45	1690.84
515.81	1717.21
516.17	1743.23
516.53	1768.59
516.89	1793.96
517.25	1819.50
517.61	1844.81
517.97	1870.72
518.33	1895.96
518.69	1920.97
519.05	1946.41
519.41	1971.95
519.77	1997.31
520.13	2021.31
520.49	2045.52
520.85	2069.97
521.21	2093.81
521.57	2117.99
521.93	2141.14
522.29	2164.83
522.65	2188.30
523.01	2211.50
523.37	2233.96
523.73	2257.23
524.09	2280.20
524.45	2302.55
524.81	2324.29
525.17	2345.75
525.53	2366.62
525.89	2387.77
526.25	2408.51
526.61	2427.83
526.97	2447.04
527.33	2466.12
527.68	2484.81
528.04	2503.02
528.40	2519.78
528.76	2536.95
529.12	2553.71
529.48	2570.85
529.84	2585.37
530.20	2600.38
530.56	2614.40
530.91	2628.71
531.27	2642.39
531.63	2655.00
531.99	2667.49
532.35	2679.47
532.71	2691.09
533.07	2702.89
533.42	2712.84
533.78	2723.23
534.14	2734.32
534.50	2744.32
534.86	2754.80
535.21	2763.30
535.57	2771.66
535.93	2780.04
536.29	2786.55
536.65	2792.74
537.00	2797.49
537.36	2803.63
537.72	2808.68
538.08	2813.17
538.44	2816.75
538.79	2819.97
539.15	2821.86
539.51	2823.13
539.87	2823.40
540.22	2822.17
540.58	2821.18
540.94	2821.15
541.29	2819.72
541.65	2817.01
542.01	2813.92
542.37	2809.37
542.72	2806.22
543.08	2801.53
543.44	2797.07
543.79	2792.03
544.15	2786.39
544.51	2781.13
544.87	2774.63
545.22	2767.37
545.58	2760.12
545.94	2752.96
546.29	2744.29
546.65	2735.98
547.01	2727.67
547.36	2719.62
547.72	2711.90
548.07	2702.37
548.43	2691.98
548.79	2681.27
549.14	2671.04
549.50	2660.85
549.86	2649.81
550.21	2637.25
550.57	2625.67
550.92	2612.44
551.28	2599.81
551.64	2587.34
551.99	2574.56
552.35	2561.44
552.70	2548.18
553.06	2535.41
553.41	2522.10
553.77	2508.59
554.13	2495.24
554.48	2480.88
554.84	2466.10
555.19	2451.70
555.55	2437.19
555.90	2422.94
556.26	2409.15
556.61	2394.14
556.97	2378.27
557.32	2362.90
557.68	2347.87
558.03	2332.54
558.39	2318.11
558.74	2304.19
559.10	2288.57
559.45	2273.35
559.81	2258.89
560.16	2244.05
560.52	2229.05
560.87	2214.17
561.23	2199.06
561.58	2184.28
561.94	2169.10
562.29	2153.36
562.64	2137.82
563.00	2122.56
563.35	2107.38
563.71	2091.87
564.06	2076.53
564.42	2061.82
564.77	2047.05
565.12	2032.10
565.48	2017.04
565.83	2002.25
566.19	1987.50
566.54	1973.04
566.89	1957.91
567.25	1942.52
567.60	1928.04
567.96	1912.66
568.31	1896.43
568.66	1881.14
569.02	1866.42
569.37	1852.16
569.72	1838.54
570.08	1824.49
570.43	1809.83
570.78	1795.07
571.14	1780.07
571.49	1765.25
571.84	1750.69
572.20	1735.09
572.55	1720.34
572.90	1705.55
573.26	1690.65
573.61	1675.19
573.96	1660.26
574.31	1645.16
574.67	1630.15
575.02	1614.79
575.37	1599.60
575.72	1584.94
576.08	1570.13
576.43	1554.76
576.78	1539.52
577.13	1524.50
577.49	1509.72
577.84	1495.35
578.19	1480.53
578.54	1465.86
578.90	1451.14
579.25	1436.33
579.60	1422.53
579.95	1408.49
580.30	1394.43
580.66	1380.11
581.01	1365.93
581.36	1351.92
581.71	1338.63
582.06	1325.22
582.42	1311.73
582.77	1298.72
583.12	1285.92
583.47	1273.02
583.82	1260.30
584.17	1247.28
584.53	1234.29
584.88	1221.50
585.23	1208.64
585.58	1196.15
585.93	1183.69
586.28	1172.04
586.63	1160.23
586.98	1148.20
587.34	1136.44
587.69	1124.55
588.04	1113.14
588.39	1101.90
588.74	1090.23
589.09	1078.78
589.44	1067.12
589.79	1055.90
590.14	1044.77
590.49	1033.73
590.84	1022.90
591.19	1012.30
591.54	1001.85
591.89	990.96
592.25	980.51
592.60	969.93
592.95	959.53
593.30	949.33
593.65	938.96
594.00	928.86
594.35	919.55
594.70	909.64
595.05	900.34
595.40	890.76
595.75	881.07
596.10	872.01
596.45	862.90
596.80	854.09
597.15	845.39
597.50	836.71
597.85	828.16
598.19	819.65
598.54	811.16
598.89	803.12
599.24	795.47
599.59	787.63
599.94	780.39
600.29	773.16
600.64	765.79
600.99	758.32
601.34	751.05
601.69	743.37
602.04	736.44
602.39	729.44
602.74	722.58
603.08	715.93
603.43	709.20
603.78	702.44
604.13	695.80
604.48	689.23
604.83	682.82
605.18	676.52
605.53	670.37
605.87	664.17
606.22	658.06
606.57	651.92
606.92	645.68
607.27	639.47
607.62	633.47
607.96	627.76
608.31	622.40
608.66	616.99
609.01	611.79
609.36	606.61
609.70	601.32
610.05	596.14
610.40	591.07
610.75	586.00
611.10	581.17
611.44	576.34
611.79	571.58
612.14	566.78
612.49	562.04
612.83	557.53
613.18	553.07
613.53	548.62
613.88	544.34
614.22	540.37
614.57	536.29
614.92	532.28
615.27	528.39
615.61	524.43
615.96	520.51
616.31	516.59
616.65	512.80
617.00	509.12
617.35	505.45
617.70	501.83
618.04	498.34
618.39	494.90
618.74	491.68
619.08	488.46
619.43	485.30
619.78	482.12
620.12	478.95
620.47	476.00
620.82	473.06
621.16	470.10
621.51	467.22
621.85	464.37
622.20	461.60
622.55	458.77
622.89	455.99
623.24	453.41
623.59	450.86
623.93	448.38
624.28	446.05
624.62	443.90
624.97	441.74
625.32	439.47
625.66	437.19
626.01	434.87
626.35	432.67
626.70	430.42
627.04	428.34
627.39	426.24
627.73	424.22
628.08	422.29
628.43	420.36
628.77	418.32
629.12	416.44
629.46	414.61
629.81	412.93
630.15	411.18
630.50	409.42
630.84	407.71
631.19	406.01
631.53	404.38
631.88	402.60
632.22	400.91
632.57	399.49
632.91	398.03
633.26	396.65
633.60	395.26
633.95	393.98
634.29	392.57
634.64	391.20
634.98	389.70
635.32	388.36
635.67	387.15
636.01	385.95
636.36	384.79
636.70	383.72
637.05	382.47
637.39	381.35
637.73	380.25
638.08	379.21
638.42	378.21
638.77	377.09
639.11	375.92
639.45	374.79
639.80	373.61
640.14	372.53
640.49	371.42
640.83	370.32
641.17	369.23
641.52	368.19
641.86	367.19
642.20	366.33
642.55	365.28
642.89	364.24
643.23	363.32
643.58	362.45
643.92	361.45
644.26	360.53
644.61	359.64
644.95	358.70
645.29	357.68
645.64	356.66
645.98	355.75
646.32	354.95
646.66	354.09
647.01	353.24
647.35	352.47
647.69	351.68
648.04	350.97
648.38	350.21
648.72	349.48
649.06	348.71
649.41	347.91
649.75	347.15
650.09	346.45
650.43	345.68
650.78	344.91
651.12	344.17
651.46	343.44
651.80	342.72
652.14	342.07
652.49	341.47
652.83	340.79
653.17	340.08
653.51	339.41
653.85	338.84
654.20	338.22
654.54	337.49
654.88	336.78
655.22	336.14
655.56	335.45
655.90	334.80
656.25	334.18
656.59	333.55
656.93	332.98
657.27	332.45
657.61	331.84
657.95	331.28
658.29	330.69
658.64	330.14
658.98	329.53
659.32	328.92
659.66	328.35
660.00	327.84
660.34	327.34
660.68	326.76
661.02	326.11
661.36	325.52
661.70	324.98
662.05	324.44
662.39	323.91
662.73	323.46
663.07	323.05
663.41	322.56
663.75	322.06
664.09	321.55
664.43	320.92
664.77	320.40
665.11	319.82
665.45	319.29
665.79	318.81
666.13	318.28
666.47	317.74
666.81	317.18
667.15	316.57
667.49	316.08
667.83	315.65
668.17	315.19
668.51	314.77
668.85	314.37
669.19	314.00
669.53	313.47
669.87	312.92
670.21	312.37
670.55	311.86
670.89	311.48
671.23	311.05
671.57	310.68
671.91	310.30
672.25	309.97
672.58	309.64
672.92	309.19
673.26	308.83
673.60	308.46
673.94	308.08
674.28	307.74
674.62	307.36
674.96	306.91
675.30	306.52
675.64	306.07
675.97	305.60
676.31	305.11
676.65	304.68
676.99	304.35
677.33	303.91
677.67	303.52
678.01	303.02
678.34	302.58
678.68	302.17
679.02	301.72
679.36	301.28
679.70	300.80
680.04	300.41
680.37	300.01
680.71	299.62
681.05	299.26
681.39	298.84
681.73	298.38
682.06	297.96
682.40	297.56
682.74	297.19
683.08	296.89
683.42	296.51
683.75	296.14
684.09	295.66
684.43	295.26
684.77	294.82
685.10	294.43
685.44	294.03
685.78	293.62
686.12	293.22
686.45	292.81
686.79	292.36
687.13	291.95
687.46	291.49
687.80	291.07
688.14	290.58
688.48	290.16
688.81	289.73
689.15	289.38
689.49	288.94
689.82	288.52
690.16	287.98
690.50	287.52
690.83	287.10
691.17	286.66
691.51	286.25
691.84	285.88
692.18	285.44
692.52	284.97
692.85	284.54
693.19	284.17
693.52	283.72
693.86	283.31
694.20	282.87
694.53	282.46
694.87	282.02
695.21	281.58
695.54	281.17
695.88	280.74
696.21	280.24
696.55	279.81
696.88	279.38
697.22	278.97
697.56	278.59
697.89	278.13
698.23	277.74
698.56	277.29
698.90	276.89
699.23	276.44
699.57	276.05
699.90	275.63
700.24	275.17
700.58	274.78
700.91	274.43
701.25	274.20
701.58	273.88
701.92	273.54
702.25	273.18
702.59	272.78
702.92	272.40
703.26	272.00
703.59	271.62
703.93	271.36
704.26	271.01
704.60	270.63
704.93	270.26
705.26	269.88
705.60	269.54
705.93	269.14
706.27	268.85
706.60	268.54
706.94	268.25
707.27	267.86
707.61	267.50
707.94	267.11
708.27	266.59
708.61	266.15
708.94	265.76
709.28	265.40
709.61	265.05
709.94	264.74
710.28	264.43
710.61	264.13
710.95	263.66
711.28	263.43
711.61	263.09
711.95	262.80
712.28	262.46
712.61	262.10
712.95	261.88
713.28	261.63
713.61	261.27
713.95	260.90
714.28	260.61
714.61	260.28
714.95	259.97
715.28	259.67
715.61	259.39
715.95	259.10
716.28	258.81
716.61	258.55
716.95	258.23
717.28	257.94
717.61	257.65
717.94	257.37
718.28	256.97
718.61	256.69
718.94	256.38
719.27	256.13
719.61	255.90
719.94	255.58
720.27	255.23
720.60	254.97
720.94	254.71
721.27	254.45
721.60	254.24
721.93	253.99
722.27	253.78
722.60	253.54
722.93	253.28
723.26	253.06
723.59	252.78
723.93	252.57
724.26	252.35
724.59	252.10
724.92	251.90
725.25	251.75
725.59	251.52
725.92	251.34
726.25	251.12
726.58	250.89
726.91	250.66
727.24	250.46
727.57	250.24
727.91	250.01
728.24	249.83
728.57	249.60
728.90	249.40
729.23	249.16
729.56	249.04
729.89	248.84
730.22	248.62
730.55	248.44
730.89	248.23
731.22	248.02
731.55	247.84
731.88	247.64
732.21	247.42
732.54	247.23
732.87	247.04
733.20	246.86
733.53	246.69
733.86	246.53
734.19	246.34
734.52	246.20
734.85	246.15
735.18	245.95
735.51	245.85
735.84	245.69
736.17	245.57
736.50	245.31
736.83	245.36
737.16	245.21
737.49	245.04
737.82	244.88
738.15	244.75
738.48	244.59
738.81	244.43
739.14	244.26
739.47	244.10
739.80	243.93
740.13	243.81
740.46	243.63
740.79	243.44
741.12	243.29
741.45	243.11
741.78	242.86
742.11	242.77
742.44	242.57
742.77	242.44
743.10	242.25
743.43	242.11
743.75	241.78
744.08	241.91
744.41	241.76
744.74	241.61
745.07	241.45
745.40	241.35
745.73	241.27
746.06	241.14
746.39	241.04
746.71	240.90
747.04	240.74
747.37	240.61
747.70	240.52
748.03	240.40
748.36	240.31
748.68	240.18
749.01	240.00
749.34	239.90
749.67	239.79
750.00	239.71
750.33	239.71
750.65	239.62
750.98	239.23
751.31	239.13
751.64	239.03
751.97	239.02
752.29	238.89
752.62	238.71
752.95	238.59
753.28	238.46
753.60	238.34
753.93	238.28
754.26	238.19
754.59	238.03
754.91	237.91
755.24	237.79
755.57	237.70
755.90	237.60
756.22	237.47
756.55	237.34
756.88	237.19
757.20	236.99
757.53	236.84
757.86	236.75
758.19	236.66
758.51	236.56
758.84	236.38
759.17	236.27
759.49	236.19
759.82	236.18
760.15	236.10
760.47	236.02
760.80	235.88
761.13	235.81
761.45	235.74
761.78	235.65
762.11	235.56
762.43	235.46
762.76	235.38
763.08	235.33
763.41	235.25
763.74	235.20
764.06	235.12
764.39	235.06
764.71	234.97
765.04	234.88
765.37	234.79
765.69	234.71
766.02	234.65
766.34	234.56
766.67	234.43
767.00	234.39
767.32	234.42
767.65	234.48
767.97	234.40
768.30	234.34
768.62	234.30
768.95	234.23
769.27	234.16
769.60	234.13
769.92	234.03
770.25	233.96
770.57	233.87
770.90	233.82
771.22	233.74
771.55	233.69
771.87	233.66
772.20	233.60
772.52	233.70
772.85	233.85
773.17	233.80
773.50	233.74
773.82	233.66
774.15	233.52
774.47	233.35
774.80	233.28
775.12	233.23
775.45	233.16
775.77	233.12
776.09	233.09
776.42	233.05
776.74	233.06
777.07	233.00
777.39	232.97
777.72	232.91
778.04	232.90
778.36	232.84
778.69	232.80
779.01	232.77
779.33	232.57
779.66	232.33
779.98	232.29
780.31	232.27
780.63	232.31
780.95	232.30
781.28	232.26
781.60	232.22
781.92	232.18
782.25	232.15
782.57	232.12
782.89	232.07
783.22	232.02
783.54	231.95
783.86	231.94
784.19	231.89
784.51	231.91
784.83	231.84
785.16	231.82
785.48	231.80
785.80	231.77
786.12	231.76
786.45	231.73
786.77	231.71
787.09	231.66
787.42	231.57
787.74	231.53
788.06	231.52
788.38	231.49
788.71	231.45
789.03	231.43
789.35	231.41
789.67	231.37
789.99	231.34
790.32	231.31
790.64	231.30
790.96	231.43
791.28	231.34
791.61	231.31
791.93	231.28
792.25	231.24
792.57	231.34
792.89	231.28
793.21	231.27
793.54	231.23
793.86	231.19
794.18	231.18
794.50	231.12
794.82	231.09
795.14	231.09
795.47	231.11
795.79	231.09
796.11	231.03
796.43	231.02
796.75	231.00
797.07	230.99
797.39	230.95
797.71	230.79
798.04	230.77
798.36	230.76
798.68	230.74
799.00	230.73
799.32	230.62
799.64	230.62
799.96	230.60
800.28	230.61
800.60	230.59
800.92	230.58
801.24	230.57
801.56	230.57
801.89	230.53
802.21	230.51
802.53	230.46
802.85	230.49
803.17	230.55
803.49	230.49
803.81	230.45
804.13	230.42
804.45	230.39
804.77	230.41
805.09	230.39
805.41	230.37
805.73	230.33
806.05	230.27
806.37	230.24
806.69	230.21
807.01	230.18
807.33	230.18
807.65	230.09
807.97	230.14
808.28	230.11
808.60	230.09
808.92	230.06
809.24	230.16
809.56	230.10
809.88	230.03
810.20	230.03
810.52	230.06
810.84	230.02
811.16	229.98
811.48	229.95
811.80	229.99
812.12	229.98
812.43	230.00
812.75	230.00
813.07	229.98
813.39	229.98
813.71	229.94
814.03	229.91
814.35	229.92
814.67	229.83
814.98	229.80
815.30	229.79
815.62	229.76
815.94	229.62
816.26	229.64
816.58	229.59
816.89	229.59
817.21	229.54
817.53	229.55
817.85	229.55
818.17	229.53
818.48	229.46
