SpectraSuite Data File
++++++++++++++++++++++++++++++++++++
Date: Tue Oct 06 11:18:19 EDT 2015
User: lab3
Dark Spectrum Present: No
Reference Spectrum Present: No
Number of Sampled Component Spectra: 1
Spectrometers: USB2E7196
Integration Time (usec): 66000 (USB2E7196)
Spectra Averaged: 1000 (USB2E7196)
Boxcar Smoothing: 10 (USB2E7196)
Correct for Electrical Dark: No (USB2E7196)
Strobe/Lamp Enabled: No (USB2E7196)
Correct for Detector Non-linearity: No (USB2E7196)
Correct for Stray Light: No (USB2E7196)
Number of Pixels in Processed Spectrum: 2048
>>>>>Begin Processed Spectral Data<<<<<
339.09	0.00
339.48	216.14
339.86	217.43
340.24	218.90
340.63	220.41
341.01	224.48
341.39	223.26
341.78	224.48
342.16	226.02
342.54	226.05
342.93	214.57
343.31	225.39
343.69	225.92
344.07	226.38
344.46	226.83
344.84	227.24
345.22	227.43
345.60	227.69
345.99	227.90
346.37	228.03
346.75	228.15
347.13	228.24
347.52	228.31
347.90	228.44
348.28	228.49
348.66	228.57
349.05	228.56
349.43	228.62
349.81	228.69
350.19	228.74
350.57	228.83
350.96	228.92
351.34	229.03
351.72	229.14
352.10	229.25
352.48	229.32
352.87	229.37
353.25	229.44
353.63	229.49
354.01	229.54
354.39	229.63
354.77	229.71
355.15	229.82
355.54	229.86
355.92	229.86
356.30	229.94
356.68	230.12
357.06	230.20
357.44	230.24
357.82	230.30
358.20	230.52
358.58	230.57
358.97	230.65
359.35	230.75
359.73	230.84
360.11	230.90
360.49	230.96
360.87	231.00
361.25	231.07
361.63	231.17
362.01	231.23
362.39	231.26
362.77	231.30
363.15	231.32
363.53	231.35
363.91	231.40
364.29	231.42
364.67	231.27
365.05	231.27
365.43	231.31
365.81	231.34
366.19	231.29
366.57	231.36
366.95	231.36
367.33	231.31
367.71	231.30
368.09	231.32
368.47	231.31
368.85	231.29
369.23	231.32
369.61	231.25
369.99	231.29
370.37	231.28
370.75	231.40
371.13	231.36
371.51	231.31
371.89	231.29
372.27	231.27
372.65	231.26
373.03	231.22
373.41	231.16
373.78	231.11
374.16	230.99
374.54	230.90
374.92	230.84
375.30	230.80
375.68	230.72
376.06	230.68
376.44	230.62
376.82	230.60
377.19	230.55
377.57	230.49
377.95	230.39
378.33	230.32
378.71	230.12
379.09	230.07
379.47	230.05
379.84	229.99
380.22	229.92
380.60	229.82
380.98	229.79
381.36	229.74
381.73	229.67
382.11	229.66
382.49	229.62
382.87	229.56
383.25	229.52
383.62	229.70
384.00	229.62
384.38	229.58
384.76	229.57
385.13	229.58
385.51	229.55
385.89	229.49
386.27	229.46
386.64	229.45
387.02	229.40
387.40	229.36
387.78	229.34
388.15	229.33
388.53	229.31
388.91	229.30
389.29	229.27
389.66	229.28
390.04	229.24
390.42	229.26
390.79	229.26
391.17	229.24
391.55	229.02
391.92	229.03
392.30	229.04
392.68	229.00
393.05	228.98
393.43	228.99
393.81	229.01
394.18	229.00
394.56	229.02
394.94	229.07
395.31	229.08
395.69	229.15
396.06	229.21
396.44	229.26
396.82	229.28
397.19	229.41
397.57	229.44
397.95	229.52
398.32	229.51
398.70	229.58
399.07	229.69
399.45	229.75
399.82	229.82
400.20	229.87
400.58	229.96
400.95	229.98
401.33	230.11
401.70	230.34
402.08	230.47
402.45	230.59
402.83	230.77
403.20	230.94
403.58	231.07
403.95	231.28
404.33	231.50
404.71	231.71
405.08	232.00
405.46	232.25
405.83	232.52
406.21	232.81
406.58	233.13
406.96	233.45
407.33	233.82
407.70	234.25
408.08	234.83
408.45	235.34
408.83	235.89
409.20	236.39
409.58	236.84
409.95	237.49
410.33	238.17
410.70	238.81
411.08	239.56
411.45	240.36
411.82	241.16
412.20	242.08
412.57	243.18
412.95	244.06
413.32	245.20
413.69	246.36
414.07	247.61
414.44	248.98
414.82	250.38
415.19	252.01
415.56	253.65
415.94	255.39
416.31	257.32
416.68	259.28
417.06	261.53
417.43	263.65
417.81	266.08
418.18	268.55
418.55	271.26
418.93	274.10
419.30	277.05
419.67	280.20
420.04	283.43
420.42	286.82
420.79	290.72
421.16	294.66
421.54	298.65
421.91	302.81
422.28	307.14
422.66	311.80
423.03	316.22
423.40	320.90
423.77	325.89
424.15	330.99
424.52	336.25
424.89	341.97
425.26	347.65
425.64	352.92
426.01	358.83
426.38	364.88
426.75	371.08
427.13	377.41
427.50	384.06
427.87	390.93
428.24	397.85
428.61	404.48
428.99	411.62
429.36	419.55
429.73	427.12
430.10	434.64
430.47	442.35
430.85	450.36
431.22	458.84
431.59	467.52
431.96	475.99
432.33	485.43
432.70	494.40
433.08	505.06
433.45	515.12
433.82	524.99
434.19	536.03
434.56	546.89
434.93	557.42
435.30	567.85
435.68	579.70
436.05	591.28
436.42	602.88
436.79	613.48
437.16	624.89
437.53	637.17
437.90	649.49
438.27	661.48
438.64	674.40
439.01	686.16
439.38	697.07
439.75	707.57
440.13	719.52
440.50	730.94
440.87	739.96
441.24	749.84
441.61	760.73
441.98	768.75
442.35	778.23
442.72	787.95
443.09	797.28
443.46	803.42
443.83	808.03
444.20	811.82
444.57	817.37
444.94	820.79
445.31	824.19
445.68	827.05
446.05	829.23
446.42	828.96
446.79	828.46
447.16	828.01
447.53	827.72
447.90	824.30
448.27	820.87
448.64	815.58
449.01	812.06
449.37	804.61
449.74	797.93
450.11	789.24
450.48	779.65
450.85	769.92
451.22	761.49
451.59	753.27
451.96	745.94
452.33	735.20
452.70	725.59
453.07	713.94
453.43	702.39
453.80	691.14
454.17	680.35
454.54	670.35
454.91	658.99
455.28	648.23
455.65	637.97
456.02	627.29
456.38	618.67
456.75	607.55
457.12	598.57
457.49	589.44
457.86	580.90
458.23	573.39
458.59	565.12
458.96	556.63
459.33	549.16
459.70	541.53
460.07	535.67
460.43	528.76
460.80	522.28
461.17	516.60
461.54	510.56
461.91	504.91
462.27	499.13
462.64	494.44
463.01	489.06
463.38	483.74
463.74	478.89
464.11	474.61
464.48	470.73
464.85	466.51
465.21	463.28
465.58	459.68
465.95	455.58
466.32	452.29
466.68	449.08
467.05	445.85
467.42	442.68
467.78	439.32
468.15	436.24
468.52	433.99
468.88	431.02
469.25	428.29
469.62	426.11
469.98	423.74
470.35	421.60
470.72	419.69
471.08	417.69
471.45	416.01
471.82	414.14
472.18	412.19
472.55	410.94
472.92	409.39
473.28	408.15
473.65	406.83
474.02	405.62
474.38	404.59
474.75	403.96
475.11	403.08
475.48	402.66
475.85	402.22
476.21	401.94
476.58	401.75
476.94	401.94
477.31	401.97
477.67	402.07
478.04	402.37
478.41	402.76
478.77	403.37
479.14	403.74
479.50	404.52
479.87	405.53
480.23	406.54
480.60	407.50
480.96	408.47
481.33	409.92
481.69	411.34
482.06	412.75
482.42	414.09
482.79	415.71
483.15	417.60
483.52	419.72
483.88	421.79
484.25	423.99
484.61	426.28
484.98	428.73
485.34	431.52
485.71	434.39
486.07	437.47
486.44	440.49
486.80	443.89
487.17	447.32
487.53	451.10
487.90	455.02
488.26	459.32
488.62	463.87
488.99	468.40
489.35	473.22
489.72	478.42
490.08	483.83
490.44	489.33
490.81	495.05
491.17	500.90
491.54	507.14
491.90	513.54
492.26	520.31
492.63	527.43
492.99	534.78
493.36	542.45
493.72	550.52
494.08	558.76
494.45	567.41
494.81	576.45
495.17	585.69
495.54	595.45
495.90	605.62
496.26	616.04
496.63	626.69
496.99	637.70
497.35	649.12
497.72	660.95
498.08	673.23
498.44	685.78
498.80	699.10
499.17	712.73
499.53	726.76
499.89	741.28
500.26	755.83
500.62	770.71
500.98	786.24
501.34	801.96
501.71	818.40
502.07	835.14
502.43	852.38
502.79	869.65
503.16	887.41
503.52	905.38
503.88	923.77
504.24	942.61
504.60	961.70
504.97	981.24
505.33	1001.19
505.69	1022.16
506.05	1043.16
506.41	1063.99
506.78	1085.14
507.14	1107.09
507.50	1129.45
507.86	1152.40
508.22	1175.37
508.59	1198.21
508.95	1221.74
509.31	1245.81
509.67	1270.38
510.03	1294.78
510.39	1319.49
510.75	1344.34
511.12	1369.37
511.48	1394.35
511.84	1419.31
512.20	1444.66
512.56	1470.57
512.92	1496.31
513.28	1521.51
513.64	1547.17
514.00	1572.87
514.37	1598.82
514.73	1624.60
515.09	1649.76
515.45	1675.05
515.81	1700.36
516.17	1725.65
516.53	1750.38
516.89	1775.08
517.25	1799.86
517.61	1824.49
517.97	1849.35
518.33	1873.50
518.69	1897.48
519.05	1921.62
519.41	1945.75
519.77	1969.77
520.13	1993.27
520.49	2016.71
520.85	2040.32
521.21	2063.39
521.57	2086.97
521.93	2109.25
522.29	2131.93
522.65	2154.20
523.01	2176.31
523.37	2197.73
523.73	2219.53
524.09	2241.35
524.45	2262.84
524.81	2283.67
525.17	2304.10
525.53	2323.83
525.89	2344.15
526.25	2363.73
526.61	2382.25
526.97	2400.80
527.33	2419.08
527.68	2436.23
528.04	2452.86
528.40	2468.36
528.76	2484.45
529.12	2499.24
529.48	2514.68
529.84	2528.74
530.20	2543.68
530.56	2557.46
530.91	2571.51
531.27	2584.44
531.63	2596.33
531.99	2607.72
532.35	2617.93
532.71	2627.98
533.07	2638.37
533.42	2647.10
533.78	2656.59
534.14	2666.54
534.50	2675.10
534.86	2683.66
535.21	2690.27
535.57	2697.15
535.93	2704.48
536.29	2710.41
536.65	2716.42
537.00	2720.44
537.36	2724.79
537.72	2727.55
538.08	2730.18
538.44	2731.43
538.79	2733.37
539.15	2734.58
539.51	2735.28
539.87	2736.11
540.22	2735.26
540.58	2734.74
540.94	2734.07
541.29	2732.24
541.65	2728.77
542.01	2725.42
542.37	2720.93
542.72	2718.41
543.08	2714.25
543.44	2709.86
543.79	2703.99
544.15	2697.73
544.51	2692.33
544.87	2685.15
545.22	2677.47
545.58	2669.60
545.94	2662.40
546.29	2653.75
546.65	2644.86
547.01	2636.02
547.36	2626.86
547.72	2617.67
548.07	2607.13
548.43	2596.33
548.79	2584.59
549.14	2573.73
549.50	2562.71
549.86	2551.29
550.21	2538.21
550.57	2526.30
550.92	2512.27
551.28	2499.19
551.64	2486.77
551.99	2474.10
552.35	2461.38
552.70	2448.63
553.06	2436.31
553.41	2423.19
553.77	2409.37
554.13	2395.59
554.48	2381.31
554.84	2366.69
555.19	2352.73
555.55	2338.34
555.90	2323.86
556.26	2310.26
556.61	2295.62
556.97	2280.17
557.32	2265.14
557.68	2250.17
558.03	2234.77
558.39	2220.37
558.74	2206.11
559.10	2189.98
559.45	2174.41
559.81	2159.73
560.16	2144.73
560.52	2129.39
560.87	2114.68
561.23	2099.52
561.58	2084.68
561.94	2069.12
562.29	2053.70
562.64	2038.24
563.00	2023.10
563.35	2008.54
563.71	1993.67
564.06	1978.70
564.42	1964.21
564.77	1949.58
565.12	1935.45
565.48	1921.30
565.83	1907.25
566.19	1893.16
566.54	1879.35
566.89	1864.51
567.25	1849.24
567.60	1835.02
567.96	1820.35
568.31	1805.01
568.66	1790.36
569.02	1776.03
569.37	1761.88
569.72	1747.94
570.08	1734.07
570.43	1719.80
570.78	1704.96
571.14	1690.05
571.49	1675.69
571.84	1662.10
572.20	1647.34
572.55	1632.76
572.90	1617.74
573.26	1602.61
573.61	1587.37
573.96	1572.80
574.31	1558.78
574.67	1545.01
575.02	1530.39
575.37	1515.59
575.72	1501.04
576.08	1486.91
576.43	1472.57
576.78	1458.38
577.13	1444.30
577.49	1430.30
577.84	1416.39
578.19	1402.45
578.54	1388.71
578.90	1374.96
579.25	1360.59
579.60	1347.28
579.95	1334.05
580.30	1320.77
580.66	1307.59
581.01	1294.64
581.36	1281.48
581.71	1268.28
582.06	1255.03
582.42	1241.97
582.77	1229.33
583.12	1216.90
583.47	1204.37
583.82	1192.09
584.17	1179.73
584.53	1167.51
584.88	1155.44
585.23	1143.37
585.58	1131.66
585.93	1120.01
586.28	1108.84
586.63	1097.66
586.98	1086.36
587.34	1075.37
587.69	1064.26
588.04	1053.51
588.39	1042.85
588.74	1031.98
589.09	1021.46
589.44	1010.74
589.79	1000.55
590.14	990.47
590.49	980.47
590.84	970.69
591.19	960.95
591.54	951.26
591.89	941.21
592.25	931.42
592.60	921.52
592.95	911.89
593.30	902.23
593.65	892.46
594.00	883.02
594.35	874.34
594.70	865.09
595.05	856.57
595.40	847.82
595.75	838.82
596.10	830.42
596.45	821.93
596.80	813.68
597.15	805.47
597.50	797.31
597.85	789.39
598.19	781.52
598.54	773.54
598.89	765.81
599.24	758.49
599.59	751.20
599.94	744.43
600.29	737.45
600.64	730.60
600.99	723.68
601.34	716.95
601.69	709.66
602.04	702.96
602.39	696.36
602.74	689.91
603.08	683.66
603.43	677.44
603.78	671.27
604.13	665.26
604.48	659.22
604.83	653.35
605.18	647.55
605.53	641.82
605.87	636.12
606.22	630.59
606.57	624.99
606.92	619.29
607.27	613.69
607.62	608.38
607.96	603.14
608.31	598.27
608.66	593.28
609.01	588.50
609.36	583.86
609.70	579.05
610.05	574.28
610.40	569.63
610.75	564.94
611.10	560.56
611.44	556.08
611.79	551.74
612.14	547.43
612.49	543.08
612.83	538.90
613.18	534.88
613.53	530.94
613.88	527.02
614.22	523.32
614.57	519.49
614.92	515.73
615.27	512.04
615.61	508.37
615.96	504.78
616.31	501.20
616.65	497.63
617.00	494.22
617.35	490.87
617.70	487.59
618.04	484.43
618.39	481.25
618.74	478.25
619.08	475.19
619.43	472.19
619.78	469.25
620.12	466.36
620.47	463.64
620.82	460.88
621.16	458.18
621.51	455.64
621.85	453.14
622.20	450.68
622.55	448.22
622.89	445.81
623.24	443.50
623.59	441.23
623.93	439.03
624.28	436.93
624.62	435.03
624.97	433.11
625.32	431.03
625.66	428.93
626.01	426.87
626.35	424.98
626.70	423.03
627.04	421.27
627.39	419.43
627.73	417.61
628.08	415.90
628.43	414.23
628.77	412.48
629.12	410.84
629.46	409.22
629.81	407.71
630.15	406.08
630.50	404.49
630.84	403.02
631.19	401.60
631.53	400.20
631.88	398.57
632.22	397.03
632.57	395.82
632.91	394.60
633.26	393.45
633.60	392.23
633.95	391.06
634.29	389.76
634.64	388.62
634.98	387.32
635.32	386.17
635.67	385.10
636.01	384.03
636.36	383.00
636.70	382.09
637.05	380.99
637.39	380.07
637.73	379.14
638.08	378.23
638.42	377.31
638.77	376.31
639.11	375.29
639.45	374.31
639.80	373.28
640.14	372.32
640.49	371.33
640.83	370.35
641.17	369.40
641.52	368.47
641.86	367.55
642.20	366.81
642.55	365.89
642.89	364.98
643.23	364.11
643.58	363.32
643.92	362.35
644.26	361.50
644.61	360.73
644.95	359.91
645.29	359.03
645.64	358.14
645.98	357.29
646.32	356.59
646.66	355.83
647.01	355.05
647.35	354.32
647.69	353.56
648.04	352.86
648.38	352.11
648.72	351.41
649.06	350.73
649.41	349.99
649.75	349.29
650.09	348.65
650.43	347.97
650.78	347.24
651.12	346.58
651.46	345.93
651.80	345.27
652.14	344.60
652.49	343.99
652.83	343.35
653.17	342.70
653.51	342.07
653.85	341.52
654.20	340.93
654.54	340.25
654.88	339.62
655.22	339.01
655.56	338.32
655.90	337.66
656.25	336.99
656.59	336.36
656.93	335.78
657.27	335.25
657.61	334.64
657.95	334.10
658.29	333.54
658.64	333.03
658.98	332.41
659.32	331.79
659.66	331.23
660.00	330.68
660.34	330.17
660.68	329.63
661.02	329.01
661.36	328.43
661.70	327.87
662.05	327.34
662.39	326.83
662.73	326.42
663.07	326.00
663.41	325.52
663.75	324.98
664.09	324.46
664.43	323.84
664.77	323.32
665.11	322.72
665.45	322.17
665.79	321.60
666.13	321.06
666.47	320.53
666.81	319.97
667.15	319.36
667.49	318.85
667.83	318.37
668.17	317.85
668.51	317.36
668.85	316.93
669.19	316.56
669.53	316.05
669.87	315.53
670.21	315.02
670.55	314.55
670.89	314.19
671.23	313.71
671.57	313.28
671.91	312.88
672.25	312.48
672.58	312.11
672.92	311.64
673.26	311.24
673.60	310.82
673.94	310.42
674.28	310.06
674.62	309.66
674.96	309.19
675.30	308.78
675.64	308.35
675.97	307.87
676.31	307.32
676.65	306.82
676.99	306.42
677.33	305.92
677.67	305.46
678.01	304.89
678.34	304.45
678.68	304.00
679.02	303.49
679.36	303.03
679.70	302.52
680.04	302.08
680.37	301.65
680.71	301.22
681.05	300.79
681.39	300.33
681.73	299.83
682.06	299.34
682.40	298.89
682.74	298.49
683.08	298.15
683.42	297.70
683.75	297.31
684.09	296.79
684.43	296.31
684.77	295.84
685.10	295.43
685.44	295.00
685.78	294.57
686.12	294.15
686.45	293.70
686.79	293.25
687.13	292.83
687.46	292.35
687.80	291.88
688.14	291.37
688.48	290.92
688.81	290.45
689.15	290.09
689.49	289.62
689.82	289.14
690.16	288.58
690.50	288.13
690.83	287.66
691.17	287.21
691.51	286.79
691.84	286.39
692.18	285.94
692.52	285.45
692.85	285.00
693.19	284.61
693.52	284.18
693.86	283.74
694.20	283.28
694.53	282.83
694.87	282.36
695.21	281.89
695.54	281.44
695.88	280.99
696.21	280.48
696.55	280.04
696.88	279.59
697.22	279.13
697.56	278.71
697.89	278.22
698.23	277.80
698.56	277.34
698.90	276.90
699.23	276.45
699.57	276.04
699.90	275.61
700.24	275.11
700.58	274.70
700.91	274.33
701.25	274.08
701.58	273.76
701.92	273.44
702.25	273.09
702.59	272.69
702.92	272.31
703.26	271.93
703.59	271.53
703.93	271.28
704.26	270.93
704.60	270.54
704.93	270.15
705.26	269.73
705.60	269.39
705.93	268.96
706.27	268.64
706.60	268.30
706.94	267.98
707.27	267.59
707.61	267.22
707.94	266.81
708.27	266.27
708.61	265.81
708.94	265.40
709.28	265.03
709.61	264.65
709.94	264.31
710.28	263.99
710.61	263.69
710.95	263.21
711.28	262.99
711.61	262.66
711.95	262.39
712.28	262.07
712.61	261.72
712.95	261.50
713.28	261.24
713.61	260.88
713.95	260.51
714.28	260.22
714.61	259.89
714.95	259.59
715.28	259.29
715.61	258.99
715.95	258.72
716.28	258.41
716.61	258.15
716.95	257.83
717.28	257.52
717.61	257.20
717.94	256.93
718.28	256.51
718.61	256.22
718.94	255.91
719.27	255.65
719.61	255.42
719.94	255.12
720.27	254.77
720.60	254.53
720.94	254.28
721.27	254.04
721.60	253.82
721.93	253.56
722.27	253.36
722.60	253.15
722.93	252.88
723.26	252.67
723.59	252.41
723.93	252.23
724.26	252.02
724.59	251.80
724.92	251.60
725.25	251.44
725.59	251.23
725.92	251.05
726.25	250.82
726.58	250.60
726.91	250.37
727.24	250.18
727.57	249.96
727.91	249.71
728.24	249.52
728.57	249.30
728.90	249.13
729.23	248.88
729.56	248.77
729.89	248.58
730.22	248.37
730.55	248.18
730.89	247.96
731.22	247.76
731.55	247.56
731.88	247.36
732.21	247.15
732.54	246.95
732.87	246.76
733.20	246.61
733.53	246.43
733.86	246.25
734.19	246.05
734.52	245.91
734.85	245.88
735.18	245.69
735.51	245.59
735.84	245.43
736.17	245.31
736.50	245.06
736.83	245.09
737.16	244.93
737.49	244.79
737.82	244.60
738.15	244.47
738.48	244.32
738.81	244.16
739.14	243.99
739.47	243.83
739.80	243.66
740.13	243.51
740.46	243.34
740.79	243.18
741.12	243.04
741.45	242.86
741.78	242.61
742.11	242.50
742.44	242.30
742.77	242.17
743.10	242.00
743.43	241.84
743.75	241.52
744.08	241.65
744.41	241.50
744.74	241.36
745.07	241.19
745.40	241.10
745.73	241.04
746.06	240.91
746.39	240.80
746.71	240.67
747.04	240.51
747.37	240.37
747.70	240.28
748.03	240.16
748.36	240.08
748.68	239.96
749.01	239.80
749.34	239.69
749.67	239.59
750.00	239.50
750.33	239.52
750.65	239.42
750.98	239.05
751.31	238.95
751.64	238.86
751.97	238.86
752.29	238.73
752.62	238.53
752.95	238.41
753.28	238.28
753.60	238.17
753.93	238.12
754.26	238.05
754.59	237.90
754.91	237.78
755.24	237.66
755.57	237.64
755.90	237.52
756.22	237.40
756.55	237.26
756.88	237.13
757.20	236.90
757.53	236.77
757.86	236.68
758.19	236.59
758.51	236.50
758.84	236.33
759.17	236.22
759.49	236.15
759.82	236.15
760.15	236.09
760.47	236.01
760.80	235.88
761.13	235.82
761.45	235.73
761.78	235.65
762.11	235.57
762.43	235.40
762.76	235.31
763.08	235.26
763.41	235.20
763.74	235.14
764.06	235.07
764.39	235.00
764.71	234.92
765.04	234.83
765.37	234.73
765.69	234.66
766.02	234.58
766.34	234.50
766.67	234.37
767.00	234.32
767.32	234.35
767.65	234.39
767.97	234.31
768.30	234.26
768.62	234.20
768.95	234.12
769.27	234.06
769.60	234.02
769.92	233.93
770.25	233.84
770.57	233.77
770.90	233.71
771.22	233.65
771.55	233.60
771.87	233.56
772.20	233.51
772.52	233.61
772.85	233.78
773.17	233.73
773.50	233.68
773.82	233.60
774.15	233.46
774.47	233.30
774.80	233.23
775.12	233.18
775.45	233.13
775.77	233.09
776.09	233.04
776.42	233.00
776.74	233.03
777.07	232.99
777.39	232.94
777.72	232.88
778.04	232.86
778.36	232.80
778.69	232.76
779.01	232.74
779.33	232.54
779.66	232.29
779.98	232.24
780.31	232.20
780.63	232.24
780.95	232.23
781.28	232.19
781.60	232.14
781.92	232.11
782.25	232.08
782.57	232.06
782.89	232.02
783.22	231.97
783.54	231.89
783.86	231.86
784.19	231.81
784.51	231.83
784.83	231.77
785.16	231.73
785.48	231.70
785.80	231.66
786.12	231.65
786.45	231.62
786.77	231.60
787.09	231.56
787.42	231.47
787.74	231.44
788.06	231.41
788.38	231.38
788.71	231.34
789.03	231.31
789.35	231.31
789.67	231.26
789.99	231.25
790.32	231.20
790.64	231.20
790.96	231.35
791.28	231.27
791.61	231.23
791.93	231.22
792.25	231.18
792.57	231.29
792.89	231.24
793.21	231.22
793.54	231.19
793.86	231.15
794.18	231.13
794.50	231.07
794.82	231.05
795.14	231.06
795.47	231.07
795.79	231.05
796.11	230.98
796.43	230.96
796.75	230.94
797.07	230.93
797.39	230.89
797.71	230.72
798.04	230.71
798.36	230.70
798.68	230.67
799.00	230.66
799.32	230.54
799.64	230.54
799.96	230.53
800.28	230.54
800.60	230.51
800.92	230.50
801.24	230.47
801.56	230.47
801.89	230.42
802.21	230.42
802.53	230.37
802.85	230.39
803.17	230.46
803.49	230.40
803.81	230.37
804.13	230.34
804.45	230.30
804.77	230.32
805.09	230.31
805.41	230.28
805.73	230.23
806.05	230.18
806.37	230.15
806.69	230.12
807.01	230.09
807.33	230.09
807.65	230.02
807.97	230.10
808.28	230.05
808.60	230.03
808.92	229.99
809.24	230.09
809.56	230.04
809.88	229.96
810.20	229.96
810.52	229.98
810.84	229.95
811.16	229.92
811.48	229.87
811.80	229.92
812.12	229.90
812.43	229.93
812.75	229.92
813.07	229.89
813.39	229.89
813.71	229.86
814.03	229.82
814.35	229.82
814.67	229.73
814.98	229.70
815.30	229.68
815.62	229.64
815.94	229.50
816.26	229.51
816.58	229.46
816.89	229.47
817.21	229.41
817.53	229.42
817.85	229.42
818.17	229.40
818.48	229.32
818.80	229.34
