SpectraSuite Data File
++++++++++++++++++++++++++++++++++++
Date: Tue Oct 06 16:08:21 EDT 2015
User: lab3
Dark Spectrum Present: No
Reference Spectrum Present: No
Number of Sampled Component Spectra: 1
Spectrometers: USB2E7196
Integration Time (usec): 66000 (USB2E7196)
Spectra Averaged: 1000 (USB2E7196)
Boxcar Smoothing: 10 (USB2E7196)
Correct for Electrical Dark: No (USB2E7196)
Strobe/Lamp Enabled: No (USB2E7196)
Correct for Detector Non-linearity: No (USB2E7196)
Correct for Stray Light: No (USB2E7196)
Number of Pixels in Processed Spectrum: 2048
>>>>>Begin Processed Spectral Data<<<<<
339.09	0.00
339.48	215.94
339.86	217.53
340.24	218.66
340.63	220.13
341.01	224.12
341.39	222.68
341.78	224.40
342.16	225.58
342.54	225.83
342.93	214.31
343.31	225.14
343.69	225.68
344.07	226.12
344.46	226.57
344.84	226.97
345.22	227.17
345.60	227.45
345.99	227.65
346.37	227.79
346.75	227.91
347.13	227.99
347.52	228.07
347.90	228.18
348.28	228.24
348.66	228.33
349.05	228.31
349.43	228.39
349.81	228.46
350.19	228.52
350.57	228.59
350.96	228.69
351.34	228.80
351.72	228.90
352.10	229.02
352.48	229.10
352.87	229.15
353.25	229.22
353.63	229.27
354.01	229.33
354.39	229.40
354.77	229.47
355.15	229.60
355.54	229.64
355.92	229.65
356.30	229.72
356.68	229.89
357.06	229.97
357.44	230.01
357.82	230.07
358.20	230.29
358.58	230.36
358.97	230.43
359.35	230.53
359.73	230.63
360.11	230.68
360.49	230.75
360.87	230.80
361.25	230.87
361.63	230.99
362.01	231.04
362.39	231.07
362.77	231.13
363.15	231.15
363.53	231.20
363.91	231.24
364.29	231.27
364.67	231.14
365.05	231.17
365.43	231.21
365.81	231.24
366.19	231.19
366.57	231.28
366.95	231.27
367.33	231.23
367.71	231.22
368.09	231.25
368.47	231.24
368.85	231.24
369.23	231.26
369.61	231.18
369.99	231.23
370.37	231.24
370.75	231.36
371.13	231.32
371.51	231.27
371.89	231.26
372.27	231.23
372.65	231.21
373.03	231.17
373.41	231.13
373.78	231.08
374.16	230.96
374.54	230.85
374.92	230.79
375.30	230.75
375.68	230.68
376.06	230.64
376.44	230.57
376.82	230.54
377.19	230.49
377.57	230.44
377.95	230.32
378.33	230.27
378.71	230.06
379.09	230.02
379.47	230.00
379.84	229.92
380.22	229.87
380.60	229.80
380.98	229.74
381.36	229.69
381.73	229.63
382.11	229.61
382.49	229.58
382.87	229.53
383.25	229.49
383.62	229.65
384.00	229.58
384.38	229.54
384.76	229.54
385.13	229.55
385.51	229.51
385.89	229.45
386.27	229.42
386.64	229.41
387.02	229.36
387.40	229.31
387.78	229.29
388.15	229.27
388.53	229.25
388.91	229.24
389.29	229.21
389.66	229.22
390.04	229.17
390.42	229.17
390.79	229.16
391.17	229.14
391.55	228.93
391.92	228.93
392.30	228.95
392.68	228.91
393.05	228.90
393.43	228.92
393.81	228.95
394.18	228.92
394.56	228.94
394.94	228.99
395.31	229.00
395.69	229.09
396.06	229.14
396.44	229.19
396.82	229.20
397.19	229.33
397.57	229.36
397.95	229.44
398.32	229.44
398.70	229.52
399.07	229.62
399.45	229.68
399.82	229.75
400.20	229.81
400.58	229.90
400.95	229.92
401.33	230.04
401.70	230.27
402.08	230.41
402.45	230.54
402.83	230.72
403.20	230.89
403.58	231.00
403.95	231.22
404.33	231.43
404.71	231.64
405.08	231.95
405.46	232.21
405.83	232.47
406.21	232.77
406.58	233.10
406.96	233.43
407.33	233.81
407.70	234.24
408.08	234.81
408.45	235.31
408.83	235.86
409.20	236.37
409.58	236.83
409.95	237.47
410.33	238.15
410.70	238.80
411.08	239.56
411.45	240.38
411.82	241.20
412.20	242.13
412.57	243.24
412.95	244.13
413.32	245.26
413.69	246.45
414.07	247.72
414.44	249.09
414.82	250.49
415.19	252.13
415.56	253.79
415.94	255.54
416.31	257.49
416.68	259.46
417.06	261.73
417.43	263.86
417.81	266.31
418.18	268.80
418.55	271.52
418.93	274.35
419.30	277.32
419.67	280.46
420.04	283.70
420.42	287.09
420.79	290.98
421.16	294.91
421.54	298.89
421.91	303.06
422.28	307.40
422.66	312.08
423.03	316.51
423.40	321.17
423.77	326.15
424.15	331.25
424.52	336.51
424.89	342.21
425.26	347.89
425.64	353.15
426.01	359.05
426.38	365.09
426.75	371.31
427.13	377.64
427.50	384.30
427.87	391.18
428.24	398.13
428.61	404.82
428.99	412.01
429.36	419.90
429.73	427.42
430.10	434.91
430.47	442.56
430.85	450.50
431.22	458.95
431.59	467.60
431.96	476.05
432.33	485.44
432.70	494.38
433.08	504.96
433.45	514.94
433.82	524.78
434.19	535.82
434.56	546.67
434.93	557.23
435.30	567.65
435.68	579.51
436.05	591.09
436.42	602.67
436.79	613.25
437.16	624.73
437.53	637.06
437.90	649.36
438.27	661.47
438.64	674.51
439.01	686.38
439.38	697.27
439.75	707.79
440.13	719.83
440.50	731.24
440.87	740.38
441.24	750.42
441.61	761.41
441.98	769.55
442.35	779.21
442.72	789.06
443.09	798.44
443.46	804.57
443.83	809.27
444.20	813.15
444.57	818.79
444.94	822.18
445.31	825.66
445.68	828.70
446.05	831.01
446.42	830.82
446.79	830.36
447.16	830.04
447.53	829.82
447.90	826.36
448.27	823.09
448.64	817.88
449.01	814.31
449.37	806.84
449.74	800.05
450.11	791.23
450.48	781.48
450.85	771.77
451.22	763.38
451.59	755.13
451.96	747.70
452.33	736.81
452.70	727.15
453.07	715.42
453.43	703.71
453.80	692.25
454.17	681.32
454.54	671.20
454.91	659.76
455.28	648.93
455.65	638.77
456.02	627.99
456.38	619.30
456.75	608.18
457.12	599.20
457.49	590.12
457.86	581.55
458.23	573.99
458.59	565.64
458.96	557.09
459.33	549.57
459.70	541.91
460.07	536.09
460.43	529.20
460.80	522.76
461.17	517.15
461.54	511.10
461.91	505.42
462.27	499.67
462.64	494.95
463.01	489.56
463.38	484.10
463.74	479.20
464.11	474.86
464.48	470.90
464.85	466.64
465.21	463.40
465.58	459.78
465.95	455.70
466.32	452.43
466.68	449.25
467.05	446.01
467.42	442.88
467.78	439.51
468.15	436.44
468.52	434.16
468.88	431.17
469.25	428.42
469.62	426.25
469.98	423.86
470.35	421.74
470.72	419.83
471.08	417.90
471.45	416.29
471.82	414.45
472.18	412.56
472.55	411.33
472.92	409.78
473.28	408.59
473.65	407.29
474.02	406.06
474.38	405.02
474.75	404.40
475.11	403.56
475.48	403.16
475.85	402.73
476.21	402.47
476.58	402.28
476.94	402.45
477.31	402.48
477.67	402.59
478.04	402.90
478.41	403.34
478.77	403.95
479.14	404.32
479.50	405.13
479.87	406.16
480.23	407.13
480.60	408.10
480.96	409.03
481.33	410.47
481.69	411.92
482.06	413.35
482.42	414.64
482.79	416.25
483.15	418.13
483.52	420.26
483.88	422.28
484.25	424.43
484.61	426.70
484.98	429.13
485.34	431.86
485.71	434.71
486.07	437.76
486.44	440.78
486.80	444.18
487.17	447.65
487.53	451.41
487.90	455.36
488.26	459.68
488.62	464.22
488.99	468.73
489.35	473.45
489.72	478.54
490.08	483.92
490.44	489.40
490.81	495.12
491.17	501.00
491.54	507.30
491.90	513.73
492.26	520.57
492.63	527.75
492.99	535.26
493.36	542.92
493.72	550.94
494.08	559.18
494.45	567.78
494.81	576.78
495.17	586.03
495.54	595.79
495.90	605.99
496.26	616.35
496.63	627.01
496.99	638.05
497.35	649.61
497.72	661.42
498.08	673.58
498.44	686.04
498.80	699.19
499.17	712.65
499.53	726.53
499.89	740.87
500.26	755.39
500.62	770.20
500.98	785.87
501.34	801.59
501.71	818.08
502.07	834.83
502.43	852.06
502.79	869.48
503.16	887.38
503.52	905.43
503.88	923.93
504.24	942.85
504.60	962.05
504.97	981.82
505.33	1002.03
505.69	1023.25
506.05	1044.62
506.41	1065.85
506.78	1087.23
507.14	1109.26
507.50	1131.65
507.86	1154.44
508.22	1177.45
508.59	1200.22
508.95	1224.13
509.31	1248.43
509.67	1273.31
510.03	1298.10
510.39	1322.83
510.75	1347.59
511.12	1372.73
511.48	1397.90
511.84	1423.12
512.20	1448.61
512.56	1475.04
512.92	1501.29
513.28	1526.94
513.64	1553.04
514.00	1579.36
514.37	1605.90
514.73	1632.42
515.09	1658.27
515.45	1684.39
515.81	1710.57
516.17	1736.49
516.53	1761.75
516.89	1786.95
517.25	1812.38
517.61	1837.57
517.97	1863.27
518.33	1888.37
518.69	1913.29
519.05	1938.65
519.41	1964.08
519.77	1989.41
520.13	2013.32
520.49	2037.37
520.85	2061.68
521.21	2085.28
521.57	2109.29
521.93	2132.32
522.29	2155.86
522.65	2179.26
523.01	2202.33
523.37	2224.72
523.73	2247.87
524.09	2270.64
524.45	2292.84
524.81	2314.46
525.17	2335.77
525.53	2356.51
525.89	2377.55
526.25	2398.19
526.61	2417.32
526.97	2436.43
527.33	2455.40
527.68	2473.95
528.04	2492.05
528.40	2508.80
528.76	2525.95
529.12	2542.63
529.48	2559.70
529.84	2574.13
530.20	2588.96
530.56	2602.92
530.91	2617.10
531.27	2630.64
531.63	2643.23
531.99	2655.73
532.35	2667.71
532.71	2679.31
533.07	2691.16
533.42	2701.12
533.78	2711.42
534.14	2722.49
534.50	2732.43
534.86	2742.85
535.21	2751.39
535.57	2759.70
535.93	2767.97
536.29	2774.45
536.65	2780.66
537.00	2785.42
537.36	2791.63
537.72	2796.72
538.08	2801.23
538.44	2804.81
538.79	2808.11
539.15	2809.97
539.51	2811.19
539.87	2811.37
540.22	2810.14
540.58	2809.07
540.94	2809.03
541.29	2807.62
541.65	2804.96
542.01	2801.91
542.37	2797.38
542.72	2794.22
543.08	2789.59
543.44	2785.20
543.79	2780.17
544.15	2774.57
544.51	2769.32
544.87	2762.77
545.22	2755.55
545.58	2748.34
545.94	2741.18
546.29	2732.53
546.65	2724.30
547.01	2716.05
547.36	2708.10
547.72	2700.38
548.07	2690.98
548.43	2680.57
548.79	2669.94
549.14	2659.68
549.50	2649.55
549.86	2638.54
550.21	2626.02
550.57	2614.40
550.92	2601.19
551.28	2588.66
551.64	2576.21
551.99	2563.48
552.35	2550.43
552.70	2537.29
553.06	2524.53
553.41	2511.32
553.77	2497.91
554.13	2484.62
554.48	2470.35
554.84	2455.55
555.19	2441.20
555.55	2426.70
555.90	2412.54
556.26	2398.80
556.61	2383.88
556.97	2368.11
557.32	2352.80
557.68	2337.87
558.03	2322.71
558.39	2308.38
558.74	2294.55
559.10	2279.07
559.45	2263.94
559.81	2249.53
560.16	2234.67
560.52	2219.69
560.87	2204.89
561.23	2189.78
561.58	2175.11
561.94	2160.00
562.29	2144.44
562.64	2129.04
563.00	2113.86
563.35	2098.79
563.71	2083.39
564.06	2068.20
564.42	2053.49
564.77	2038.76
565.12	2023.85
565.48	2008.80
565.83	1994.10
566.19	1979.34
566.54	1964.85
566.89	1949.71
567.25	1934.36
567.60	1919.99
567.96	1904.73
568.31	1888.54
568.66	1873.35
569.02	1858.62
569.37	1844.43
569.72	1830.84
570.08	1816.81
570.43	1802.26
570.78	1787.55
571.14	1772.63
571.49	1757.87
571.84	1743.37
572.20	1727.88
572.55	1713.14
572.90	1698.46
573.26	1683.61
573.61	1668.20
573.96	1653.36
574.31	1638.38
574.67	1623.50
575.02	1608.19
575.37	1593.04
575.72	1578.48
576.08	1563.73
576.43	1548.45
576.78	1533.25
577.13	1518.25
577.49	1503.54
577.84	1489.20
578.19	1474.40
578.54	1459.76
578.90	1445.08
579.25	1430.33
579.60	1416.61
579.95	1402.68
580.30	1388.66
580.66	1374.43
581.01	1360.29
581.36	1346.33
581.71	1333.11
582.06	1319.75
582.42	1306.30
582.77	1293.33
583.12	1280.61
583.47	1267.76
583.82	1255.13
584.17	1242.15
584.53	1229.21
584.88	1216.49
585.23	1203.69
585.58	1191.31
585.93	1178.87
586.28	1167.30
586.63	1155.58
586.98	1143.54
587.34	1131.86
587.69	1120.00
588.04	1108.59
588.39	1097.43
588.74	1085.83
589.09	1074.41
589.44	1062.78
589.79	1051.64
590.14	1040.59
590.49	1029.58
590.84	1018.80
591.19	1008.23
591.54	997.81
591.89	987.01
592.25	976.60
592.60	966.05
592.95	955.68
593.30	945.58
593.65	935.24
594.00	925.15
594.35	915.94
594.70	906.04
595.05	896.80
595.40	887.30
595.75	877.68
596.10	868.67
596.45	859.65
596.80	850.90
597.15	842.25
597.50	833.59
597.85	825.08
598.19	816.60
598.54	808.16
598.89	800.17
599.24	792.57
599.59	784.80
599.94	777.60
600.29	770.38
600.64	763.06
600.99	755.63
601.34	748.43
601.69	740.74
602.04	733.85
602.39	726.85
602.74	720.03
603.08	713.40
603.43	706.70
603.78	699.99
604.13	693.40
604.48	686.84
604.83	680.48
605.18	674.21
605.53	668.09
605.87	661.93
606.22	655.90
606.57	649.79
606.92	643.58
607.27	637.42
607.62	631.49
607.96	625.77
608.31	620.43
608.66	615.04
609.01	609.89
609.36	604.73
609.70	599.47
610.05	594.31
610.40	589.25
610.75	584.23
611.10	579.40
611.44	574.59
611.79	569.87
612.14	565.05
612.49	560.34
612.83	555.84
613.18	551.40
613.53	546.94
613.88	542.66
614.22	538.69
614.57	534.63
614.92	530.63
615.27	526.76
615.61	522.84
615.96	518.94
616.31	515.03
616.65	511.28
617.00	507.64
617.35	504.02
617.70	500.44
618.04	496.94
618.39	493.52
618.74	490.32
619.08	487.11
619.43	483.98
619.78	480.81
620.12	477.67
620.47	474.73
620.82	471.80
621.16	468.87
621.51	466.00
621.85	463.15
622.20	460.39
622.55	457.59
622.89	454.82
623.24	452.21
623.59	449.66
623.93	447.19
624.28	444.84
624.62	442.69
624.97	440.52
625.32	438.28
625.66	436.00
626.01	433.69
626.35	431.51
626.70	429.29
627.04	427.27
627.39	425.17
627.73	423.14
628.08	421.22
628.43	419.30
628.77	417.27
629.12	415.40
629.46	413.59
629.81	411.91
630.15	410.15
630.50	408.41
630.84	406.70
631.19	405.02
631.53	403.41
631.88	401.64
632.22	399.98
632.57	398.55
632.91	397.11
633.26	395.74
633.60	394.36
633.95	393.09
634.29	391.64
634.64	390.30
634.98	388.81
635.32	387.48
635.67	386.28
636.01	385.08
636.36	383.91
636.70	382.86
637.05	381.62
637.39	380.52
637.73	379.41
638.08	378.36
638.42	377.37
638.77	376.26
639.11	375.09
639.45	373.94
639.80	372.77
640.14	371.68
640.49	370.58
640.83	369.48
641.17	368.38
641.52	367.34
641.86	366.32
642.20	365.49
642.55	364.45
642.89	363.42
643.23	362.47
643.58	361.59
643.92	360.58
644.26	359.66
644.61	358.79
644.95	357.85
645.29	356.85
645.64	355.82
645.98	354.91
646.32	354.13
646.66	353.29
647.01	352.43
647.35	351.68
647.69	350.89
648.04	350.17
648.38	349.40
648.72	348.66
649.06	347.91
649.41	347.09
649.75	346.35
650.09	345.66
650.43	344.92
650.78	344.17
651.12	343.44
651.46	342.71
651.80	342.00
652.14	341.34
652.49	340.75
652.83	340.08
653.17	339.38
653.51	338.70
653.85	338.12
654.20	337.52
654.54	336.79
654.88	336.09
655.22	335.46
655.56	334.79
655.90	334.15
656.25	333.52
656.59	332.91
656.93	332.33
657.27	331.80
657.61	331.20
657.95	330.64
658.29	330.07
658.64	329.52
658.98	328.91
659.32	328.32
659.66	327.75
660.00	327.24
660.34	326.71
660.68	326.14
661.02	325.50
661.36	324.91
661.70	324.38
662.05	323.85
662.39	323.32
662.73	322.87
663.07	322.46
663.41	322.00
663.75	321.48
664.09	320.96
664.43	320.34
664.77	319.82
665.11	319.21
665.45	318.69
665.79	318.18
666.13	317.65
666.47	317.12
666.81	316.55
667.15	315.96
667.49	315.51
667.83	315.07
668.17	314.62
668.51	314.18
668.85	313.76
669.19	313.40
669.53	312.87
669.87	312.31
670.21	311.78
670.55	311.28
670.89	310.89
671.23	310.44
671.57	310.06
671.91	309.70
672.25	309.37
672.58	309.05
672.92	308.61
673.26	308.27
673.60	307.90
673.94	307.55
674.28	307.21
674.62	306.82
674.96	306.37
675.30	305.98
675.64	305.54
675.97	305.07
676.31	304.60
676.65	304.17
676.99	303.84
677.33	303.39
677.67	302.98
678.01	302.49
678.34	302.06
678.68	301.66
679.02	301.19
679.36	300.75
679.70	300.27
680.04	299.88
680.37	299.47
680.71	299.07
681.05	298.70
681.39	298.26
681.73	297.81
682.06	297.39
682.40	296.99
682.74	296.63
683.08	296.34
683.42	295.96
683.75	295.60
684.09	295.14
684.43	294.75
684.77	294.33
685.10	293.95
685.44	293.56
685.78	293.16
686.12	292.77
686.45	292.35
686.79	291.92
687.13	291.52
687.46	291.06
687.80	290.65
688.14	290.18
688.48	289.78
688.81	289.37
689.15	289.03
689.49	288.60
689.82	288.16
690.16	287.62
690.50	287.17
690.83	286.73
691.17	286.27
691.51	285.86
691.84	285.48
692.18	285.03
692.52	284.58
692.85	284.14
693.19	283.79
693.52	283.36
693.86	282.94
694.20	282.51
694.53	282.09
694.87	281.64
695.21	281.20
695.54	280.76
695.88	280.32
696.21	279.82
696.55	279.39
696.88	278.96
697.22	278.54
697.56	278.15
697.89	277.69
698.23	277.30
698.56	276.87
698.90	276.46
699.23	276.03
699.57	275.64
699.90	275.23
700.24	274.78
700.58	274.39
700.91	274.05
701.25	273.82
701.58	273.52
701.92	273.18
702.25	272.83
702.59	272.46
702.92	272.07
703.26	271.69
703.59	271.31
703.93	271.07
704.26	270.73
704.60	270.35
704.93	270.00
705.26	269.62
705.60	269.30
705.93	268.90
706.27	268.61
706.60	268.30
706.94	268.01
707.27	267.62
707.61	267.24
707.94	266.84
708.27	266.33
708.61	265.90
708.94	265.51
709.28	265.15
709.61	264.78
709.94	264.47
710.28	264.16
710.61	263.85
710.95	263.37
711.28	263.16
711.61	262.82
711.95	262.53
712.28	262.19
712.61	261.84
712.95	261.62
713.28	261.35
713.61	260.99
713.95	260.63
714.28	260.33
714.61	260.02
714.95	259.71
715.28	259.41
715.61	259.12
715.95	258.84
716.28	258.54
716.61	258.28
716.95	257.97
717.28	257.68
717.61	257.38
717.94	257.11
718.28	256.71
718.61	256.44
718.94	256.13
719.27	255.88
719.61	255.64
719.94	255.34
720.27	255.00
720.60	254.75
720.94	254.48
721.27	254.24
721.60	254.02
721.93	253.77
722.27	253.57
722.60	253.32
722.93	253.06
723.26	252.84
723.59	252.57
723.93	252.37
724.26	252.15
724.59	251.91
724.92	251.71
725.25	251.54
725.59	251.32
725.92	251.13
726.25	250.90
726.58	250.68
726.91	250.45
727.24	250.24
727.57	250.02
727.91	249.79
728.24	249.61
728.57	249.39
728.90	249.21
729.23	248.95
729.56	248.83
729.89	248.64
730.22	248.42
730.55	248.23
730.89	248.04
731.22	247.83
731.55	247.65
731.88	247.46
732.21	247.25
732.54	247.07
732.87	246.89
733.20	246.71
733.53	246.54
733.86	246.40
734.19	246.21
734.52	246.07
734.85	246.05
735.18	245.85
735.51	245.75
735.84	245.59
736.17	245.48
736.50	245.23
736.83	245.28
737.16	245.12
737.49	244.96
737.82	244.78
738.15	244.65
738.48	244.49
738.81	244.33
739.14	244.15
739.47	243.96
739.80	243.80
740.13	243.68
740.46	243.49
740.79	243.31
741.12	243.14
741.45	242.95
741.78	242.70
742.11	242.60
742.44	242.39
742.77	242.26
743.10	242.08
743.43	241.95
743.75	241.62
744.08	241.75
744.41	241.59
744.74	241.46
745.07	241.28
745.40	241.18
745.73	241.11
746.06	241.00
746.39	240.90
746.71	240.76
747.04	240.60
747.37	240.47
747.70	240.36
748.03	240.26
748.36	240.16
748.68	240.04
749.01	239.87
749.34	239.76
749.67	239.64
750.00	239.55
750.33	239.55
750.65	239.45
750.98	239.08
751.31	238.99
751.64	238.89
751.97	238.88
752.29	238.74
752.62	238.56
752.95	238.44
753.28	238.30
753.60	238.19
753.93	238.13
754.26	238.04
754.59	237.89
754.91	237.77
755.24	237.65
755.57	237.54
755.90	237.43
756.22	237.31
756.55	237.18
756.88	237.04
757.20	236.83
757.53	236.68
757.86	236.58
758.19	236.50
758.51	236.40
758.84	236.23
759.17	236.13
759.49	236.04
759.82	236.03
760.15	235.97
760.47	235.88
760.80	235.75
761.13	235.70
761.45	235.61
761.78	235.53
762.11	235.45
762.43	235.36
762.76	235.29
763.08	235.24
763.41	235.18
763.74	235.12
764.06	235.03
764.39	234.96
764.71	234.89
765.04	234.80
765.37	234.72
765.69	234.64
766.02	234.56
766.34	234.49
766.67	234.35
767.00	234.30
767.32	234.34
767.65	234.38
767.97	234.30
768.30	234.25
768.62	234.18
768.95	234.10
769.27	234.02
769.60	233.98
769.92	233.88
770.25	233.77
770.57	233.69
770.90	233.64
771.22	233.56
771.55	233.51
771.87	233.47
772.20	233.41
772.52	233.51
772.85	233.66
773.17	233.60
773.50	233.54
773.82	233.46
774.15	233.31
774.47	233.16
774.80	233.08
775.12	233.04
775.45	232.99
775.77	232.97
776.09	232.93
776.42	232.88
776.74	232.89
777.07	232.84
777.39	232.80
777.72	232.75
778.04	232.73
778.36	232.67
778.69	232.63
779.01	232.61
779.33	232.41
779.66	232.18
779.98	232.13
780.31	232.11
780.63	232.14
780.95	232.14
781.28	232.09
781.60	232.05
781.92	232.02
782.25	231.98
782.57	231.93
782.89	231.89
783.22	231.85
783.54	231.78
783.86	231.78
784.19	231.74
784.51	231.75
784.83	231.71
785.16	231.67
785.48	231.63
785.80	231.59
786.12	231.58
786.45	231.55
786.77	231.53
787.09	231.50
787.42	231.40
787.74	231.38
788.06	231.37
788.38	231.34
788.71	231.29
789.03	231.27
789.35	231.27
789.67	231.22
789.99	231.21
790.32	231.16
790.64	231.15
790.96	231.29
791.28	231.21
791.61	231.18
791.93	231.16
792.25	231.13
792.57	231.24
792.89	231.18
793.21	231.16
793.54	231.11
793.86	231.06
794.18	231.04
794.50	230.99
794.82	230.97
795.14	230.97
795.47	230.98
795.79	230.96
796.11	230.90
796.43	230.87
796.75	230.85
797.07	230.84
797.39	230.80
797.71	230.63
798.04	230.62
798.36	230.60
798.68	230.58
799.00	230.57
799.32	230.46
799.64	230.48
799.96	230.46
800.28	230.48
800.60	230.46
800.92	230.45
801.24	230.42
801.56	230.41
801.89	230.36
802.21	230.34
802.53	230.30
802.85	230.32
803.17	230.39
803.49	230.33
803.81	230.30
804.13	230.27
804.45	230.24
804.77	230.23
805.09	230.22
805.41	230.19
805.73	230.14
806.05	230.08
806.37	230.04
806.69	230.00
807.01	229.97
807.33	229.96
807.65	229.87
807.97	229.94
808.28	229.90
808.60	229.88
808.92	229.84
809.24	229.93
809.56	229.88
809.88	229.80
810.20	229.80
810.52	229.80
810.84	229.75
811.16	229.72
811.48	229.70
811.80	229.74
812.12	229.72
812.43	229.74
812.75	229.75
813.07	229.71
813.39	229.71
813.71	229.67
814.03	229.65
814.35	229.66
814.67	229.57
814.98	229.55
815.30	229.54
815.62	229.49
815.94	229.37
816.26	229.38
816.58	229.34
816.89	229.34
817.21	229.29
817.53	229.30
817.85	229.29
818.17	229.29
818.48	229.20
818.80	229.23
