SpectraSuite Data File
++++++++++++++++++++++++++++++++++++
Date: Tue Oct 06 11:29:34 EDT 2015
User: lab3
Dark Spectrum Present: No
Reference Spectrum Present: No
Number of Sampled Component Spectra: 1
Spectrometers: USB2E7196
Integration Time (usec): 66000 (USB2E7196)
Spectra Averaged: 1000 (USB2E7196)
Boxcar Smoothing: 10 (USB2E7196)
Correct for Electrical Dark: No (USB2E7196)
Strobe/Lamp Enabled: No (USB2E7196)
Correct for Detector Non-linearity: No (USB2E7196)
Correct for Stray Light: No (USB2E7196)
Number of Pixels in Processed Spectrum: 2048
>>>>>Begin Processed Spectral Data<<<<<
339.09	0.00
339.48	216.22
339.86	217.51
340.24	219.06
340.63	220.36
341.01	224.42
341.39	223.15
341.78	224.51
342.16	226.07
342.54	225.97
342.93	214.60
343.31	225.43
343.69	225.97
344.07	226.44
344.46	226.87
344.84	227.28
345.22	227.47
345.60	227.74
345.99	227.94
346.37	228.08
346.75	228.19
347.13	228.27
347.52	228.36
347.90	228.48
348.28	228.53
348.66	228.60
349.05	228.59
349.43	228.66
349.81	228.73
350.19	228.79
350.57	228.87
350.96	228.98
351.34	229.08
351.72	229.18
352.10	229.29
352.48	229.36
352.87	229.41
353.25	229.48
353.63	229.53
354.01	229.59
354.39	229.68
354.77	229.77
355.15	229.88
355.54	229.92
355.92	229.91
356.30	229.98
356.68	230.18
357.06	230.25
357.44	230.29
357.82	230.35
358.20	230.57
358.58	230.61
358.97	230.66
359.35	230.76
359.73	230.85
360.11	230.92
360.49	230.98
360.87	231.03
361.25	231.11
361.63	231.21
362.01	231.27
362.39	231.29
362.77	231.34
363.15	231.37
363.53	231.41
363.91	231.47
364.29	231.50
364.67	231.34
365.05	231.37
365.43	231.41
365.81	231.44
366.19	231.39
366.57	231.48
366.95	231.49
367.33	231.44
367.71	231.44
368.09	231.47
368.47	231.47
368.85	231.45
369.23	231.47
369.61	231.39
369.99	231.44
370.37	231.45
370.75	231.56
371.13	231.53
371.51	231.48
371.89	231.46
372.27	231.44
372.65	231.43
373.03	231.38
373.41	231.33
373.78	231.29
374.16	231.16
374.54	231.06
374.92	231.01
375.30	230.96
375.68	230.89
376.06	230.85
376.44	230.79
376.82	230.76
377.19	230.72
377.57	230.67
377.95	230.56
378.33	230.49
378.71	230.28
379.09	230.24
379.47	230.22
379.84	230.16
380.22	230.08
380.60	230.00
380.98	229.96
381.36	229.91
381.73	229.85
382.11	229.83
382.49	229.79
382.87	229.73
383.25	229.70
383.62	229.87
384.00	229.78
384.38	229.74
384.76	229.74
385.13	229.75
385.51	229.71
385.89	229.66
386.27	229.63
386.64	229.63
387.02	229.57
387.40	229.53
387.78	229.51
388.15	229.51
388.53	229.49
388.91	229.46
389.29	229.43
389.66	229.44
390.04	229.41
390.42	229.42
390.79	229.42
391.17	229.40
391.55	229.19
391.92	229.20
392.30	229.22
392.68	229.17
393.05	229.15
393.43	229.16
393.81	229.19
394.18	229.17
394.56	229.18
394.94	229.24
395.31	229.23
395.69	229.31
396.06	229.35
396.44	229.40
396.82	229.43
397.19	229.57
397.57	229.59
397.95	229.64
398.32	229.65
398.70	229.71
399.07	229.82
399.45	229.87
399.82	229.94
400.20	229.99
400.58	230.08
400.95	230.10
401.33	230.24
401.70	230.46
402.08	230.61
402.45	230.74
402.83	230.91
403.20	231.08
403.58	231.20
403.95	231.40
404.33	231.60
404.71	231.81
405.08	232.11
405.46	232.35
405.83	232.63
406.21	232.92
406.58	233.24
406.96	233.56
407.33	233.96
407.70	234.38
408.08	234.95
408.45	235.46
408.83	236.01
409.20	236.51
409.58	236.96
409.95	237.57
410.33	238.25
410.70	238.90
411.08	239.65
411.45	240.45
411.82	241.27
412.20	242.22
412.57	243.32
412.95	244.21
413.32	245.36
413.69	246.54
414.07	247.79
414.44	249.18
414.82	250.58
415.19	252.21
415.56	253.87
415.94	255.60
416.31	257.56
416.68	259.51
417.06	261.78
417.43	263.90
417.81	266.34
418.18	268.84
418.55	271.57
418.93	274.43
419.30	277.39
419.67	280.54
420.04	283.79
420.42	287.20
420.79	291.10
421.16	295.04
421.54	299.04
421.91	303.21
422.28	307.56
422.66	312.23
423.03	316.68
423.40	321.37
423.77	326.38
424.15	331.50
424.52	336.80
424.89	342.53
425.26	348.23
425.64	353.55
426.01	359.50
426.38	365.57
426.75	371.81
427.13	378.20
427.50	384.88
427.87	391.79
428.24	398.75
428.61	405.43
428.99	412.62
429.36	420.57
429.73	428.19
430.10	435.72
430.47	443.48
430.85	451.51
431.22	460.06
431.59	468.78
431.96	477.29
432.33	486.78
432.70	495.83
433.08	506.56
433.45	516.70
433.82	526.63
434.19	537.73
434.56	548.65
434.93	559.23
435.30	569.73
435.68	581.67
436.05	593.32
436.42	605.00
436.79	615.69
437.16	627.17
437.53	639.55
437.90	651.97
438.27	664.05
438.64	677.04
439.01	688.88
439.38	699.86
439.75	710.43
440.13	722.49
440.50	733.94
440.87	743.01
441.24	752.94
441.61	763.90
441.98	771.94
442.35	781.49
442.72	791.25
443.09	800.61
443.46	806.79
443.83	811.37
444.20	815.14
444.57	820.68
444.94	824.07
445.31	827.42
445.68	830.28
446.05	832.39
446.42	832.07
446.79	831.50
447.16	831.01
447.53	830.67
447.90	827.15
448.27	823.66
448.64	818.29
449.01	814.69
449.37	807.14
449.74	800.38
450.11	791.55
450.48	781.85
450.85	772.01
451.22	763.46
451.59	755.18
451.96	747.76
452.33	736.92
452.70	727.21
453.07	715.48
453.43	703.81
453.80	692.50
454.17	681.67
454.54	671.57
454.91	660.12
455.28	649.30
455.65	639.00
456.02	628.25
456.38	619.58
456.75	608.39
457.12	599.34
457.49	590.16
457.86	581.60
458.23	574.06
458.59	565.74
458.96	557.21
459.33	549.71
459.70	542.07
460.07	536.17
460.43	529.27
460.80	522.78
461.17	517.10
461.54	511.02
461.91	505.33
462.27	499.57
462.64	494.87
463.01	489.46
463.38	484.10
463.74	479.26
464.11	474.97
464.48	471.08
464.85	466.83
465.21	463.62
465.58	460.01
465.95	455.90
466.32	452.59
466.68	449.36
467.05	446.10
467.42	442.93
467.78	439.59
468.15	436.48
468.52	434.21
468.88	431.20
469.25	428.48
469.62	426.29
469.98	423.90
470.35	421.75
470.72	419.82
471.08	417.83
471.45	416.13
471.82	414.25
472.18	412.33
472.55	411.09
472.92	409.53
473.28	408.30
473.65	406.99
474.02	405.78
474.38	404.77
474.75	404.15
475.11	403.27
475.48	402.83
475.85	402.42
476.21	402.18
476.58	402.01
476.94	402.22
477.31	402.26
477.67	402.39
478.04	402.70
478.41	403.12
478.77	403.72
479.14	404.09
479.50	404.86
479.87	405.85
480.23	406.85
480.60	407.81
480.96	408.76
481.33	410.21
481.69	411.64
482.06	413.06
482.42	414.38
482.79	416.02
483.15	417.92
483.52	420.04
483.88	422.10
484.25	424.31
484.61	426.60
484.98	429.05
485.34	431.83
485.71	434.71
486.07	437.80
486.44	440.83
486.80	444.22
487.17	447.70
487.53	451.52
487.90	455.51
488.26	459.84
488.62	464.41
488.99	469.00
489.35	473.84
489.72	479.05
490.08	484.52
490.44	490.06
490.81	495.80
491.17	501.68
491.54	507.94
491.90	514.35
492.26	521.18
492.63	528.32
492.99	535.74
493.36	543.45
493.72	551.56
494.08	559.82
494.45	568.54
494.81	577.62
495.17	586.91
495.54	596.69
495.90	606.91
496.26	617.39
496.63	628.05
496.99	639.11
497.35	650.60
497.72	662.48
498.08	674.80
498.44	687.39
498.80	700.77
499.17	714.45
499.53	728.61
499.89	743.20
500.26	757.84
500.62	772.80
500.98	788.43
501.34	804.24
501.71	820.78
502.07	837.62
502.43	854.91
502.79	872.29
503.16	890.10
503.52	908.15
503.88	926.60
504.24	945.51
504.60	964.70
504.97	984.37
505.33	1004.41
505.69	1025.47
506.05	1046.61
506.41	1067.54
506.78	1088.80
507.14	1110.82
507.50	1133.29
507.86	1156.31
508.22	1179.37
508.59	1202.29
508.95	1225.95
509.31	1250.11
509.67	1274.73
510.03	1299.25
510.39	1324.03
510.75	1348.99
511.12	1374.16
511.48	1399.19
511.84	1424.31
512.20	1449.77
512.56	1475.82
512.92	1501.67
513.28	1526.94
513.64	1552.67
514.00	1578.46
514.37	1604.54
514.73	1630.43
515.09	1655.67
515.45	1681.05
515.81	1706.41
516.17	1731.85
516.53	1756.64
516.89	1781.43
517.25	1806.32
517.61	1831.10
517.97	1856.07
518.33	1880.29
518.69	1904.34
519.05	1928.64
519.41	1952.84
519.77	1976.91
520.13	2000.47
520.49	2024.00
520.85	2047.73
521.21	2070.91
521.57	2094.63
521.93	2116.98
522.29	2139.69
522.65	2161.97
523.01	2184.21
523.37	2205.71
523.73	2227.51
524.09	2249.42
524.45	2271.05
524.81	2291.97
525.17	2312.45
525.53	2332.33
525.89	2352.74
526.25	2372.36
526.61	2390.90
526.97	2409.56
527.33	2427.89
527.68	2445.12
528.04	2461.74
528.40	2477.26
528.76	2493.37
529.12	2508.14
529.48	2523.67
529.84	2537.82
530.20	2552.86
530.56	2566.69
530.91	2580.67
531.27	2593.64
531.63	2605.53
531.99	2616.87
532.35	2627.09
532.71	2637.09
533.07	2647.44
533.42	2656.15
533.78	2665.62
534.14	2675.56
534.50	2684.01
534.86	2692.52
535.21	2699.03
535.57	2705.93
535.93	2713.25
536.29	2719.21
536.65	2725.12
537.00	2728.92
537.36	2733.20
537.72	2735.91
538.08	2738.44
538.44	2739.81
538.79	2741.75
539.15	2742.84
539.51	2743.49
539.87	2744.19
540.22	2743.28
540.58	2742.70
540.94	2741.96
541.29	2740.08
541.65	2736.59
542.01	2733.24
542.37	2728.81
542.72	2726.26
543.08	2722.04
543.44	2717.62
543.79	2711.62
544.15	2705.37
544.51	2700.11
544.87	2692.89
545.22	2685.13
545.58	2677.28
545.94	2669.99
546.29	2661.25
546.65	2652.41
547.01	2643.58
547.36	2634.37
547.72	2625.24
548.07	2614.60
548.43	2603.82
548.79	2592.07
549.14	2581.13
549.50	2570.05
549.86	2558.46
550.21	2545.31
550.57	2533.31
550.92	2519.19
551.28	2506.09
551.64	2493.63
551.99	2480.82
552.35	2468.01
552.70	2455.27
553.06	2442.85
553.41	2429.64
553.77	2415.76
554.13	2401.88
554.48	2387.46
554.84	2372.80
555.19	2358.68
555.55	2344.18
555.90	2329.56
556.26	2315.88
556.61	2301.18
556.97	2285.66
557.32	2270.64
557.68	2255.56
558.03	2240.15
558.39	2225.66
558.74	2211.29
559.10	2195.07
559.45	2179.47
559.81	2164.76
560.16	2149.70
560.52	2134.33
560.87	2119.58
561.23	2104.36
561.58	2089.46
561.94	2073.89
562.29	2058.45
562.64	2042.99
563.00	2027.83
563.35	2013.30
563.71	1998.32
564.06	1983.34
564.42	1968.86
564.77	1954.16
565.12	1940.07
565.48	1925.84
565.83	1911.81
566.19	1897.68
566.54	1883.84
566.89	1868.93
567.25	1853.60
567.60	1839.29
567.96	1824.45
568.31	1809.03
568.66	1794.35
569.02	1779.94
569.37	1765.72
569.72	1751.73
570.08	1737.78
570.43	1723.53
570.78	1708.63
571.14	1693.77
571.49	1679.31
571.84	1665.61
572.20	1650.75
572.55	1636.11
572.90	1621.07
573.26	1605.90
573.61	1590.67
573.96	1576.10
574.31	1561.99
574.67	1548.17
575.02	1533.47
575.37	1518.65
575.72	1504.09
576.08	1489.95
576.43	1475.62
576.78	1461.42
577.13	1447.26
577.49	1433.24
577.84	1419.26
578.19	1405.31
578.54	1391.52
578.90	1377.77
579.25	1363.37
579.60	1350.06
579.95	1336.78
580.30	1323.43
580.66	1310.21
581.01	1297.24
581.36	1284.01
581.71	1270.77
582.06	1257.50
582.42	1244.42
582.77	1231.85
583.12	1219.38
583.47	1206.80
583.82	1194.48
584.17	1182.03
584.53	1169.83
584.88	1157.71
585.23	1145.55
585.58	1133.72
585.93	1121.96
586.28	1110.74
586.63	1099.51
586.98	1088.17
587.34	1077.15
587.69	1066.00
588.04	1055.21
588.39	1044.49
588.74	1033.57
589.09	1023.05
589.44	1012.32
589.79	1002.10
590.14	991.95
590.49	981.95
590.84	972.16
591.19	962.39
591.54	952.68
591.89	942.58
592.25	932.75
592.60	922.88
592.95	913.25
593.30	903.59
593.65	893.81
594.00	884.37
594.35	875.66
594.70	866.42
595.05	857.90
595.40	849.11
595.75	840.07
596.10	831.66
596.45	823.14
596.80	814.88
597.15	806.65
597.50	798.49
597.85	790.56
598.19	782.63
598.54	774.66
598.89	766.93
599.24	759.58
599.59	752.31
599.94	745.49
600.29	738.50
600.64	731.64
600.99	724.68
601.34	717.90
601.69	710.60
602.04	703.88
602.39	697.23
602.74	690.75
603.08	684.53
603.43	678.29
603.78	672.11
604.13	666.06
604.48	660.01
604.83	654.08
605.18	648.26
605.53	642.52
605.87	636.78
606.22	631.23
606.57	625.62
606.92	619.91
607.27	614.31
607.62	608.99
607.96	603.74
608.31	598.85
608.66	593.89
609.01	589.11
609.36	584.45
609.70	579.66
610.05	574.89
610.40	570.22
610.75	565.56
611.10	561.16
611.44	556.68
611.79	552.35
612.14	548.08
612.49	543.70
612.83	539.51
613.18	535.46
613.53	531.52
613.88	527.59
614.22	523.89
614.57	520.06
614.92	516.30
615.27	512.62
615.61	508.99
615.96	505.37
616.31	501.78
616.65	498.21
617.00	494.80
617.35	491.46
617.70	488.16
618.04	484.97
618.39	481.81
618.74	478.81
619.08	475.72
619.43	472.68
619.78	469.74
620.12	466.87
620.47	464.15
620.82	461.40
621.16	458.70
621.51	456.14
621.85	453.63
622.20	451.15
622.55	448.68
622.89	446.26
623.24	443.98
623.59	441.70
623.93	439.51
624.28	437.39
624.62	435.48
624.97	433.57
625.32	431.49
625.66	429.38
626.01	427.32
626.35	425.43
626.70	423.50
627.04	421.74
627.39	419.87
627.73	418.06
628.08	416.34
628.43	414.68
628.77	412.93
629.12	411.31
629.46	409.67
629.81	408.18
630.15	406.54
630.50	404.95
630.84	403.48
631.19	402.04
631.53	400.62
631.88	399.01
632.22	397.47
632.57	396.28
632.91	395.06
633.26	393.89
633.60	392.66
633.95	391.49
634.29	390.20
634.64	389.05
634.98	387.76
635.32	386.59
635.67	385.51
636.01	384.44
636.36	383.41
636.70	382.50
637.05	381.39
637.39	380.46
637.73	379.52
638.08	378.61
638.42	377.70
638.77	376.71
639.11	375.67
639.45	374.70
639.80	373.65
640.14	372.69
640.49	371.69
640.83	370.73
641.17	369.79
641.52	368.88
641.86	367.97
642.20	367.23
642.55	366.31
642.89	365.42
643.23	364.53
643.58	363.73
643.92	362.77
644.26	361.91
644.61	361.13
644.95	360.33
645.29	359.46
645.64	358.55
645.98	357.71
646.32	357.01
646.66	356.23
647.01	355.45
647.35	354.71
647.69	353.95
648.04	353.24
648.38	352.48
648.72	351.76
649.06	351.09
649.41	350.33
649.75	349.64
650.09	348.98
650.43	348.31
650.78	347.58
651.12	346.92
651.46	346.28
651.80	345.60
652.14	344.94
652.49	344.33
652.83	343.68
653.17	343.04
653.51	342.41
653.85	341.86
654.20	341.26
654.54	340.59
654.88	339.97
655.22	339.35
655.56	338.66
655.90	338.01
656.25	337.34
656.59	336.69
656.93	336.11
657.27	335.58
657.61	334.96
657.95	334.43
658.29	333.87
658.64	333.34
658.98	332.72
659.32	332.11
659.66	331.54
660.00	331.02
660.34	330.50
660.68	329.92
661.02	329.28
661.36	328.69
661.70	328.14
662.05	327.59
662.39	327.11
662.73	326.68
663.07	326.27
663.41	325.77
663.75	325.23
664.09	324.70
664.43	324.09
664.77	323.59
665.11	322.96
665.45	322.40
665.79	321.83
666.13	321.29
666.47	320.76
666.81	320.17
667.15	319.56
667.49	319.03
667.83	318.56
668.17	318.07
668.51	317.59
668.85	317.15
669.19	316.78
669.53	316.25
669.87	315.73
670.21	315.21
670.55	314.74
670.89	314.37
671.23	313.91
671.57	313.47
671.91	313.06
672.25	312.68
672.58	312.32
672.92	311.84
673.26	311.44
673.60	311.02
673.94	310.62
674.28	310.26
674.62	309.86
674.96	309.38
675.30	308.98
675.64	308.54
675.97	308.06
676.31	307.52
676.65	307.04
676.99	306.65
677.33	306.16
677.67	305.69
678.01	305.14
678.34	304.67
678.68	304.20
679.02	303.71
679.36	303.24
679.70	302.72
680.04	302.30
680.37	301.85
680.71	301.41
681.05	300.99
681.39	300.51
681.73	300.01
682.06	299.53
682.40	299.08
682.74	298.68
683.08	298.34
683.42	297.89
683.75	297.49
684.09	296.95
684.43	296.51
684.77	296.04
685.10	295.63
685.44	295.22
685.78	294.80
686.12	294.36
686.45	293.91
686.79	293.45
687.13	293.03
687.46	292.56
687.80	292.09
688.14	291.58
688.48	291.14
688.81	290.68
689.15	290.34
689.49	289.88
689.82	289.40
690.16	288.83
690.50	288.37
690.83	287.90
691.17	287.43
691.51	286.99
691.84	286.58
692.18	286.14
692.52	285.65
692.85	285.20
693.19	284.82
693.52	284.39
693.86	283.95
694.20	283.50
694.53	283.06
694.87	282.59
695.21	282.14
695.54	281.70
695.88	281.25
696.21	280.73
696.55	280.28
696.88	279.83
697.22	279.39
697.56	278.98
697.89	278.50
698.23	278.07
698.56	277.61
698.90	277.18
699.23	276.71
699.57	276.31
699.90	275.86
700.24	275.37
700.58	274.95
700.91	274.58
701.25	274.32
701.58	274.00
701.92	273.66
702.25	273.31
702.59	272.90
702.92	272.50
703.26	272.09
703.59	271.71
703.93	271.45
704.26	271.07
704.60	270.66
704.93	270.28
705.26	269.86
705.60	269.52
705.93	269.09
706.27	268.75
706.60	268.41
706.94	268.10
707.27	267.69
707.61	267.32
707.94	266.91
708.27	266.38
708.61	265.93
708.94	265.52
709.28	265.15
709.61	264.76
709.94	264.43
710.28	264.12
710.61	263.81
710.95	263.34
711.28	263.12
711.61	262.82
711.95	262.54
712.28	262.22
712.61	261.86
712.95	261.64
713.28	261.39
713.61	261.04
713.95	260.68
714.28	260.38
714.61	260.05
714.95	259.75
715.28	259.44
715.61	259.16
715.95	258.88
716.28	258.57
716.61	258.31
716.95	257.98
717.28	257.68
717.61	257.36
717.94	257.08
718.28	256.67
718.61	256.36
718.94	256.03
719.27	255.78
719.61	255.56
719.94	255.27
720.27	254.92
720.60	254.66
720.94	254.39
721.27	254.15
721.60	253.94
721.93	253.68
722.27	253.49
722.60	253.25
722.93	253.00
723.26	252.77
723.59	252.51
723.93	252.33
724.26	252.12
724.59	251.89
724.92	251.69
725.25	251.52
725.59	251.31
725.92	251.15
726.25	250.92
726.58	250.70
726.91	250.45
727.24	250.26
727.57	250.05
727.91	249.82
728.24	249.64
728.57	249.43
728.90	249.26
729.23	249.01
729.56	248.89
729.89	248.71
730.22	248.51
730.55	248.32
730.89	248.12
731.22	247.92
731.55	247.72
731.88	247.53
732.21	247.32
732.54	247.12
732.87	246.91
733.20	246.75
733.53	246.56
733.86	246.39
734.19	246.20
734.52	246.04
734.85	246.02
735.18	245.82
735.51	245.71
735.84	245.55
736.17	245.45
736.50	245.19
736.83	245.22
737.16	245.05
737.49	244.92
737.82	244.75
738.15	244.61
738.48	244.46
738.81	244.29
739.14	244.12
739.47	243.96
739.80	243.81
740.13	243.67
740.46	243.50
740.79	243.35
741.12	243.21
741.45	243.03
741.78	242.77
742.11	242.68
742.44	242.48
742.77	242.35
743.10	242.18
743.43	242.03
743.75	241.72
744.08	241.85
744.41	241.68
744.74	241.53
745.07	241.36
745.40	241.26
745.73	241.20
746.06	241.08
746.39	240.98
746.71	240.84
747.04	240.68
747.37	240.56
747.70	240.45
748.03	240.34
748.36	240.24
748.68	240.12
749.01	239.96
749.34	239.85
749.67	239.73
750.00	239.64
750.33	239.65
750.65	239.55
750.98	239.19
751.31	239.10
751.64	239.01
751.97	239.01
752.29	238.88
752.62	238.68
752.95	238.56
753.28	238.45
753.60	238.34
753.93	238.29
754.26	238.20
754.59	238.06
754.91	237.92
755.24	237.80
755.57	237.77
755.90	237.66
756.22	237.54
756.55	237.42
756.88	237.28
757.20	237.06
757.53	236.90
757.86	236.81
758.19	236.72
758.51	236.62
758.84	236.44
759.17	236.34
759.49	236.27
759.82	236.27
760.15	236.19
760.47	236.12
760.80	235.98
761.13	235.92
761.45	235.84
761.78	235.76
762.11	235.70
762.43	235.53
762.76	235.46
763.08	235.41
763.41	235.34
763.74	235.27
764.06	235.20
764.39	235.14
764.71	235.05
765.04	234.95
765.37	234.86
765.69	234.79
766.02	234.71
766.34	234.63
766.67	234.49
767.00	234.45
767.32	234.47
767.65	234.52
767.97	234.43
768.30	234.37
768.62	234.31
768.95	234.20
769.27	234.14
769.60	234.10
769.92	233.99
770.25	233.89
770.57	233.81
770.90	233.75
771.22	233.67
771.55	233.62
771.87	233.58
772.20	233.53
772.52	233.62
772.85	233.78
773.17	233.74
773.50	233.67
773.82	233.58
774.15	233.43
774.47	233.27
774.80	233.21
775.12	233.16
775.45	233.11
775.77	233.08
776.09	233.05
776.42	233.01
776.74	233.04
777.07	232.99
777.39	232.96
777.72	232.91
778.04	232.90
778.36	232.85
778.69	232.82
779.01	232.80
779.33	232.61
779.66	232.36
779.98	232.31
780.31	232.28
780.63	232.33
780.95	232.32
781.28	232.28
781.60	232.24
781.92	232.21
782.25	232.17
782.57	232.13
782.89	232.07
783.22	232.02
783.54	231.94
783.86	231.92
784.19	231.89
784.51	231.91
784.83	231.85
785.16	231.81
785.48	231.77
785.80	231.74
786.12	231.72
786.45	231.70
786.77	231.68
787.09	231.64
787.42	231.55
787.74	231.53
788.06	231.51
788.38	231.48
788.71	231.43
789.03	231.42
789.35	231.42
789.67	231.39
789.99	231.38
790.32	231.33
790.64	231.33
790.96	231.46
791.28	231.39
791.61	231.36
791.93	231.35
792.25	231.32
792.57	231.43
792.89	231.38
793.21	231.37
793.54	231.33
793.86	231.31
794.18	231.30
794.50	231.23
794.82	231.22
795.14	231.22
795.47	231.24
795.79	231.22
796.11	231.15
796.43	231.12
796.75	231.10
797.07	231.09
797.39	231.06
797.71	230.88
798.04	230.87
798.36	230.87
798.68	230.84
799.00	230.84
799.32	230.71
799.64	230.72
799.96	230.69
800.28	230.71
800.60	230.67
800.92	230.66
801.24	230.64
801.56	230.63
801.89	230.60
802.21	230.59
802.53	230.55
802.85	230.57
803.17	230.65
803.49	230.59
803.81	230.55
804.13	230.53
804.45	230.51
804.77	230.50
805.09	230.48
805.41	230.44
805.73	230.39
806.05	230.33
806.37	230.31
806.69	230.29
807.01	230.25
807.33	230.24
807.65	230.16
807.97	230.23
808.28	230.19
808.60	230.17
808.92	230.12
809.24	230.22
809.56	230.17
809.88	230.09
810.20	230.09
810.52	230.11
810.84	230.06
811.16	230.03
811.48	230.00
811.80	230.05
812.12	230.03
812.43	230.05
812.75	230.05
813.07	230.02
813.39	230.00
813.71	229.97
814.03	229.94
814.35	229.93
814.67	229.85
814.98	229.83
815.30	229.80
815.62	229.77
815.94	229.64
816.26	229.65
816.58	229.61
816.89	229.62
817.21	229.56
817.53	229.56
817.85	229.57
818.17	229.57
818.48	229.48
818.80	229.51
