SpectraSuite Data File
++++++++++++++++++++++++++++++++++++
Date: Tue Oct 06 16:24:07 EDT 2015
User: lab3
Dark Spectrum Present: No
Reference Spectrum Present: No
Number of Sampled Component Spectra: 1
Spectrometers: USB2E7196
Integration Time (usec): 66000 (USB2E7196)
Spectra Averaged: 1000 (USB2E7196)
Boxcar Smoothing: 10 (USB2E7196)
Correct for Electrical Dark: No (USB2E7196)
Strobe/Lamp Enabled: No (USB2E7196)
Correct for Detector Non-linearity: No (USB2E7196)
Correct for Stray Light: No (USB2E7196)
Number of Pixels in Processed Spectrum: 2048
>>>>>Begin Processed Spectral Data<<<<<
339.09	0.00
339.48	215.48
339.86	216.98
340.24	218.25
340.63	219.68
341.01	223.82
341.39	222.47
341.78	223.89
342.16	225.37
342.54	225.33
342.93	214.01
343.31	224.82
343.69	225.36
344.07	225.83
344.46	226.29
344.84	226.71
345.22	226.91
345.60	227.19
345.99	227.40
346.37	227.55
346.75	227.68
347.13	227.79
347.52	227.87
347.90	228.00
348.28	228.04
348.66	228.13
349.05	228.12
349.43	228.19
349.81	228.27
350.19	228.34
350.57	228.43
350.96	228.53
351.34	228.65
351.72	228.76
352.10	228.88
352.48	228.94
352.87	228.99
353.25	229.06
353.63	229.12
354.01	229.18
354.39	229.26
354.77	229.33
355.15	229.44
355.54	229.48
355.92	229.48
356.30	229.56
356.68	229.74
357.06	229.82
357.44	229.86
357.82	229.92
358.20	230.13
358.58	230.18
358.97	230.25
359.35	230.34
359.73	230.44
360.11	230.49
360.49	230.55
360.87	230.60
361.25	230.66
361.63	230.77
362.01	230.82
362.39	230.85
362.77	230.90
363.15	230.91
363.53	230.95
363.91	231.00
364.29	231.03
364.67	230.87
365.05	230.90
365.43	230.94
365.81	230.97
366.19	230.92
366.57	231.00
366.95	230.99
367.33	230.95
367.71	230.94
368.09	230.97
368.47	230.97
368.85	230.95
369.23	230.97
369.61	230.89
369.99	230.93
370.37	230.95
370.75	231.07
371.13	231.02
371.51	230.98
371.89	230.96
372.27	230.93
372.65	230.92
373.03	230.88
373.41	230.82
373.78	230.77
374.16	230.64
374.54	230.55
374.92	230.49
375.30	230.46
375.68	230.37
376.06	230.33
376.44	230.27
376.82	230.24
377.19	230.19
377.57	230.14
377.95	230.02
378.33	229.96
378.71	229.74
379.09	229.72
379.47	229.69
379.84	229.62
380.22	229.56
380.60	229.48
380.98	229.44
381.36	229.39
381.73	229.32
382.11	229.32
382.49	229.28
382.87	229.22
383.25	229.17
383.62	229.34
384.00	229.28
384.38	229.23
384.76	229.23
385.13	229.24
385.51	229.21
385.89	229.16
386.27	229.13
386.64	229.13
387.02	229.09
387.40	229.04
387.78	229.02
388.15	229.01
388.53	228.98
388.91	228.96
389.29	228.93
389.66	228.94
390.04	228.89
390.42	228.90
390.79	228.90
391.17	228.89
391.55	228.68
391.92	228.68
392.30	228.70
392.68	228.65
393.05	228.62
393.43	228.64
393.81	228.67
394.18	228.66
394.56	228.67
394.94	228.72
395.31	228.73
395.69	228.82
396.06	228.88
396.44	228.93
396.82	228.94
397.19	229.07
397.57	229.09
397.95	229.16
398.32	229.17
398.70	229.24
399.07	229.34
399.45	229.41
399.82	229.49
400.20	229.54
400.58	229.65
400.95	229.68
401.33	229.81
401.70	230.04
402.08	230.17
402.45	230.30
402.83	230.46
403.20	230.63
403.58	230.75
403.95	230.95
404.33	231.18
404.71	231.39
405.08	231.71
405.46	231.96
405.83	232.24
406.21	232.54
406.58	232.86
406.96	233.19
407.33	233.57
407.70	233.99
408.08	234.57
408.45	235.08
408.83	235.62
409.20	236.13
409.58	236.59
409.95	237.22
410.33	237.90
410.70	238.56
411.08	239.32
411.45	240.12
411.82	240.94
412.20	241.87
412.57	242.98
412.95	243.87
413.32	245.01
413.69	246.20
414.07	247.45
414.44	248.82
414.82	250.22
415.19	251.86
415.56	253.53
415.94	255.27
416.31	257.22
416.68	259.18
417.06	261.43
417.43	263.57
417.81	266.01
418.18	268.50
418.55	271.22
418.93	274.05
419.30	277.03
419.67	280.17
420.04	283.41
420.42	286.79
420.79	290.67
421.16	294.60
421.54	298.57
421.91	302.72
422.28	307.04
422.66	311.69
423.03	316.11
423.40	320.75
423.77	325.73
424.15	330.80
424.52	336.07
424.89	341.78
425.26	347.42
425.64	352.67
426.01	358.56
426.38	364.57
426.75	370.76
427.13	377.08
427.50	383.69
427.87	390.57
428.24	397.50
428.61	404.15
428.99	411.29
429.36	419.15
429.73	426.66
430.10	434.13
430.47	441.78
430.85	449.67
431.22	458.09
431.59	466.69
431.96	475.10
432.33	484.47
432.70	493.37
433.08	503.90
433.45	513.84
433.82	523.63
434.19	534.62
434.56	545.42
434.93	555.92
435.30	566.33
435.68	578.10
436.05	589.63
436.42	601.14
436.79	611.71
437.16	623.17
437.53	635.42
437.90	647.69
438.27	659.72
438.64	672.73
439.01	684.56
439.38	695.43
439.75	705.93
440.13	717.87
440.50	729.25
440.87	738.36
441.24	748.36
441.61	759.37
441.98	767.52
442.35	777.22
442.72	787.06
443.09	796.43
443.46	802.59
443.83	807.32
444.20	811.25
444.57	816.90
444.94	820.34
445.31	823.88
445.68	826.94
446.05	829.31
446.42	829.19
446.79	828.79
447.16	828.51
447.53	828.31
447.90	824.98
448.27	821.81
448.64	816.65
449.01	813.20
449.37	805.77
449.74	799.03
450.11	790.26
450.48	780.64
450.85	770.98
451.22	762.69
451.59	754.48
451.96	747.10
452.33	736.31
452.70	726.72
453.07	715.04
453.43	703.40
453.80	692.01
454.17	681.10
454.54	671.03
454.91	659.65
455.28	648.91
455.65	638.76
456.02	627.98
456.38	619.35
456.75	608.25
457.12	599.29
457.49	590.25
457.86	581.70
458.23	574.12
458.59	565.80
458.96	557.24
459.33	549.73
459.70	542.10
460.07	536.27
460.43	529.35
460.80	522.91
461.17	517.30
461.54	511.26
461.91	505.60
462.27	499.84
462.64	495.12
463.01	489.74
463.38	484.28
463.74	479.39
464.11	475.02
464.48	471.07
464.85	466.82
465.21	463.55
465.58	459.93
465.95	455.84
466.32	452.57
466.68	449.39
467.05	446.16
467.42	443.01
467.78	439.63
468.15	436.55
468.52	434.28
468.88	431.28
469.25	428.54
469.62	426.36
469.98	423.97
470.35	421.84
470.72	419.90
471.08	417.97
471.45	416.35
471.82	414.54
472.18	412.64
472.55	411.41
472.92	409.89
473.28	408.69
473.65	407.39
474.02	406.17
474.38	405.12
474.75	404.52
475.11	403.67
475.48	403.27
475.85	402.83
476.21	402.56
476.58	402.36
476.94	402.55
477.31	402.58
477.67	402.66
478.04	402.98
478.41	403.43
478.77	404.06
479.14	404.42
479.50	405.20
479.87	406.21
480.23	407.20
480.60	408.14
480.96	409.11
481.33	410.55
481.69	411.98
482.06	413.36
482.42	414.64
482.79	416.26
483.15	418.15
483.52	420.27
483.88	422.31
484.25	424.45
484.61	426.69
484.98	429.12
485.34	431.85
485.71	434.70
486.07	437.74
486.44	440.73
486.80	444.13
487.17	447.60
487.53	451.35
487.90	455.29
488.26	459.59
488.62	464.07
488.99	468.58
489.35	473.28
489.72	478.39
490.08	483.74
490.44	489.20
490.81	494.89
491.17	500.72
491.54	506.99
491.90	513.41
492.26	520.24
492.63	527.41
492.99	534.88
493.36	542.50
493.72	550.52
494.08	558.74
494.45	567.33
494.81	576.33
495.17	585.57
495.54	595.30
495.90	605.44
496.26	615.81
496.63	626.44
496.99	637.46
497.35	648.96
497.72	660.75
498.08	672.88
498.44	685.30
498.80	698.46
499.17	711.90
499.53	725.75
499.89	740.04
500.26	754.48
500.62	769.32
500.98	784.98
501.34	800.63
501.71	817.11
502.07	833.84
502.43	851.00
502.79	868.33
503.16	886.21
503.52	904.26
503.88	922.72
504.24	941.59
504.60	960.73
504.97	980.44
505.33	1000.59
505.69	1021.77
506.05	1043.15
506.41	1064.38
506.78	1085.71
507.14	1107.65
507.50	1129.98
507.86	1152.72
508.22	1175.63
508.59	1198.38
508.95	1222.20
509.31	1246.41
509.67	1271.20
510.03	1295.91
510.39	1320.56
510.75	1345.25
511.12	1370.36
511.48	1395.45
511.84	1420.58
512.20	1446.00
512.56	1472.48
512.92	1498.68
513.28	1524.30
513.64	1550.27
514.00	1576.50
514.37	1602.99
514.73	1629.48
515.09	1655.30
515.45	1681.40
515.81	1707.60
516.17	1733.49
516.53	1758.70
516.89	1783.86
517.25	1809.23
517.61	1834.39
517.97	1860.10
518.33	1885.10
518.69	1909.94
519.05	1935.26
519.41	1960.73
519.77	1986.03
520.13	2009.81
520.49	2033.79
520.85	2058.01
521.21	2081.67
521.57	2105.58
521.93	2128.53
522.29	2152.02
522.65	2175.32
523.01	2198.30
523.37	2220.59
523.73	2243.54
524.09	2266.22
524.45	2288.33
524.81	2309.89
525.17	2331.14
525.53	2351.86
525.89	2372.89
526.25	2393.47
526.61	2412.53
526.97	2431.49
527.33	2450.37
527.68	2468.93
528.04	2486.99
528.40	2503.79
528.76	2520.82
529.12	2537.41
529.48	2554.50
529.84	2568.93
530.20	2583.74
530.56	2597.65
530.91	2611.81
531.27	2625.44
531.63	2638.02
531.99	2650.44
532.35	2662.44
532.71	2674.06
533.07	2685.82
533.42	2695.76
533.78	2706.06
534.14	2717.12
534.50	2727.10
534.86	2737.55
535.21	2746.04
535.57	2754.36
535.93	2762.53
536.29	2769.01
536.65	2775.27
537.00	2779.98
537.36	2786.08
537.72	2791.19
538.08	2795.80
538.44	2799.34
538.79	2802.53
539.15	2804.46
539.51	2805.78
539.87	2805.98
540.22	2804.67
540.58	2803.62
540.94	2803.50
541.29	2802.02
541.65	2799.30
542.01	2796.23
542.37	2791.67
542.72	2788.59
543.08	2783.89
543.44	2779.40
543.79	2774.41
544.15	2768.79
544.51	2763.49
544.87	2757.10
545.22	2749.82
545.58	2742.51
545.94	2735.34
546.29	2726.73
546.65	2718.44
547.01	2710.15
547.36	2702.23
547.72	2694.54
548.07	2685.15
548.43	2674.73
548.79	2664.17
549.14	2653.92
549.50	2643.80
549.86	2632.75
550.21	2620.20
550.57	2608.66
550.92	2595.52
551.28	2582.96
551.64	2570.64
551.99	2557.96
552.35	2544.89
552.70	2531.78
553.06	2519.08
553.41	2505.94
553.77	2492.63
554.13	2479.39
554.48	2465.19
554.84	2450.33
555.19	2435.97
555.55	2421.50
555.90	2407.43
556.26	2393.69
556.61	2378.86
556.97	2363.13
557.32	2347.88
557.68	2332.96
558.03	2317.89
558.39	2303.64
558.74	2289.85
559.10	2274.32
559.45	2259.18
559.81	2244.69
560.16	2229.91
560.52	2214.96
560.87	2200.12
561.23	2184.95
561.58	2170.29
561.94	2155.20
562.29	2139.70
562.64	2124.31
563.00	2109.15
563.35	2094.14
563.71	2078.74
564.06	2063.55
564.42	2048.88
564.77	2034.23
565.12	2019.37
565.48	2004.31
565.83	1989.54
566.19	1974.76
566.54	1960.28
566.89	1945.23
567.25	1930.05
567.60	1915.65
567.96	1900.49
568.31	1884.35
568.66	1869.23
569.02	1854.53
569.37	1840.36
569.72	1826.79
570.08	1812.81
570.43	1798.26
570.78	1783.57
571.14	1768.73
571.49	1753.99
571.84	1739.51
572.20	1724.02
572.55	1709.27
572.90	1694.60
573.26	1679.84
573.61	1664.51
573.96	1649.69
574.31	1634.76
574.67	1619.78
575.02	1604.52
575.37	1589.34
575.72	1574.85
576.08	1560.08
576.43	1544.82
576.78	1529.67
577.13	1514.72
577.49	1500.05
577.84	1485.77
578.19	1471.04
578.54	1456.41
578.90	1441.76
579.25	1427.07
579.60	1413.37
579.95	1399.45
580.30	1385.47
580.66	1371.29
581.01	1357.22
581.36	1343.30
581.71	1330.11
582.06	1316.83
582.42	1303.44
582.77	1290.53
583.12	1277.78
583.47	1265.00
583.82	1252.38
584.17	1239.44
584.53	1226.56
584.88	1213.89
585.23	1201.14
585.58	1188.79
585.93	1176.40
586.28	1164.89
586.63	1153.17
586.98	1141.23
587.34	1129.56
587.69	1117.76
588.04	1106.37
588.39	1095.19
588.74	1083.61
589.09	1072.22
589.44	1060.58
589.79	1049.50
590.14	1038.44
590.49	1027.47
590.84	1016.70
591.19	1006.21
591.54	995.77
591.89	985.00
592.25	974.63
592.60	964.12
592.95	953.73
593.30	943.68
593.65	933.33
594.00	923.29
594.35	914.05
594.70	904.19
595.05	894.93
595.40	885.44
595.75	875.86
596.10	866.88
596.45	857.83
596.80	849.13
597.15	840.43
597.50	831.78
597.85	823.31
598.19	814.86
598.54	806.44
598.89	798.50
599.24	790.90
599.59	783.10
599.94	775.88
600.29	768.69
600.64	761.36
600.99	753.93
601.34	746.71
601.69	739.04
602.04	732.19
602.39	725.22
602.74	718.46
603.08	711.81
603.43	705.14
603.78	698.50
604.13	691.92
604.48	685.41
604.83	679.07
605.18	672.84
605.53	666.74
605.87	660.57
606.22	654.51
606.57	648.41
606.92	642.22
607.27	636.08
607.62	630.16
607.96	624.47
608.31	619.16
608.66	613.81
609.01	608.68
609.36	603.53
609.70	598.31
610.05	593.11
610.40	588.10
610.75	583.09
611.10	578.25
611.44	573.41
611.79	568.66
612.14	563.87
612.49	559.16
612.83	554.68
613.18	550.26
613.53	545.86
613.88	541.59
614.22	537.61
614.57	533.56
614.92	529.56
615.27	525.70
615.61	521.76
615.96	517.84
616.31	513.93
616.65	510.17
617.00	506.54
617.35	502.92
617.70	499.32
618.04	495.83
618.39	492.43
618.74	489.26
619.08	486.07
619.43	482.97
619.78	479.79
620.12	476.64
620.47	473.68
620.82	470.75
621.16	467.83
621.51	464.98
621.85	462.15
622.20	459.41
622.55	456.60
622.89	453.85
623.24	451.27
623.59	448.73
623.93	446.26
624.28	443.93
624.62	441.79
624.97	439.65
625.32	437.41
625.66	435.14
626.01	432.84
626.35	430.67
626.70	428.43
627.04	426.43
627.39	424.36
627.73	422.35
628.08	420.40
628.43	418.48
628.77	416.46
629.12	414.58
629.46	412.76
629.81	411.08
630.15	409.32
630.50	407.58
630.84	405.90
631.19	404.23
631.53	402.62
631.88	400.84
632.22	399.16
632.57	397.75
632.91	396.30
633.26	394.92
633.60	393.55
633.95	392.28
634.29	390.84
634.64	389.49
634.98	388.02
635.32	386.71
635.67	385.50
636.01	384.32
636.36	383.16
636.70	382.11
637.05	380.87
637.39	379.78
637.73	378.70
638.08	377.66
638.42	376.66
638.77	375.54
639.11	374.38
639.45	373.27
639.80	372.08
640.14	370.99
640.49	369.89
640.83	368.79
641.17	367.71
641.52	366.67
641.86	365.66
642.20	364.79
642.55	363.73
642.89	362.71
643.23	361.76
643.58	360.92
643.92	359.92
644.26	359.01
644.61	358.13
644.95	357.19
645.29	356.19
645.64	355.19
645.98	354.30
646.32	353.50
646.66	352.65
647.01	351.82
647.35	351.06
647.69	350.28
648.04	349.56
648.38	348.78
648.72	348.07
649.06	347.30
649.41	346.50
649.75	345.77
650.09	345.08
650.43	344.33
650.78	343.56
651.12	342.82
651.46	342.10
651.80	341.40
652.14	340.74
652.49	340.13
652.83	339.45
653.17	338.74
653.51	338.07
653.85	337.49
654.20	336.87
654.54	336.15
654.88	335.46
655.22	334.83
655.56	334.16
655.90	333.51
656.25	332.89
656.59	332.27
656.93	331.72
657.27	331.18
657.61	330.58
657.95	330.03
658.29	329.45
658.64	328.90
658.98	328.29
659.32	327.70
659.66	327.14
660.00	326.63
660.34	326.10
660.68	325.52
661.02	324.89
661.36	324.31
661.70	323.77
662.05	323.24
662.39	322.71
662.73	322.27
663.07	321.84
663.41	321.38
663.75	320.87
664.09	320.34
664.43	319.72
664.77	319.21
665.11	318.62
665.45	318.10
665.79	317.62
666.13	317.09
666.47	316.56
666.81	316.00
667.15	315.39
667.49	314.94
667.83	314.52
668.17	314.07
668.51	313.64
668.85	313.23
669.19	312.86
669.53	312.32
669.87	311.77
670.21	311.24
670.55	310.72
670.89	310.33
671.23	309.88
671.57	309.50
671.91	309.13
672.25	308.78
672.58	308.44
672.92	307.99
673.26	307.63
673.60	307.26
673.94	306.89
674.28	306.55
674.62	306.17
674.96	305.73
675.30	305.34
675.64	304.90
675.97	304.44
676.31	303.97
676.65	303.55
676.99	303.22
677.33	302.78
677.67	302.40
678.01	301.92
678.34	301.50
678.68	301.10
679.02	300.64
679.36	300.21
679.70	299.74
680.04	299.33
680.37	298.93
680.71	298.54
681.05	298.16
681.39	297.73
681.73	297.26
682.06	296.82
682.40	296.42
682.74	296.06
683.08	295.76
683.42	295.39
683.75	295.04
684.09	294.57
684.43	294.17
684.77	293.74
685.10	293.36
685.44	292.98
685.78	292.57
686.12	292.16
686.45	291.75
686.79	291.32
687.13	290.93
687.46	290.48
687.80	290.07
688.14	289.60
688.48	289.19
688.81	288.78
689.15	288.44
689.49	288.02
689.82	287.59
690.16	287.04
690.50	286.59
690.83	286.16
691.17	285.71
691.51	285.30
691.84	284.93
692.18	284.50
692.52	284.04
692.85	283.62
693.19	283.27
693.52	282.85
693.86	282.43
694.20	282.00
694.53	281.60
694.87	281.15
695.21	280.73
695.54	280.31
695.88	279.88
696.21	279.41
696.55	278.97
696.88	278.55
697.22	278.14
697.56	277.75
697.89	277.29
698.23	276.89
698.56	276.46
698.90	276.06
699.23	275.63
699.57	275.24
699.90	274.82
700.24	274.36
700.58	273.99
700.91	273.65
701.25	273.43
701.58	273.11
701.92	272.79
702.25	272.42
702.59	272.04
702.92	271.66
703.26	271.27
703.59	270.91
703.93	270.67
704.26	270.31
704.60	269.93
704.93	269.56
705.26	269.17
705.60	268.84
705.93	268.42
706.27	268.11
706.60	267.80
706.94	267.51
707.27	267.13
707.61	266.75
707.94	266.36
708.27	265.84
708.61	265.43
708.94	265.03
709.28	264.68
709.61	264.32
709.94	264.02
710.28	263.69
710.61	263.38
710.95	262.89
711.28	262.69
711.61	262.35
711.95	262.07
712.28	261.74
712.61	261.41
712.95	261.19
713.28	260.94
713.61	260.60
713.95	260.23
714.28	259.93
714.61	259.60
714.95	259.30
715.28	258.99
715.61	258.70
715.95	258.44
716.28	258.13
716.61	257.89
716.95	257.58
717.28	257.30
717.61	257.02
717.94	256.76
718.28	256.36
718.61	256.08
718.94	255.79
719.27	255.52
719.61	255.29
719.94	254.99
720.27	254.64
720.60	254.38
720.94	254.13
721.27	253.90
721.60	253.69
721.93	253.44
722.27	253.24
722.60	253.00
722.93	252.72
723.26	252.50
723.59	252.21
723.93	252.01
724.26	251.78
724.59	251.53
724.92	251.33
725.25	251.16
725.59	250.94
725.92	250.75
726.25	250.54
726.58	250.32
726.91	250.09
727.24	249.89
727.57	249.68
727.91	249.43
728.24	249.24
728.57	249.02
728.90	248.83
729.23	248.56
729.56	248.45
729.89	248.26
730.22	248.05
730.55	247.86
730.89	247.66
731.22	247.46
731.55	247.28
731.88	247.09
732.21	246.87
732.54	246.68
732.87	246.50
733.20	246.34
733.53	246.17
733.86	246.00
734.19	245.82
734.52	245.68
734.85	245.65
735.18	245.45
735.51	245.34
735.84	245.19
736.17	245.09
736.50	244.83
736.83	244.87
737.16	244.72
737.49	244.56
737.82	244.40
738.15	244.27
738.48	244.10
738.81	243.93
739.14	243.76
739.47	243.59
739.80	243.43
740.13	243.27
740.46	243.09
740.79	242.91
741.12	242.76
741.45	242.57
741.78	242.32
742.11	242.22
742.44	242.01
742.77	241.89
743.10	241.71
743.43	241.55
743.75	241.22
744.08	241.35
744.41	241.20
744.74	241.05
745.07	240.88
745.40	240.79
745.73	240.73
746.06	240.61
746.39	240.50
746.71	240.37
747.04	240.21
747.37	240.08
747.70	239.99
748.03	239.88
748.36	239.79
748.68	239.67
749.01	239.51
749.34	239.40
749.67	239.28
750.00	239.19
750.33	239.22
750.65	239.13
750.98	238.75
751.31	238.65
751.64	238.56
751.97	238.54
752.29	238.41
752.62	238.23
752.95	238.11
753.28	237.98
753.60	237.88
753.93	237.82
754.26	237.74
754.59	237.58
754.91	237.45
755.24	237.33
755.57	237.23
755.90	237.14
756.22	237.02
756.55	236.89
756.88	236.76
757.20	236.53
757.53	236.38
757.86	236.28
758.19	236.21
758.51	236.12
758.84	235.95
759.17	235.85
759.49	235.76
759.82	235.77
760.15	235.71
760.47	235.62
760.80	235.48
761.13	235.42
761.45	235.35
761.78	235.26
762.11	235.19
762.43	235.09
762.76	235.00
763.08	234.95
763.41	234.88
763.74	234.81
764.06	234.74
764.39	234.68
764.71	234.61
765.04	234.51
765.37	234.41
765.69	234.33
766.02	234.26
766.34	234.17
766.67	234.02
767.00	233.97
767.32	234.00
767.65	234.04
767.97	233.96
768.30	233.90
768.62	233.83
768.95	233.74
769.27	233.68
769.60	233.65
769.92	233.56
770.25	233.46
770.57	233.37
770.90	233.30
771.22	233.22
771.55	233.17
771.87	233.12
772.20	233.07
772.52	233.17
772.85	233.33
773.17	233.28
773.50	233.22
773.82	233.15
774.15	233.00
774.47	232.84
774.80	232.77
775.12	232.72
775.45	232.67
775.77	232.63
776.09	232.59
776.42	232.54
776.74	232.56
777.07	232.51
777.39	232.48
777.72	232.44
778.04	232.43
778.36	232.36
778.69	232.33
779.01	232.30
779.33	232.09
779.66	231.85
779.98	231.79
780.31	231.77
780.63	231.80
780.95	231.80
781.28	231.77
781.60	231.72
781.92	231.68
782.25	231.65
782.57	231.62
782.89	231.56
783.22	231.51
783.54	231.45
783.86	231.44
784.19	231.40
784.51	231.42
784.83	231.36
785.16	231.33
785.48	231.30
785.80	231.28
786.12	231.26
786.45	231.23
786.77	231.22
787.09	231.17
787.42	231.07
787.74	231.04
788.06	231.03
788.38	231.00
788.71	230.96
789.03	230.94
789.35	230.93
789.67	230.89
789.99	230.87
790.32	230.82
790.64	230.80
790.96	230.93
791.28	230.85
791.61	230.82
791.93	230.81
792.25	230.77
792.57	230.85
792.89	230.80
793.21	230.79
793.54	230.74
793.86	230.70
794.18	230.70
794.50	230.64
794.82	230.62
795.14	230.61
795.47	230.62
795.79	230.61
796.11	230.54
796.43	230.52
796.75	230.49
797.07	230.49
797.39	230.46
797.71	230.31
798.04	230.29
798.36	230.28
798.68	230.26
799.00	230.26
799.32	230.15
799.64	230.17
799.96	230.14
800.28	230.16
800.60	230.13
800.92	230.12
801.24	230.10
801.56	230.08
801.89	230.05
802.21	230.03
802.53	229.97
802.85	230.00
803.17	230.05
803.49	230.01
803.81	229.96
804.13	229.93
804.45	229.89
804.77	229.88
805.09	229.87
805.41	229.83
805.73	229.79
806.05	229.73
806.37	229.69
806.69	229.66
807.01	229.64
807.33	229.63
807.65	229.55
807.97	229.61
808.28	229.58
808.60	229.56
808.92	229.52
809.24	229.63
809.56	229.58
809.88	229.51
810.20	229.51
810.52	229.55
810.84	229.51
811.16	229.49
811.48	229.47
811.80	229.51
812.12	229.50
812.43	229.51
812.75	229.52
813.07	229.49
813.39	229.49
813.71	229.44
814.03	229.42
814.35	229.42
814.67	229.34
814.98	229.32
815.30	229.29
815.62	229.26
815.94	229.13
816.26	229.14
816.58	229.11
816.89	229.10
817.21	229.05
817.53	229.05
817.85	229.04
818.17	229.02
818.48	228.94
818.80	228.97
