SpectraSuite Data File
++++++++++++++++++++++++++++++++++++
Date: Tue Oct 06 11:40:50 EDT 2015
User: lab3
Dark Spectrum Present: No
Reference Spectrum Present: No
Number of Sampled Component Spectra: 1
Spectrometers: USB2E7196
Integration Time (usec): 66000 (USB2E7196)
Spectra Averaged: 1000 (USB2E7196)
Boxcar Smoothing: 10 (USB2E7196)
Correct for Electrical Dark: No (USB2E7196)
Strobe/Lamp Enabled: No (USB2E7196)
Correct for Detector Non-linearity: No (USB2E7196)
Correct for Stray Light: No (USB2E7196)
Number of Pixels in Processed Spectrum: 2048
>>>>>Begin Processed Spectral Data<<<<<
339.09	0.00
339.48	216.56
339.86	217.94
340.24	219.32
340.63	220.72
341.01	224.70
341.39	223.52
341.78	224.74
342.16	226.24
342.54	226.66
342.93	214.91
343.31	225.77
343.69	226.30
344.07	226.77
344.46	227.21
344.84	227.61
345.22	227.80
345.60	228.07
345.99	228.29
346.37	228.42
346.75	228.54
347.13	228.63
347.52	228.71
347.90	228.82
348.28	228.87
348.66	228.95
349.05	228.94
349.43	229.00
349.81	229.07
350.19	229.14
350.57	229.21
350.96	229.31
351.34	229.41
351.72	229.51
352.10	229.63
352.48	229.70
352.87	229.75
353.25	229.83
353.63	229.88
354.01	229.95
354.39	230.02
354.77	230.09
355.15	230.20
355.54	230.25
355.92	230.26
356.30	230.34
356.68	230.52
357.06	230.59
357.44	230.62
357.82	230.67
358.20	230.88
358.58	230.94
358.97	231.00
359.35	231.08
359.73	231.18
360.11	231.23
360.49	231.28
360.87	231.33
361.25	231.38
361.63	231.49
362.01	231.54
362.39	231.57
362.77	231.62
363.15	231.63
363.53	231.66
363.91	231.70
364.29	231.72
364.67	231.57
365.05	231.60
365.43	231.65
365.81	231.67
366.19	231.62
366.57	231.70
366.95	231.69
367.33	231.66
367.71	231.66
368.09	231.68
368.47	231.68
368.85	231.67
369.23	231.70
369.61	231.62
369.99	231.65
370.37	231.66
370.75	231.77
371.13	231.74
371.51	231.69
371.89	231.68
372.27	231.65
372.65	231.64
373.03	231.60
373.41	231.55
373.78	231.51
374.16	231.38
374.54	231.28
374.92	231.24
375.30	231.20
375.68	231.12
376.06	231.08
376.44	231.02
376.82	230.99
377.19	230.94
377.57	230.89
377.95	230.80
378.33	230.73
378.71	230.53
379.09	230.49
379.47	230.48
379.84	230.41
380.22	230.36
380.60	230.29
380.98	230.25
381.36	230.20
381.73	230.14
382.11	230.13
382.49	230.10
382.87	230.04
383.25	229.99
383.62	230.16
384.00	230.09
384.38	230.06
384.76	230.05
385.13	230.07
385.51	230.04
385.89	229.98
386.27	229.95
386.64	229.96
387.02	229.91
387.40	229.86
387.78	229.84
388.15	229.82
388.53	229.80
388.91	229.76
389.29	229.73
389.66	229.73
390.04	229.69
390.42	229.70
390.79	229.70
391.17	229.68
391.55	229.47
391.92	229.47
392.30	229.48
392.68	229.44
393.05	229.41
393.43	229.42
393.81	229.42
394.18	229.41
394.56	229.42
394.94	229.46
395.31	229.47
395.69	229.55
396.06	229.60
396.44	229.64
396.82	229.66
397.19	229.80
397.57	229.81
397.95	229.88
398.32	229.87
398.70	229.96
399.07	230.06
399.45	230.10
399.82	230.17
400.20	230.22
400.58	230.33
400.95	230.35
401.33	230.48
401.70	230.71
402.08	230.85
402.45	230.98
402.83	231.16
403.20	231.33
403.58	231.45
403.95	231.65
404.33	231.86
404.71	232.09
405.08	232.39
405.46	232.65
405.83	232.92
406.21	233.22
406.58	233.54
406.96	233.85
407.33	234.24
407.70	234.67
408.08	235.25
408.45	235.76
408.83	236.30
409.20	236.80
409.58	237.26
409.95	237.90
410.33	238.58
410.70	239.22
411.08	239.97
411.45	240.79
411.82	241.61
412.20	242.56
412.57	243.66
412.95	244.56
413.32	245.70
413.69	246.88
414.07	248.14
414.44	249.52
414.82	250.94
415.19	252.58
415.56	254.24
415.94	255.98
416.31	257.92
416.68	259.89
417.06	262.16
417.43	264.30
417.81	266.75
418.18	269.25
418.55	271.99
418.93	274.83
419.30	277.79
419.67	280.94
420.04	284.19
420.42	287.60
420.79	291.50
421.16	295.48
421.54	299.51
421.91	303.72
422.28	308.08
422.66	312.77
423.03	317.24
423.40	321.94
423.77	326.96
424.15	332.10
424.52	337.41
424.89	343.19
425.26	348.91
425.64	354.21
426.01	360.17
426.38	366.29
426.75	372.57
427.13	378.97
427.50	385.69
427.87	392.63
428.24	399.58
428.61	406.30
428.99	413.50
429.36	421.46
429.73	429.08
430.10	436.67
430.47	444.46
430.85	452.54
431.22	461.14
431.59	469.92
431.96	478.48
432.33	488.04
432.70	497.12
433.08	507.92
433.45	518.10
433.82	528.08
434.19	539.24
434.56	550.23
434.93	560.90
435.30	571.47
435.68	583.46
436.05	595.24
436.42	607.00
436.79	617.74
437.16	629.32
437.53	641.76
437.90	654.23
438.27	666.37
438.64	679.41
439.01	691.32
439.38	702.34
439.75	712.97
440.13	725.03
440.50	736.53
440.87	745.63
441.24	755.60
441.61	766.63
441.98	774.70
442.35	784.24
442.72	794.00
443.09	803.35
443.46	809.51
443.83	814.07
444.20	817.81
444.57	823.37
444.94	826.74
445.31	830.06
445.68	832.86
446.05	834.95
446.42	834.57
446.79	833.96
447.16	833.43
447.53	833.01
447.90	829.44
448.27	825.88
448.64	820.42
449.01	816.75
449.37	809.08
449.74	802.19
450.11	793.28
450.48	783.50
450.85	773.60
451.22	765.00
451.59	756.61
451.96	749.10
452.33	738.17
452.70	728.36
453.07	716.57
453.43	704.83
453.80	693.43
454.17	682.51
454.54	672.35
454.91	660.83
455.28	649.95
455.65	639.58
456.02	628.78
456.38	620.07
456.75	608.85
457.12	599.78
457.49	590.60
457.86	582.01
458.23	574.41
458.59	566.07
458.96	557.49
459.33	550.01
459.70	542.36
460.07	536.46
460.43	529.53
460.80	523.04
461.17	517.37
461.54	511.27
461.91	505.61
462.27	499.84
462.64	495.12
463.01	489.71
463.38	484.37
463.74	479.52
464.11	475.23
464.48	471.33
464.85	467.12
465.21	463.89
465.58	460.29
465.95	456.21
466.32	452.91
466.68	449.70
467.05	446.43
467.42	443.26
467.78	439.89
468.15	436.81
468.52	434.52
468.88	431.52
469.25	428.81
469.62	426.62
469.98	424.22
470.35	422.07
470.72	420.17
471.08	418.16
471.45	416.48
471.82	414.61
472.18	412.66
472.55	411.40
472.92	409.83
473.28	408.60
473.65	407.27
474.02	406.06
474.38	405.02
474.75	404.39
475.11	403.53
475.48	403.12
475.85	402.68
476.21	402.45
476.58	402.28
476.94	402.48
477.31	402.51
477.67	402.63
478.04	402.95
478.41	403.37
478.77	403.98
479.14	404.35
479.50	405.15
479.87	406.15
480.23	407.17
480.60	408.15
480.96	409.12
481.33	410.56
481.69	411.99
482.06	413.43
482.42	414.76
482.79	416.39
483.15	418.30
483.52	420.41
483.88	422.47
484.25	424.67
484.61	426.96
484.98	429.43
485.34	432.21
485.71	435.10
486.07	438.16
486.44	441.20
486.80	444.59
487.17	448.07
487.53	451.90
487.90	455.87
488.26	460.20
488.62	464.79
488.99	469.39
489.35	474.26
489.72	479.47
490.08	484.92
490.44	490.44
490.81	496.19
491.17	502.12
491.54	508.41
491.90	514.84
492.26	521.66
492.63	528.81
492.99	536.23
493.36	543.94
493.72	552.08
494.08	560.37
494.45	569.10
494.81	578.18
495.17	587.45
495.54	597.26
495.90	607.49
496.26	617.96
496.63	628.66
496.99	639.75
497.35	651.27
497.72	663.17
498.08	675.54
498.44	688.18
498.80	701.58
499.17	715.32
499.53	729.49
499.89	744.11
500.26	758.81
500.62	773.83
500.98	789.51
501.34	805.37
501.71	821.97
502.07	838.87
502.43	856.24
502.79	873.69
503.16	891.61
503.52	909.70
503.88	928.24
504.24	947.20
504.60	966.44
504.97	986.15
505.33	1006.27
505.69	1027.39
506.05	1048.54
506.41	1069.50
506.78	1090.78
507.14	1112.91
507.50	1135.49
507.86	1158.57
508.22	1181.67
508.59	1204.64
508.95	1228.39
509.31	1252.59
509.67	1277.25
510.03	1301.82
510.39	1326.69
510.75	1351.73
511.12	1376.95
511.48	1402.05
511.84	1427.24
512.20	1452.75
512.56	1478.88
512.92	1504.77
513.28	1530.14
513.64	1555.95
514.00	1581.80
514.37	1607.94
514.73	1633.83
515.09	1659.11
515.45	1684.54
515.81	1709.99
516.17	1735.45
516.53	1760.26
516.89	1785.07
517.25	1810.07
517.61	1834.85
517.97	1859.86
518.33	1884.06
518.69	1908.16
519.05	1932.45
519.41	1956.69
519.77	1980.77
520.13	2004.33
520.49	2027.88
520.85	2051.61
521.21	2074.82
521.57	2098.54
521.93	2120.92
522.29	2143.68
522.65	2166.04
523.01	2188.28
523.37	2209.78
523.73	2231.60
524.09	2253.50
524.45	2275.16
524.81	2296.01
525.17	2316.57
525.53	2336.40
525.89	2356.83
526.25	2376.48
526.61	2395.02
526.97	2413.69
527.33	2432.04
527.68	2449.32
528.04	2465.99
528.40	2481.55
528.76	2497.62
529.12	2512.40
529.48	2527.91
529.84	2542.04
530.20	2557.00
530.56	2570.83
530.91	2584.87
531.27	2597.86
531.63	2609.80
531.99	2621.15
532.35	2631.46
532.71	2641.42
533.07	2651.75
533.42	2660.53
533.78	2670.00
534.14	2680.01
534.50	2688.48
534.86	2696.99
535.21	2703.51
535.57	2710.39
535.93	2717.58
536.29	2723.53
536.65	2729.49
537.00	2733.33
537.36	2737.65
537.72	2740.34
538.08	2742.83
538.44	2744.12
538.79	2746.07
539.15	2747.14
539.51	2747.77
539.87	2748.40
540.22	2747.43
540.58	2746.83
540.94	2745.99
541.29	2744.02
541.65	2740.48
542.01	2737.09
542.37	2732.59
542.72	2730.00
543.08	2725.71
543.44	2721.36
543.79	2715.37
544.15	2709.08
544.51	2703.71
544.87	2696.40
545.22	2688.64
545.58	2680.74
545.94	2673.42
546.29	2664.59
546.65	2655.63
547.01	2646.74
547.36	2637.55
547.72	2628.38
548.07	2617.75
548.43	2606.87
548.79	2595.13
549.14	2584.17
549.50	2572.99
549.86	2561.42
550.21	2548.23
550.57	2536.25
550.92	2522.13
551.28	2509.04
551.64	2496.49
551.99	2483.71
552.35	2470.87
552.70	2458.09
553.06	2445.69
553.41	2432.50
553.77	2418.61
554.13	2404.75
554.48	2390.39
554.84	2375.71
555.19	2361.62
555.55	2347.10
555.90	2332.56
556.26	2318.86
556.61	2304.14
556.97	2288.62
557.32	2273.50
557.68	2258.42
558.03	2242.94
558.39	2228.39
558.74	2213.99
559.10	2197.78
559.45	2182.12
559.81	2167.44
560.16	2152.30
560.52	2136.89
560.87	2122.12
561.23	2106.91
561.58	2092.05
561.94	2076.40
562.29	2060.94
562.64	2045.42
563.00	2030.25
563.35	2015.66
563.71	2000.68
564.06	1985.64
564.42	1971.15
564.77	1956.51
565.12	1942.31
565.48	1928.11
565.83	1914.03
566.19	1899.93
566.54	1886.11
566.89	1871.22
567.25	1855.84
567.60	1841.57
567.96	1826.77
568.31	1811.31
568.66	1796.58
569.02	1782.15
569.37	1767.93
569.72	1753.89
570.08	1739.95
570.43	1725.67
570.78	1710.75
571.14	1695.78
571.49	1681.32
571.84	1667.57
572.20	1652.71
572.55	1638.10
572.90	1622.99
573.26	1607.80
573.61	1592.48
573.96	1577.88
574.31	1563.81
574.67	1549.99
575.02	1535.33
575.37	1520.48
575.72	1505.87
576.08	1491.73
576.43	1477.32
576.78	1463.08
577.13	1448.94
577.49	1434.91
577.84	1420.92
578.19	1406.96
578.54	1393.22
578.90	1379.41
579.25	1365.04
579.60	1351.70
579.95	1338.45
580.30	1325.12
580.66	1311.92
581.01	1298.87
581.36	1285.62
581.71	1272.32
582.06	1259.00
582.42	1245.83
582.77	1233.18
583.12	1220.70
583.47	1208.10
583.82	1195.77
584.17	1183.32
584.53	1171.07
584.88	1158.92
585.23	1146.78
585.58	1134.97
585.93	1123.23
586.28	1112.02
586.63	1100.79
586.98	1089.41
587.34	1078.34
587.69	1067.17
588.04	1056.36
588.39	1045.65
588.74	1034.73
589.09	1024.18
589.44	1013.43
589.79	1003.23
590.14	993.07
590.49	983.04
590.84	973.24
591.19	963.47
591.54	953.72
591.89	943.61
592.25	933.77
592.60	923.86
592.95	914.21
593.30	904.52
593.65	894.74
594.00	885.28
594.35	876.57
594.70	867.29
595.05	858.73
595.40	849.95
595.75	840.94
596.10	832.53
596.45	824.00
596.80	815.72
597.15	807.47
597.50	799.32
597.85	791.41
598.19	783.47
598.54	775.46
598.89	767.71
599.24	760.33
599.59	753.02
599.94	746.19
600.29	739.16
600.64	732.31
600.99	725.34
601.34	718.56
601.69	711.24
602.04	704.53
602.39	697.89
602.74	691.41
603.08	685.15
603.43	678.87
603.78	672.70
604.13	666.69
604.48	660.63
604.83	654.70
605.18	648.87
605.53	643.13
605.87	637.38
606.22	631.83
606.57	626.23
606.92	620.51
607.27	614.90
607.62	609.57
607.96	604.32
608.31	599.40
608.66	594.41
609.01	589.63
609.36	584.97
609.70	580.17
610.05	575.37
610.40	570.70
610.75	566.04
611.10	561.63
611.44	557.12
611.79	552.80
612.14	548.52
612.49	544.15
612.83	539.96
613.18	535.96
613.53	532.02
613.88	528.12
614.22	524.41
614.57	520.58
614.92	516.81
615.27	513.11
615.61	509.47
615.96	505.87
616.31	502.28
616.65	498.74
617.00	495.32
617.35	491.98
617.70	488.71
618.04	485.51
618.39	482.34
618.74	479.35
619.08	476.26
619.43	473.21
619.78	470.26
620.12	467.36
620.47	464.64
620.82	461.88
621.16	459.17
621.51	456.62
621.85	454.12
622.20	451.64
622.55	449.18
622.89	446.77
623.24	444.49
623.59	442.21
623.93	439.99
624.28	437.87
624.62	435.98
624.97	434.04
625.32	431.97
625.66	429.86
626.01	427.78
626.35	425.87
626.70	423.94
627.04	422.19
627.39	420.33
627.73	418.50
628.08	416.77
628.43	415.10
628.77	413.34
629.12	411.70
629.46	410.08
629.81	408.57
630.15	406.94
630.50	405.34
630.84	403.87
631.19	402.44
631.53	401.02
631.88	399.40
632.22	397.86
632.57	396.66
632.91	395.44
633.26	394.28
633.60	393.05
633.95	391.88
634.29	390.59
634.64	389.42
634.98	388.12
635.32	386.94
635.67	385.86
636.01	384.80
636.36	383.76
636.70	382.84
637.05	381.75
637.39	380.81
637.73	379.87
638.08	378.96
638.42	378.01
638.77	377.00
639.11	375.98
639.45	374.98
639.80	373.93
640.14	372.95
640.49	371.95
640.83	370.97
641.17	370.03
641.52	369.10
641.86	368.21
642.20	367.49
642.55	366.57
642.89	365.67
643.23	364.79
643.58	364.00
643.92	363.03
644.26	362.16
644.61	361.36
644.95	360.56
645.29	359.67
645.64	358.78
645.98	357.95
646.32	357.23
646.66	356.48
647.01	355.70
647.35	354.96
647.69	354.20
648.04	353.49
648.38	352.73
648.72	352.03
649.06	351.33
649.41	350.57
649.75	349.84
650.09	349.20
650.43	348.53
650.78	347.80
651.12	347.15
651.46	346.50
651.80	345.83
652.14	345.14
652.49	344.53
652.83	343.89
653.17	343.25
653.51	342.62
653.85	342.07
654.20	341.46
654.54	340.79
654.88	340.16
655.22	339.53
655.56	338.83
655.90	338.18
656.25	337.48
656.59	336.84
656.93	336.27
657.27	335.73
657.61	335.11
657.95	334.57
658.29	333.98
658.64	333.45
658.98	332.84
659.32	332.22
659.66	331.66
660.00	331.11
660.34	330.58
660.68	330.00
661.02	329.37
661.36	328.78
661.70	328.22
662.05	327.67
662.39	327.17
662.73	326.76
663.07	326.33
663.41	325.86
663.75	325.31
664.09	324.78
664.43	324.16
664.77	323.65
665.11	323.03
665.45	322.48
665.79	321.92
666.13	321.37
666.47	320.87
666.81	320.28
667.15	319.68
667.49	319.16
667.83	318.70
668.17	318.18
668.51	317.71
668.85	317.28
669.19	316.92
669.53	316.41
669.87	315.90
670.21	315.38
670.55	314.90
670.89	314.54
671.23	314.08
671.57	313.65
671.91	313.24
672.25	312.86
672.58	312.50
672.92	312.03
673.26	311.62
673.60	311.18
673.94	310.78
674.28	310.42
674.62	310.03
674.96	309.54
675.30	309.16
675.64	308.71
675.97	308.23
676.31	307.69
676.65	307.21
676.99	306.82
677.33	306.34
677.67	305.88
678.01	305.32
678.34	304.86
678.68	304.41
679.02	303.92
679.36	303.45
679.70	302.94
680.04	302.52
680.37	302.10
680.71	301.66
681.05	301.24
681.39	300.78
681.73	300.28
682.06	299.81
682.40	299.35
682.74	298.95
683.08	298.62
683.42	298.18
683.75	297.77
684.09	297.22
684.43	296.75
684.77	296.29
685.10	295.89
685.44	295.47
685.78	295.05
686.12	294.61
686.45	294.15
686.79	293.69
687.13	293.25
687.46	292.75
687.80	292.29
688.14	291.78
688.48	291.32
688.81	290.86
689.15	290.50
689.49	290.05
689.82	289.56
690.16	288.99
690.50	288.53
690.83	288.06
691.17	287.61
691.51	287.17
691.84	286.78
692.18	286.32
692.52	285.84
692.85	285.39
693.19	284.99
693.52	284.56
693.86	284.12
694.20	283.68
694.53	283.25
694.87	282.78
695.21	282.33
695.54	281.89
695.88	281.44
696.21	280.92
696.55	280.47
696.88	280.03
697.22	279.59
697.56	279.17
697.89	278.68
698.23	278.25
698.56	277.80
698.90	277.35
699.23	276.90
699.57	276.49
699.90	276.06
700.24	275.57
700.58	275.16
700.91	274.80
701.25	274.54
701.58	274.20
701.92	273.88
702.25	273.53
702.59	273.12
702.92	272.73
703.26	272.34
703.59	271.95
703.93	271.71
704.26	271.33
704.60	270.92
704.93	270.56
705.26	270.15
705.60	269.80
705.93	269.39
706.27	269.06
706.60	268.72
706.94	268.40
707.27	268.00
707.61	267.62
707.94	267.21
708.27	266.68
708.61	266.24
708.94	265.84
709.28	265.47
709.61	265.10
709.94	264.77
710.28	264.44
710.61	264.14
710.95	263.66
711.28	263.45
711.61	263.13
711.95	262.84
712.28	262.52
712.61	262.15
712.95	261.92
713.28	261.67
713.61	261.32
713.95	260.96
714.28	260.68
714.61	260.35
714.95	260.05
715.28	259.74
715.61	259.45
715.95	259.16
716.28	258.85
716.61	258.58
716.95	258.26
717.28	257.95
717.61	257.62
717.94	257.33
718.28	256.93
718.61	256.64
718.94	256.34
719.27	256.07
719.61	255.84
719.94	255.53
720.27	255.18
720.60	254.92
720.94	254.67
721.27	254.43
721.60	254.21
721.93	253.96
722.27	253.76
722.60	253.55
722.93	253.28
723.26	253.05
723.59	252.79
723.93	252.59
724.26	252.40
724.59	252.17
724.92	251.96
725.25	251.78
725.59	251.57
725.92	251.38
726.25	251.17
726.58	250.95
726.91	250.72
727.24	250.52
727.57	250.30
727.91	250.05
728.24	249.86
728.57	249.64
728.90	249.46
729.23	249.20
729.56	249.08
729.89	248.90
730.22	248.68
730.55	248.50
730.89	248.29
731.22	248.08
731.55	247.89
731.88	247.70
732.21	247.49
732.54	247.28
732.87	247.10
733.20	246.92
733.53	246.75
733.86	246.60
734.19	246.40
734.52	246.27
734.85	246.24
735.18	246.06
735.51	245.94
735.84	245.78
736.17	245.68
736.50	245.42
736.83	245.45
737.16	245.30
737.49	245.15
737.82	244.98
738.15	244.85
738.48	244.71
738.81	244.55
739.14	244.37
739.47	244.22
739.80	244.06
740.13	243.94
740.46	243.76
740.79	243.58
741.12	243.44
741.45	243.25
741.78	243.01
742.11	242.90
742.44	242.71
742.77	242.58
743.10	242.40
743.43	242.25
743.75	241.93
744.08	242.06
744.41	241.91
744.74	241.76
745.07	241.59
745.40	241.48
745.73	241.44
746.06	241.32
746.39	241.21
746.71	241.08
747.04	240.92
747.37	240.79
747.70	240.69
748.03	240.57
748.36	240.48
748.68	240.36
749.01	240.19
749.34	240.08
749.67	239.96
750.00	239.88
750.33	239.90
750.65	239.81
750.98	239.45
751.31	239.35
751.64	239.26
751.97	239.25
752.29	239.12
752.62	238.91
752.95	238.79
753.28	238.66
753.60	238.55
753.93	238.49
754.26	238.42
754.59	238.27
754.91	238.15
755.24	238.03
755.57	238.00
755.90	237.89
756.22	237.77
756.55	237.63
756.88	237.50
757.20	237.29
757.53	237.14
757.86	237.04
758.19	236.96
758.51	236.86
758.84	236.69
759.17	236.58
759.49	236.50
759.82	236.50
760.15	236.44
760.47	236.35
760.80	236.22
761.13	236.15
761.45	236.06
761.78	235.99
762.11	235.91
762.43	235.74
762.76	235.66
763.08	235.61
763.41	235.55
763.74	235.47
764.06	235.39
764.39	235.32
764.71	235.23
765.04	235.14
765.37	235.06
765.69	234.99
766.02	234.93
766.34	234.85
766.67	234.71
767.00	234.67
767.32	234.70
767.65	234.73
767.97	234.65
768.30	234.60
768.62	234.54
768.95	234.45
769.27	234.38
769.60	234.35
769.92	234.27
770.25	234.18
770.57	234.10
770.90	234.04
771.22	233.97
771.55	233.92
771.87	233.87
772.20	233.81
772.52	233.91
772.85	234.07
773.17	234.02
773.50	233.97
773.82	233.88
774.15	233.74
774.47	233.58
774.80	233.52
775.12	233.47
775.45	233.41
775.77	233.38
776.09	233.36
776.42	233.31
776.74	233.32
777.07	233.27
777.39	233.24
777.72	233.19
778.04	233.17
778.36	233.12
778.69	233.08
779.01	233.06
779.33	232.85
779.66	232.61
779.98	232.57
780.31	232.54
780.63	232.59
780.95	232.58
781.28	232.55
781.60	232.50
781.92	232.47
782.25	232.43
782.57	232.39
782.89	232.34
783.22	232.29
783.54	232.21
783.86	232.19
784.19	232.16
784.51	232.18
784.83	232.12
785.16	232.10
785.48	232.07
785.80	232.04
786.12	232.02
786.45	231.99
786.77	231.97
787.09	231.93
787.42	231.83
787.74	231.82
788.06	231.80
788.38	231.77
788.71	231.74
789.03	231.72
789.35	231.72
789.67	231.68
789.99	231.67
790.32	231.63
790.64	231.62
790.96	231.75
791.28	231.67
791.61	231.65
791.93	231.63
792.25	231.60
792.57	231.69
792.89	231.65
793.21	231.63
793.54	231.59
793.86	231.55
794.18	231.52
794.50	231.46
794.82	231.44
795.14	231.43
795.47	231.44
795.79	231.41
796.11	231.35
796.43	231.31
796.75	231.28
797.07	231.27
797.39	231.23
797.71	231.07
798.04	231.06
798.36	231.05
798.68	231.03
799.00	231.01
799.32	230.91
799.64	230.91
799.96	230.89
800.28	230.90
800.60	230.88
800.92	230.87
801.24	230.85
801.56	230.84
801.89	230.80
802.21	230.78
802.53	230.74
802.85	230.77
803.17	230.84
803.49	230.79
803.81	230.76
804.13	230.75
804.45	230.70
804.77	230.69
805.09	230.67
805.41	230.64
805.73	230.60
806.05	230.54
806.37	230.51
806.69	230.47
807.01	230.44
807.33	230.44
807.65	230.38
807.97	230.44
808.28	230.41
808.60	230.39
808.92	230.36
809.24	230.45
809.56	230.40
809.88	230.32
810.20	230.32
810.52	230.34
810.84	230.29
811.16	230.27
811.48	230.25
811.80	230.29
812.12	230.28
812.43	230.30
812.75	230.30
813.07	230.28
813.39	230.30
813.71	230.26
814.03	230.23
814.35	230.23
814.67	230.14
814.98	230.13
815.30	230.11
815.62	230.08
815.94	229.96
816.26	229.97
816.58	229.94
816.89	229.95
817.21	229.89
817.53	229.91
817.85	229.91
818.17	229.90
818.48	229.82
818.80	229.84
