SpectraSuite Data File
++++++++++++++++++++++++++++++++++++
Date: Tue Oct 06 13:16:26 EDT 2015
User: lab3
Dark Spectrum Present: No
Reference Spectrum Present: No
Number of Sampled Component Spectra: 1
Spectrometers: USB2E7196
Integration Time (usec): 66000 (USB2E7196)
Spectra Averaged: 1000 (USB2E7196)
Boxcar Smoothing: 10 (USB2E7196)
Correct for Electrical Dark: No (USB2E7196)
Strobe/Lamp Enabled: No (USB2E7196)
Correct for Detector Non-linearity: No (USB2E7196)
Correct for Stray Light: No (USB2E7196)
Number of Pixels in Processed Spectrum: 2048
>>>>>Begin Processed Spectral Data<<<<<
339.09	0.00
339.48	216.39
339.86	217.95
340.24	219.55
340.63	220.70
341.01	224.90
341.39	223.46
341.78	224.82
342.16	226.40
342.54	226.50
342.93	214.94
343.31	225.79
343.69	226.34
344.07	226.80
344.46	227.25
344.84	227.66
345.22	227.86
345.60	228.14
345.99	228.35
346.37	228.48
346.75	228.59
347.13	228.68
347.52	228.76
347.90	228.89
348.28	228.94
348.66	229.02
349.05	229.02
349.43	229.09
349.81	229.16
350.19	229.21
350.57	229.27
350.96	229.36
351.34	229.47
351.72	229.58
352.10	229.69
352.48	229.76
352.87	229.80
353.25	229.87
353.63	229.92
354.01	229.99
354.39	230.07
354.77	230.17
355.15	230.29
355.54	230.34
355.92	230.35
356.30	230.43
356.68	230.62
357.06	230.70
357.44	230.74
357.82	230.80
358.20	231.03
358.58	231.09
358.97	231.17
359.35	231.27
359.73	231.36
360.11	231.41
360.49	231.47
360.87	231.52
361.25	231.59
361.63	231.69
362.01	231.75
362.39	231.77
362.77	231.82
363.15	231.84
363.53	231.87
363.91	231.90
364.29	231.93
364.67	231.77
365.05	231.80
365.43	231.84
365.81	231.89
366.19	231.83
366.57	231.90
366.95	231.90
367.33	231.84
367.71	231.83
368.09	231.86
368.47	231.86
368.85	231.84
369.23	231.86
369.61	231.78
369.99	231.81
370.37	231.82
370.75	231.93
371.13	231.89
371.51	231.84
371.89	231.83
372.27	231.81
372.65	231.80
373.03	231.75
373.41	231.69
373.78	231.62
374.16	231.49
374.54	231.40
374.92	231.34
375.30	231.31
375.68	231.23
376.06	231.18
376.44	231.12
376.82	231.08
377.19	231.04
377.57	230.99
377.95	230.89
378.33	230.80
378.71	230.59
379.09	230.56
379.47	230.54
379.84	230.47
380.22	230.40
380.60	230.32
380.98	230.27
381.36	230.23
381.73	230.16
382.11	230.15
382.49	230.11
382.87	230.04
383.25	230.00
383.62	230.17
384.00	230.10
384.38	230.07
384.76	230.06
385.13	230.07
385.51	230.04
385.89	229.98
386.27	229.96
386.64	229.96
387.02	229.90
387.40	229.85
387.78	229.83
388.15	229.82
388.53	229.80
388.91	229.77
389.29	229.74
389.66	229.75
390.04	229.71
390.42	229.72
390.79	229.72
391.17	229.71
391.55	229.50
391.92	229.49
392.30	229.50
392.68	229.47
393.05	229.44
393.43	229.46
393.81	229.47
394.18	229.46
394.56	229.47
394.94	229.52
395.31	229.52
395.69	229.59
396.06	229.63
396.44	229.68
396.82	229.69
397.19	229.81
397.57	229.84
397.95	229.90
398.32	229.90
398.70	229.97
399.07	230.06
399.45	230.13
399.82	230.19
400.20	230.24
400.58	230.33
400.95	230.36
401.33	230.48
401.70	230.70
402.08	230.86
402.45	230.99
402.83	231.16
403.20	231.32
403.58	231.46
403.95	231.65
404.33	231.87
404.71	232.08
405.08	232.38
405.46	232.61
405.83	232.90
406.21	233.18
406.58	233.50
406.96	233.81
407.33	234.18
407.70	234.60
408.08	235.15
408.45	235.63
408.83	236.15
409.20	236.63
409.58	237.08
409.95	237.68
410.33	238.33
410.70	238.95
411.08	239.68
411.45	240.43
411.82	241.22
412.20	242.12
412.57	243.19
412.95	244.05
413.32	245.16
413.69	246.29
414.07	247.50
414.44	248.82
414.82	250.17
415.19	251.75
415.56	253.35
415.94	255.02
416.31	256.90
416.68	258.78
417.06	260.95
417.43	262.99
417.81	265.32
418.18	267.73
418.55	270.34
418.93	273.07
419.30	275.93
419.67	278.95
420.04	282.06
420.42	285.32
420.79	289.07
421.16	292.85
421.54	296.70
421.91	300.71
422.28	304.87
422.66	309.35
423.03	313.60
423.40	318.07
423.77	322.86
424.15	327.74
424.52	332.80
424.89	338.29
425.26	343.74
425.64	348.81
426.01	354.46
426.38	360.27
426.75	366.21
427.13	372.30
427.50	378.67
427.87	385.27
428.24	391.89
428.61	398.25
428.99	405.11
429.36	412.66
429.73	419.90
430.10	427.09
430.47	434.45
430.85	442.09
431.22	450.21
431.59	458.52
431.96	466.64
432.33	475.67
432.70	484.27
433.08	494.46
433.45	504.07
433.82	513.49
434.19	524.04
434.56	534.41
434.93	544.46
435.30	554.44
435.68	565.77
436.05	576.83
436.42	587.91
436.79	598.03
437.16	608.93
437.53	620.66
437.90	632.43
438.27	643.92
438.64	656.26
439.01	667.54
439.38	677.99
439.75	688.00
440.13	699.42
440.50	710.30
440.87	718.95
441.24	728.43
441.61	738.89
441.98	746.58
442.35	755.65
442.72	764.97
443.09	773.95
443.46	779.89
443.83	784.32
444.20	787.96
444.57	793.32
444.94	796.65
445.31	799.97
445.68	802.80
446.05	804.96
446.42	804.82
446.79	804.44
447.16	804.08
447.53	803.97
447.90	800.79
448.27	797.64
448.64	792.65
449.01	789.41
449.37	782.37
449.74	776.04
450.11	767.83
450.48	758.68
450.85	749.46
451.22	741.40
451.59	733.63
451.96	726.68
452.33	716.47
452.70	707.29
453.07	696.17
453.43	685.11
453.80	674.33
454.17	664.01
454.54	654.37
454.91	643.48
455.28	633.11
455.65	623.32
456.02	613.08
456.38	604.81
456.75	594.07
457.12	585.43
457.49	576.70
457.86	568.50
458.23	561.32
458.59	553.32
458.96	545.19
459.33	538.00
459.70	530.66
460.07	524.99
460.43	518.36
460.80	512.12
461.17	506.68
461.54	500.87
461.91	495.42
462.27	489.89
462.64	485.35
463.01	480.17
463.38	475.01
463.74	470.32
464.11	466.19
464.48	462.48
464.85	458.43
465.21	455.30
465.58	451.84
465.95	447.91
466.32	444.75
466.68	441.65
467.05	438.53
467.42	435.51
467.78	432.28
468.15	429.31
468.52	427.14
468.88	424.29
469.25	421.66
469.62	419.57
469.98	417.30
470.35	415.25
470.72	413.41
471.08	411.52
471.45	409.94
471.82	408.16
472.18	406.31
472.55	405.10
472.92	403.62
473.28	402.44
473.65	401.17
474.02	400.01
474.38	399.02
474.75	398.42
475.11	397.58
475.48	397.19
475.85	396.76
476.21	396.54
476.58	396.39
476.94	396.58
477.31	396.62
477.67	396.76
478.04	397.08
478.41	397.49
478.77	398.08
479.14	398.44
479.50	399.17
479.87	400.13
480.23	401.09
480.60	402.03
480.96	402.96
481.33	404.35
481.69	405.73
482.06	407.10
482.42	408.39
482.79	409.96
483.15	411.79
483.52	413.87
483.88	415.86
484.25	417.99
484.61	420.20
484.98	422.56
485.34	425.24
485.71	428.01
486.07	430.97
486.44	433.89
486.80	437.16
487.17	440.52
487.53	444.19
487.90	448.02
488.26	452.20
488.62	456.58
488.99	461.00
489.35	465.66
489.72	470.67
490.08	475.91
490.44	481.26
490.81	486.76
491.17	492.41
491.54	498.45
491.90	504.61
492.26	511.20
492.63	518.09
492.99	525.23
493.36	532.64
493.72	540.45
494.08	548.38
494.45	556.74
494.81	565.51
495.17	574.48
495.54	583.94
495.90	593.77
496.26	603.89
496.63	614.20
496.99	624.85
497.35	635.98
497.72	647.45
498.08	659.36
498.44	671.55
498.80	684.50
499.17	697.78
499.53	711.48
499.89	725.54
500.26	739.72
500.62	754.19
500.98	769.32
501.34	784.66
501.71	800.71
502.07	817.02
502.43	833.76
502.79	850.58
503.16	867.90
503.52	885.50
503.88	903.53
504.24	922.04
504.60	940.81
504.97	960.01
505.33	979.63
505.69	1000.20
506.05	1020.82
506.41	1041.36
506.78	1062.21
507.14	1083.87
507.50	1105.95
507.86	1128.51
508.22	1151.14
508.59	1173.63
508.95	1196.95
509.31	1220.68
509.67	1245.08
510.03	1269.35
510.39	1294.02
510.75	1318.67
511.12	1343.45
511.48	1368.22
511.84	1393.05
512.20	1418.36
512.56	1444.06
512.92	1469.57
513.28	1494.84
513.64	1520.43
514.00	1546.07
514.37	1571.91
514.73	1597.47
515.09	1622.58
515.45	1647.91
515.81	1673.35
516.17	1698.84
516.53	1723.64
516.89	1748.47
517.25	1773.31
517.61	1798.01
517.97	1822.92
518.33	1847.43
518.69	1871.79
519.05	1896.35
519.41	1920.88
519.77	1945.29
520.13	1969.43
520.49	1993.43
520.85	2017.40
521.21	2041.23
521.57	2065.24
521.93	2088.20
522.29	2111.65
522.65	2134.65
523.01	2157.40
523.37	2179.31
523.73	2201.64
524.09	2224.17
524.45	2246.63
524.81	2268.27
525.17	2289.72
525.53	2310.47
525.89	2331.50
526.25	2352.14
526.61	2371.64
526.97	2391.30
527.33	2410.35
527.68	2428.64
528.04	2446.32
528.40	2463.03
528.76	2480.16
529.12	2496.21
529.48	2512.68
529.84	2527.88
530.20	2544.01
530.56	2559.13
530.91	2574.18
531.27	2588.29
531.63	2601.38
531.99	2614.24
532.35	2625.55
532.71	2636.87
533.07	2648.51
533.42	2658.67
533.78	2669.51
534.14	2680.58
534.50	2690.24
534.86	2700.14
535.21	2708.04
535.57	2716.14
535.93	2724.57
536.29	2731.95
536.65	2739.46
537.00	2744.87
537.36	2750.69
537.72	2754.87
538.08	2758.72
538.44	2761.71
538.79	2765.05
539.15	2767.75
539.51	2769.80
539.87	2772.53
540.22	2773.20
540.58	2774.44
540.94	2775.14
541.29	2774.46
541.65	2772.29
542.01	2770.25
542.37	2767.09
542.72	2765.75
543.08	2762.97
543.44	2759.95
543.79	2755.16
544.15	2750.29
544.51	2746.22
544.87	2740.18
545.22	2733.62
545.58	2727.39
545.94	2721.92
546.29	2714.59
546.65	2706.62
547.01	2698.75
547.36	2690.50
547.72	2682.17
548.07	2672.55
548.43	2662.89
548.79	2652.15
549.14	2642.39
549.50	2632.40
549.86	2621.94
550.21	2609.59
550.57	2598.56
550.92	2585.79
551.28	2573.77
551.64	2561.95
551.99	2550.10
552.35	2538.42
552.70	2526.47
553.06	2514.77
553.41	2501.86
553.77	2488.77
554.13	2475.84
554.48	2462.16
554.84	2447.93
555.19	2434.70
555.55	2420.67
555.90	2406.72
556.26	2393.72
556.61	2379.99
556.97	2365.33
557.32	2350.95
557.68	2336.75
558.03	2322.06
558.39	2308.20
558.74	2294.50
559.10	2278.78
559.45	2263.70
559.81	2249.15
560.16	2234.36
560.52	2219.24
560.87	2204.98
561.23	2190.12
561.58	2175.65
561.94	2160.45
562.29	2145.49
562.64	2130.39
563.00	2115.40
563.35	2101.09
563.71	2086.45
564.06	2071.48
564.42	2057.00
564.77	2042.66
565.12	2028.68
565.48	2014.52
565.83	2000.06
566.19	1985.69
566.54	1971.89
566.89	1956.79
567.25	1941.34
567.60	1927.00
567.96	1912.09
568.31	1896.62
568.66	1882.11
569.02	1867.56
569.37	1853.16
569.72	1839.00
570.08	1824.73
570.43	1810.47
570.78	1795.36
571.14	1780.31
571.49	1765.62
571.84	1751.75
572.20	1736.50
572.55	1721.55
572.90	1706.01
573.26	1690.55
573.61	1674.85
573.96	1659.70
574.31	1645.31
574.67	1631.30
575.02	1616.44
575.37	1601.35
575.72	1586.14
576.08	1571.24
576.43	1556.46
576.78	1541.72
577.13	1527.10
577.49	1512.46
577.84	1497.72
578.19	1483.20
578.54	1468.74
578.90	1454.18
579.25	1439.13
579.60	1425.20
579.95	1411.24
580.30	1397.53
580.66	1383.84
581.01	1370.29
581.36	1356.59
581.71	1342.78
582.06	1329.09
582.42	1315.62
582.77	1302.47
583.12	1289.61
583.47	1276.65
583.82	1263.78
584.17	1250.93
584.53	1238.08
584.88	1225.64
585.23	1212.99
585.58	1200.61
585.93	1188.25
586.28	1176.46
586.63	1164.57
586.98	1152.65
587.34	1141.00
587.69	1129.14
588.04	1117.63
588.39	1106.27
588.74	1094.84
589.09	1083.76
589.44	1072.17
589.79	1061.12
590.14	1050.26
590.49	1039.51
590.84	1028.96
591.19	1018.49
591.54	1008.06
591.89	997.43
592.25	986.83
592.60	976.27
592.95	965.92
593.30	955.65
593.65	945.31
594.00	935.23
594.35	925.80
594.70	915.90
595.05	906.69
595.40	897.29
595.75	887.77
596.10	878.73
596.45	869.54
596.80	860.75
597.15	851.95
597.50	843.17
597.85	834.70
598.19	826.20
598.54	817.72
598.89	809.38
599.24	801.45
599.59	793.62
599.94	786.26
600.29	778.68
600.64	771.19
600.99	763.69
601.34	756.41
601.69	748.52
602.04	741.28
602.39	734.15
602.74	727.20
603.08	720.33
603.43	713.51
603.78	706.80
604.13	700.24
604.48	693.63
604.83	687.26
605.18	680.89
605.53	674.63
605.87	668.23
606.22	662.13
606.57	656.00
606.92	649.75
607.27	643.65
607.62	637.90
607.96	632.22
608.31	626.85
608.66	621.27
609.01	616.01
609.36	610.94
609.70	605.75
610.05	600.52
610.40	595.44
610.75	590.29
611.10	585.47
611.44	580.57
611.79	575.81
612.14	571.03
612.49	566.22
612.83	561.63
613.18	557.31
613.53	552.98
613.88	548.65
614.22	544.54
614.57	540.32
614.92	536.16
615.27	532.13
615.61	528.08
615.96	524.21
616.31	520.31
616.65	516.40
617.00	512.60
617.35	508.91
617.70	505.31
618.04	501.86
618.39	498.33
618.74	494.92
619.08	491.47
619.43	488.09
619.78	484.84
620.12	481.63
620.47	478.55
620.82	475.49
621.16	472.50
621.51	469.65
621.85	466.85
622.20	464.08
622.55	461.29
622.89	458.55
623.24	455.96
623.59	453.39
623.93	450.87
624.28	448.45
624.62	446.24
624.97	444.01
625.32	441.62
625.66	439.21
626.01	436.89
626.35	434.75
626.70	432.57
627.04	430.54
627.39	428.42
627.73	426.34
628.08	424.35
628.43	422.42
628.77	420.45
629.12	418.57
629.46	416.70
629.81	414.95
630.15	413.14
630.50	411.32
630.84	409.59
631.19	407.95
631.53	406.32
631.88	404.52
632.22	402.81
632.57	401.43
632.91	400.04
633.26	398.70
633.60	397.26
633.95	395.91
634.29	394.45
634.64	393.09
634.98	391.58
635.32	390.23
635.67	388.98
636.01	387.73
636.36	386.51
636.70	385.42
637.05	384.19
637.39	383.07
637.73	381.95
638.08	380.88
638.42	379.77
638.77	378.61
639.11	377.40
639.45	376.28
639.80	375.12
640.14	373.98
640.49	372.83
640.83	371.76
641.17	370.65
641.52	369.59
641.86	368.56
642.20	367.74
642.55	366.70
642.89	365.69
643.23	364.69
643.58	363.80
643.92	362.76
644.26	361.80
644.61	360.92
644.95	359.99
645.29	359.04
645.64	358.09
645.98	357.19
646.32	356.39
646.66	355.52
647.01	354.62
647.35	353.83
647.69	353.01
648.04	352.21
648.38	351.40
648.72	350.65
649.06	349.90
649.41	349.08
649.75	348.33
650.09	347.61
650.43	346.87
650.78	346.09
651.12	345.36
651.46	344.64
651.80	343.93
652.14	343.22
652.49	342.55
652.83	341.83
653.17	341.15
653.51	340.50
653.85	339.91
654.20	339.30
654.54	338.57
654.88	337.90
655.22	337.27
655.56	336.59
655.90	335.90
656.25	335.25
656.59	334.60
656.93	334.01
657.27	333.46
657.61	332.82
657.95	332.24
658.29	331.66
658.64	331.14
658.98	330.54
659.32	329.96
659.66	329.39
660.00	328.85
660.34	328.30
660.68	327.72
661.02	327.10
661.36	326.48
661.70	325.95
662.05	325.44
662.39	324.94
662.73	324.51
663.07	324.10
663.41	323.61
663.75	323.09
664.09	322.57
664.43	321.96
664.77	321.47
665.11	320.89
665.45	320.36
665.79	319.82
666.13	319.28
666.47	318.76
666.81	318.21
667.15	317.63
667.49	317.15
667.83	316.73
668.17	316.27
668.51	315.84
668.85	315.41
669.19	315.03
669.53	314.50
669.87	314.00
670.21	313.52
670.55	313.07
670.89	312.72
671.23	312.30
671.57	311.90
671.91	311.52
672.25	311.16
672.58	310.80
672.92	310.34
673.26	309.95
673.60	309.54
673.94	309.17
674.28	308.83
674.62	308.45
674.96	307.99
675.30	307.58
675.64	307.16
675.97	306.74
676.31	306.26
676.65	305.84
676.99	305.49
677.33	305.02
677.67	304.59
678.01	304.05
678.34	303.60
678.68	303.19
679.02	302.72
679.36	302.28
679.70	301.82
680.04	301.41
680.37	300.99
680.71	300.58
681.05	300.18
681.39	299.76
681.73	299.29
682.06	298.84
682.40	298.42
682.74	298.04
683.08	297.68
683.42	297.25
683.75	296.84
684.09	296.32
684.43	295.88
684.77	295.43
685.10	295.06
685.44	294.68
685.78	294.27
686.12	293.88
686.45	293.44
686.79	292.99
687.13	292.58
687.46	292.13
687.80	291.72
688.14	291.23
688.48	290.80
688.81	290.38
689.15	290.03
689.49	289.58
689.82	289.12
690.16	288.59
690.50	288.17
690.83	287.75
691.17	287.31
691.51	286.91
691.84	286.55
692.18	286.11
692.52	285.64
692.85	285.22
693.19	284.86
693.52	284.46
693.86	284.06
694.20	283.66
694.53	283.26
694.87	282.81
695.21	282.39
695.54	281.98
695.88	281.53
696.21	281.03
696.55	280.63
696.88	280.21
697.22	279.81
697.56	279.42
697.89	278.95
698.23	278.55
698.56	278.12
698.90	277.70
699.23	277.26
699.57	276.86
699.90	276.42
700.24	275.94
700.58	275.54
700.91	275.18
701.25	274.92
701.58	274.60
701.92	274.27
702.25	273.93
702.59	273.53
702.92	273.16
703.26	272.80
703.59	272.41
703.93	272.17
704.26	271.81
704.60	271.41
704.93	271.03
705.26	270.64
705.60	270.30
705.93	269.87
706.27	269.56
706.60	269.25
706.94	268.94
707.27	268.55
707.61	268.18
707.94	267.80
708.27	267.29
708.61	266.84
708.94	266.43
709.28	266.07
709.61	265.70
709.94	265.38
710.28	265.07
710.61	264.78
710.95	264.32
711.28	264.10
711.61	263.79
711.95	263.51
712.28	263.19
712.61	262.84
712.95	262.62
713.28	262.36
713.61	262.00
713.95	261.65
714.28	261.36
714.61	261.04
714.95	260.73
715.28	260.42
715.61	260.13
715.95	259.86
716.28	259.56
716.61	259.29
716.95	258.96
717.28	258.65
717.61	258.32
717.94	258.02
718.28	257.62
718.61	257.32
718.94	257.01
719.27	256.75
719.61	256.51
719.94	256.22
720.27	255.86
720.60	255.61
720.94	255.34
721.27	255.09
721.60	254.87
721.93	254.61
722.27	254.42
722.60	254.19
722.93	253.90
723.26	253.68
723.59	253.43
723.93	253.24
724.26	253.02
724.59	252.79
724.92	252.59
725.25	252.41
725.59	252.20
725.92	252.02
726.25	251.79
726.58	251.58
726.91	251.32
727.24	251.12
727.57	250.89
727.91	250.65
728.24	250.48
728.57	250.25
728.90	250.07
729.23	249.82
729.56	249.70
729.89	249.52
730.22	249.32
730.55	249.12
730.89	248.91
731.22	248.68
731.55	248.48
731.88	248.29
732.21	248.07
732.54	247.88
732.87	247.69
733.20	247.52
733.53	247.33
733.86	247.17
734.19	246.98
734.52	246.84
734.85	246.80
735.18	246.58
735.51	246.46
735.84	246.30
736.17	246.18
736.50	245.90
736.83	245.94
737.16	245.78
737.49	245.62
737.82	245.46
738.15	245.34
738.48	245.17
738.81	245.00
739.14	244.82
739.47	244.65
739.80	244.48
740.13	244.34
740.46	244.16
740.79	243.99
741.12	243.85
741.45	243.67
741.78	243.43
742.11	243.34
742.44	243.15
742.77	243.01
743.10	242.83
743.43	242.69
743.75	242.36
744.08	242.48
744.41	242.32
744.74	242.16
745.07	241.98
745.40	241.90
745.73	241.83
746.06	241.71
746.39	241.60
746.71	241.47
747.04	241.32
747.37	241.20
747.70	241.10
748.03	240.97
748.36	240.88
748.68	240.76
749.01	240.59
749.34	240.48
749.67	240.36
750.00	240.27
750.33	240.30
750.65	240.21
750.98	239.85
751.31	239.75
751.64	239.66
751.97	239.65
752.29	239.51
752.62	239.33
752.95	239.21
753.28	239.07
753.60	238.95
753.93	238.88
754.26	238.78
754.59	238.62
754.91	238.50
755.24	238.37
755.57	238.26
755.90	238.14
756.22	238.02
756.55	237.89
756.88	237.74
757.20	237.51
757.53	237.36
757.86	237.24
758.19	237.16
758.51	237.05
758.84	236.87
759.17	236.76
759.49	236.67
759.82	236.66
760.15	236.60
760.47	236.52
760.80	236.38
761.13	236.32
761.45	236.23
761.78	236.15
762.11	236.09
762.43	235.98
762.76	235.92
763.08	235.87
763.41	235.80
763.74	235.72
764.06	235.65
764.39	235.58
764.71	235.50
765.04	235.39
765.37	235.31
765.69	235.24
766.02	235.17
766.34	235.09
766.67	234.95
767.00	234.91
767.32	234.94
767.65	234.99
767.97	234.90
768.30	234.84
768.62	234.79
768.95	234.69
769.27	234.63
769.60	234.57
769.92	234.47
770.25	234.38
770.57	234.30
770.90	234.25
771.22	234.18
771.55	234.14
771.87	234.10
772.20	234.04
772.52	234.15
772.85	234.31
773.17	234.27
773.50	234.20
773.82	234.12
774.15	233.98
774.47	233.81
774.80	233.74
775.12	233.69
775.45	233.64
775.77	233.61
776.09	233.58
776.42	233.54
776.74	233.55
777.07	233.51
777.39	233.48
777.72	233.43
778.04	233.40
778.36	233.34
778.69	233.29
779.01	233.27
779.33	233.07
779.66	232.82
779.98	232.76
780.31	232.74
780.63	232.78
780.95	232.78
781.28	232.74
781.60	232.70
781.92	232.67
782.25	232.63
782.57	232.59
782.89	232.55
783.22	232.50
783.54	232.43
783.86	232.41
784.19	232.38
784.51	232.40
784.83	232.35
785.16	232.33
785.48	232.31
785.80	232.28
786.12	232.26
786.45	232.22
786.77	232.22
787.09	232.17
787.42	232.08
787.74	232.05
788.06	232.04
788.38	232.00
788.71	231.96
789.03	231.94
789.35	231.93
789.67	231.89
789.99	231.87
790.32	231.81
790.64	231.81
790.96	231.94
791.28	231.84
791.61	231.81
791.93	231.79
792.25	231.75
792.57	231.84
792.89	231.79
793.21	231.78
793.54	231.72
793.86	231.69
794.18	231.67
794.50	231.61
794.82	231.59
795.14	231.59
795.47	231.60
795.79	231.58
796.11	231.52
796.43	231.49
796.75	231.46
797.07	231.45
797.39	231.41
797.71	231.25
798.04	231.25
798.36	231.23
798.68	231.20
799.00	231.20
799.32	231.09
799.64	231.09
799.96	231.07
800.28	231.09
800.60	231.06
800.92	231.05
801.24	231.01
801.56	231.00
801.89	230.96
802.21	230.95
802.53	230.91
802.85	230.93
803.17	231.00
803.49	230.96
803.81	230.92
804.13	230.90
804.45	230.87
804.77	230.85
805.09	230.84
805.41	230.81
805.73	230.75
806.05	230.69
806.37	230.66
806.69	230.63
807.01	230.59
807.33	230.59
807.65	230.51
807.97	230.58
808.28	230.54
808.60	230.52
808.92	230.47
809.24	230.57
809.56	230.52
809.88	230.44
810.20	230.43
810.52	230.46
810.84	230.42
811.16	230.39
811.48	230.37
811.80	230.41
812.12	230.40
812.43	230.43
812.75	230.43
813.07	230.40
813.39	230.41
813.71	230.38
814.03	230.35
814.35	230.36
814.67	230.27
814.98	230.25
815.30	230.24
815.62	230.21
815.94	230.07
816.26	230.09
816.58	230.05
816.89	230.04
817.21	229.99
817.53	229.99
817.85	229.99
818.17	229.97
818.48	229.88
818.80	229.90
