SpectraSuite Data File
++++++++++++++++++++++++++++++++++++
Date: Tue Oct 06 15:32:18 EDT 2015
User: lab3
Dark Spectrum Present: No
Reference Spectrum Present: No
Number of Sampled Component Spectra: 1
Spectrometers: USB2E7196
Integration Time (usec): 66000 (USB2E7196)
Spectra Averaged: 1000 (USB2E7196)
Boxcar Smoothing: 10 (USB2E7196)
Correct for Electrical Dark: No (USB2E7196)
Strobe/Lamp Enabled: No (USB2E7196)
Correct for Detector Non-linearity: No (USB2E7196)
Correct for Stray Light: No (USB2E7196)
Number of Pixels in Processed Spectrum: 2048
>>>>>Begin Processed Spectral Data<<<<<
339.09	0.00
339.48	214.85
339.86	216.57
340.24	217.81
340.63	219.37
341.01	223.35
341.39	221.97
341.78	223.50
342.16	224.80
342.54	224.96
342.93	213.51
343.31	224.30
343.69	224.85
344.07	225.31
344.46	225.76
344.84	226.16
345.22	226.35
345.60	226.62
345.99	226.82
346.37	226.96
346.75	227.08
347.13	227.19
347.52	227.27
347.90	227.40
348.28	227.44
348.66	227.52
349.05	227.51
349.43	227.58
349.81	227.65
350.19	227.72
350.57	227.80
350.96	227.90
351.34	228.00
351.72	228.10
352.10	228.22
352.48	228.29
352.87	228.33
353.25	228.41
353.63	228.47
354.01	228.53
354.39	228.62
354.77	228.70
355.15	228.82
355.54	228.86
355.92	228.87
356.30	228.95
356.68	229.13
357.06	229.22
357.44	229.25
357.82	229.30
358.20	229.51
358.58	229.56
358.97	229.62
359.35	229.71
359.73	229.81
360.11	229.86
360.49	229.92
360.87	229.98
361.25	230.05
361.63	230.14
362.01	230.20
362.39	230.21
362.77	230.26
363.15	230.28
363.53	230.32
363.91	230.36
364.29	230.39
364.67	230.23
365.05	230.26
365.43	230.31
365.81	230.35
366.19	230.30
366.57	230.38
366.95	230.38
367.33	230.34
367.71	230.33
368.09	230.35
368.47	230.34
368.85	230.32
369.23	230.34
369.61	230.27
369.99	230.29
370.37	230.29
370.75	230.41
371.13	230.37
371.51	230.31
371.89	230.30
372.27	230.27
372.65	230.25
373.03	230.20
373.41	230.14
373.78	230.09
374.16	229.96
374.54	229.85
374.92	229.80
375.30	229.77
375.68	229.70
376.06	229.66
376.44	229.60
376.82	229.57
377.19	229.53
377.57	229.48
377.95	229.38
378.33	229.33
378.71	229.12
379.09	229.07
379.47	229.05
379.84	228.97
380.22	228.91
380.60	228.84
380.98	228.81
381.36	228.75
381.73	228.68
382.11	228.67
382.49	228.64
382.87	228.57
383.25	228.53
383.62	228.69
384.00	228.63
384.38	228.60
384.76	228.61
385.13	228.62
385.51	228.58
385.89	228.53
386.27	228.50
386.64	228.50
387.02	228.45
387.40	228.40
387.78	228.40
388.15	228.38
388.53	228.36
388.91	228.34
389.29	228.32
389.66	228.33
390.04	228.29
390.42	228.30
390.79	228.31
391.17	228.30
391.55	228.09
391.92	228.08
392.30	228.10
392.68	228.06
393.05	228.05
393.43	228.06
393.81	228.07
394.18	228.07
394.56	228.07
394.94	228.14
395.31	228.16
395.69	228.24
396.06	228.28
396.44	228.32
396.82	228.33
397.19	228.46
397.57	228.48
397.95	228.55
398.32	228.54
398.70	228.61
399.07	228.71
399.45	228.77
399.82	228.84
400.20	228.88
400.58	228.96
400.95	228.98
401.33	229.11
401.70	229.34
402.08	229.48
402.45	229.61
402.83	229.79
403.20	229.95
403.58	230.08
403.95	230.30
404.33	230.52
404.71	230.74
405.08	231.05
405.46	231.30
405.83	231.58
406.21	231.88
406.58	232.21
406.96	232.53
407.33	232.90
407.70	233.32
408.08	233.89
408.45	234.39
408.83	234.93
409.20	235.42
409.58	235.87
409.95	236.49
410.33	237.17
410.70	237.81
411.08	238.56
411.45	239.37
411.82	240.16
412.20	241.10
412.57	242.21
412.95	243.09
413.32	244.23
413.69	245.40
414.07	246.65
414.44	248.02
414.82	249.41
415.19	251.06
415.56	252.72
415.94	254.48
416.31	256.42
416.68	258.39
417.06	260.65
417.43	262.78
417.81	265.22
418.18	267.72
418.55	270.43
418.93	273.25
419.30	276.22
419.67	279.37
420.04	282.59
420.42	285.96
420.79	289.86
421.16	293.80
421.54	297.79
421.91	301.96
422.28	306.30
422.66	310.96
423.03	315.41
423.40	320.07
423.77	325.06
424.15	330.16
424.52	335.44
424.89	341.16
425.26	346.85
425.64	352.12
426.01	358.05
426.38	364.10
426.75	370.35
427.13	376.73
427.50	383.39
427.87	390.32
428.24	397.30
428.61	403.99
428.99	411.18
429.36	419.10
429.73	426.64
430.10	434.20
430.47	441.92
430.85	449.87
431.22	458.36
431.59	467.06
431.96	475.54
432.33	484.99
432.70	493.99
433.08	504.62
433.45	514.65
433.82	524.54
434.19	535.66
434.56	546.58
434.93	557.18
435.30	567.70
435.68	579.65
436.05	591.32
436.42	602.97
436.79	613.66
437.16	625.25
437.53	637.69
437.90	650.06
438.27	662.22
438.64	675.39
439.01	687.36
439.38	698.36
439.75	709.03
440.13	721.15
440.50	732.67
440.87	741.86
441.24	752.00
441.61	763.07
441.98	771.23
442.35	780.94
442.72	790.79
443.09	800.17
443.46	806.29
443.83	810.97
444.20	814.87
444.57	820.50
444.94	823.82
445.31	827.22
445.68	830.16
446.05	832.41
446.42	832.12
446.79	831.55
447.16	831.11
447.53	830.71
447.90	827.12
448.27	823.69
448.64	818.32
449.01	814.58
449.37	806.94
449.74	800.01
450.11	791.04
450.48	781.19
450.85	771.31
451.22	762.81
451.59	754.43
451.96	746.85
452.33	735.84
452.70	726.06
453.07	714.23
453.43	702.46
453.80	690.94
454.17	679.91
454.54	669.73
454.91	658.21
455.28	647.35
455.65	637.13
456.02	626.28
456.38	617.58
456.75	606.46
457.12	597.45
457.49	588.35
457.86	579.75
458.23	572.17
458.59	563.84
458.96	555.26
459.33	547.72
459.70	540.05
460.07	534.22
460.43	527.34
460.80	520.89
461.17	515.25
461.54	509.18
461.91	503.48
462.27	497.70
462.64	492.98
463.01	487.59
463.38	482.15
463.74	477.26
464.11	472.92
464.48	468.96
464.85	464.71
465.21	461.47
465.58	457.85
465.95	453.76
466.32	450.50
466.68	447.30
467.05	444.07
467.42	440.94
467.78	437.56
468.15	434.48
468.52	432.23
468.88	429.24
469.25	426.51
469.62	424.33
469.98	421.97
470.35	419.86
470.72	417.96
471.08	416.01
471.45	414.37
471.82	412.53
472.18	410.62
472.55	409.40
472.92	407.84
473.28	406.64
473.65	405.35
474.02	404.12
474.38	403.09
474.75	402.49
475.11	401.65
475.48	401.26
475.85	400.82
476.21	400.56
476.58	400.38
476.94	400.56
477.31	400.62
477.67	400.69
478.04	400.99
478.41	401.43
478.77	402.03
479.14	402.42
479.50	403.24
479.87	404.25
480.23	405.23
480.60	406.19
480.96	407.16
481.33	408.62
481.69	410.03
482.06	411.44
482.42	412.73
482.79	414.35
483.15	416.23
483.52	418.36
483.88	420.38
484.25	422.52
484.61	424.79
484.98	427.21
485.34	429.97
485.71	432.82
486.07	435.86
486.44	438.90
486.80	442.31
487.17	445.77
487.53	449.54
487.90	453.49
488.26	457.81
488.62	462.33
488.99	466.84
489.35	471.59
489.72	476.69
490.08	482.06
490.44	487.55
490.81	493.26
491.17	499.16
491.54	505.46
491.90	511.89
492.26	518.73
492.63	525.94
492.99	533.43
493.36	541.13
493.72	549.23
494.08	557.48
494.45	566.12
494.81	575.15
495.17	584.42
495.54	594.21
495.90	604.40
496.26	614.79
496.63	625.47
496.99	636.55
497.35	648.14
497.72	660.03
498.08	672.23
498.44	684.74
498.80	697.94
499.17	711.43
499.53	725.36
499.89	739.74
500.26	754.27
500.62	769.15
500.98	784.84
501.34	800.58
501.71	817.11
502.07	833.87
502.43	851.13
502.79	868.59
503.16	886.56
503.52	904.72
503.88	923.26
504.24	942.27
504.60	961.50
504.97	981.29
505.33	1001.53
505.69	1022.78
506.05	1044.22
506.41	1065.54
506.78	1086.98
507.14	1109.07
507.50	1131.57
507.86	1154.49
508.22	1177.56
508.59	1200.40
508.95	1224.30
509.31	1248.61
509.67	1273.58
510.03	1298.48
510.39	1323.28
510.75	1348.16
511.12	1373.37
511.48	1398.68
511.84	1423.92
512.20	1449.43
512.56	1475.92
512.92	1502.24
513.28	1527.97
513.64	1554.02
514.00	1580.37
514.37	1607.06
514.73	1633.62
515.09	1659.52
515.45	1685.67
515.81	1711.96
516.17	1737.96
516.53	1763.28
516.89	1788.54
517.25	1813.98
517.61	1839.20
517.97	1864.97
518.33	1890.00
518.69	1914.93
519.05	1940.21
519.41	1965.62
519.77	1990.99
520.13	2014.98
520.49	2039.10
520.85	2063.46
521.21	2087.24
521.57	2111.28
521.93	2134.26
522.29	2157.96
522.65	2181.31
523.01	2204.43
523.37	2226.91
523.73	2250.11
524.09	2272.92
524.45	2295.25
524.81	2317.00
525.17	2338.45
525.53	2359.27
525.89	2380.51
526.25	2401.27
526.61	2420.55
526.97	2439.78
527.33	2458.84
527.68	2477.52
528.04	2495.63
528.40	2512.51
528.76	2529.68
529.12	2546.37
529.48	2563.59
529.84	2578.15
530.20	2593.20
530.56	2607.28
530.91	2621.45
531.27	2635.08
531.63	2647.91
531.99	2660.38
532.35	2672.39
532.71	2683.95
533.07	2695.84
533.42	2705.87
533.78	2716.14
534.14	2727.36
534.50	2737.40
534.86	2748.01
535.21	2756.52
535.57	2764.94
535.93	2773.29
536.29	2780.04
536.65	2786.43
537.00	2791.31
537.36	2797.33
537.72	2802.41
538.08	2806.94
538.44	2810.43
538.79	2813.76
539.15	2815.74
539.51	2817.21
539.87	2817.59
540.22	2816.44
540.58	2815.47
540.94	2815.37
541.29	2814.12
541.65	2811.37
542.01	2808.38
542.37	2803.77
542.72	2800.73
543.08	2796.21
543.44	2791.78
543.79	2786.62
544.15	2781.02
544.51	2775.71
544.87	2769.33
545.22	2762.10
545.58	2754.76
545.94	2747.71
546.29	2739.17
546.65	2730.80
547.01	2722.41
547.36	2714.46
547.72	2706.71
548.07	2697.23
548.43	2686.75
548.79	2676.02
549.14	2665.73
549.50	2655.59
549.86	2644.66
550.21	2632.12
550.57	2620.52
550.92	2607.31
551.28	2594.68
551.64	2582.24
551.99	2569.50
552.35	2556.51
552.70	2543.33
553.06	2530.70
553.41	2517.64
553.77	2504.10
554.13	2490.83
554.48	2476.57
554.84	2461.59
555.19	2447.30
555.55	2432.87
555.90	2418.72
556.26	2405.03
556.61	2390.24
556.97	2374.42
557.32	2359.01
557.68	2343.98
558.03	2328.66
558.39	2314.24
558.74	2300.40
559.10	2284.80
559.45	2269.58
559.81	2255.07
560.16	2240.26
560.52	2225.25
560.87	2210.30
561.23	2195.18
561.58	2180.44
561.94	2165.31
562.29	2149.77
562.64	2134.27
563.00	2119.03
563.35	2104.00
563.71	2088.53
564.06	2073.27
564.42	2058.51
564.77	2043.79
565.12	2028.92
565.48	2013.94
565.83	1999.19
566.19	1984.44
566.54	1970.05
566.89	1954.93
567.25	1939.62
567.60	1925.12
567.96	1909.95
568.31	1893.65
568.66	1878.29
569.02	1863.44
569.37	1849.19
569.72	1835.53
570.08	1821.39
570.43	1806.74
570.78	1791.91
571.14	1776.91
571.49	1762.00
571.84	1747.46
572.20	1731.91
572.55	1717.05
572.90	1702.20
573.26	1687.31
573.61	1671.78
573.96	1656.76
574.31	1641.76
574.67	1626.69
575.02	1611.38
575.37	1596.05
575.72	1581.44
576.08	1566.76
576.43	1551.45
576.78	1536.25
577.13	1521.14
577.49	1506.42
577.84	1492.11
578.19	1477.33
578.54	1462.63
578.90	1447.92
579.25	1433.12
579.60	1419.33
579.95	1405.33
580.30	1391.32
580.66	1377.08
581.01	1363.01
581.36	1349.06
581.71	1335.71
582.06	1322.35
582.42	1308.82
582.77	1295.83
583.12	1283.04
583.47	1270.12
583.82	1257.47
584.17	1244.44
584.53	1231.52
584.88	1218.80
585.23	1205.98
585.58	1193.55
585.93	1181.10
586.28	1169.52
586.63	1157.77
586.98	1145.75
587.34	1134.09
587.69	1122.22
588.04	1110.74
588.39	1099.54
588.74	1087.91
589.09	1076.49
589.44	1064.80
589.79	1053.66
590.14	1042.54
590.49	1031.53
590.84	1020.77
591.19	1010.19
591.54	999.74
591.89	988.92
592.25	978.45
592.60	967.89
592.95	957.50
593.30	947.39
593.65	937.03
594.00	926.93
594.35	917.66
594.70	907.77
595.05	898.50
595.40	889.01
595.75	879.37
596.10	870.31
596.45	861.24
596.80	852.47
597.15	843.78
597.50	835.13
597.85	826.65
598.19	818.12
598.54	809.64
598.89	801.60
599.24	793.95
599.59	786.14
599.94	778.89
600.29	771.64
600.64	764.27
600.99	756.80
601.34	749.57
601.69	741.85
602.04	734.95
602.39	727.93
602.74	721.09
603.08	714.38
603.43	707.69
603.78	700.96
604.13	694.37
604.48	687.80
604.83	681.39
605.18	675.12
605.53	668.97
605.87	662.77
606.22	656.70
606.57	650.57
606.92	644.36
607.27	638.18
607.62	632.22
607.96	626.48
608.31	621.12
608.66	615.70
609.01	610.53
609.36	605.31
609.70	600.06
610.05	594.84
610.40	589.77
610.75	584.72
611.10	579.88
611.44	575.03
611.79	570.28
612.14	565.50
612.49	560.73
612.83	556.24
613.18	551.80
613.53	547.36
613.88	543.07
614.22	539.05
614.57	534.95
614.92	530.92
615.27	527.04
615.61	523.09
615.96	519.18
616.31	515.25
616.65	511.47
617.00	507.80
617.35	504.17
617.70	500.56
618.04	497.04
618.39	493.62
618.74	490.41
619.08	487.17
619.43	484.01
619.78	480.81
620.12	477.63
620.47	474.64
620.82	471.69
621.16	468.75
621.51	465.89
621.85	463.07
622.20	460.31
622.55	457.50
622.89	454.75
623.24	452.16
623.59	449.62
623.93	447.13
624.28	444.78
624.62	442.63
624.97	440.49
625.32	438.24
625.66	435.94
626.01	433.62
626.35	431.45
626.70	429.21
627.04	427.19
627.39	425.10
627.73	423.09
628.08	421.16
628.43	419.24
628.77	417.22
629.12	415.33
629.46	413.52
629.81	411.82
630.15	410.04
630.50	408.26
630.84	406.56
631.19	404.91
631.53	403.29
631.88	401.50
632.22	399.80
632.57	398.37
632.91	396.93
633.26	395.55
633.60	394.18
633.95	392.90
634.29	391.46
634.64	390.13
634.98	388.66
635.32	387.32
635.67	386.11
636.01	384.91
636.36	383.74
636.70	382.67
637.05	381.42
637.39	380.34
637.73	379.23
638.08	378.20
638.42	377.19
638.77	376.05
639.11	374.91
639.45	373.78
639.80	372.61
640.14	371.54
640.49	370.42
640.83	369.31
641.17	368.22
641.52	367.18
641.86	366.16
642.20	365.29
642.55	364.26
642.89	363.24
643.23	362.28
643.58	361.44
643.92	360.43
644.26	359.52
644.61	358.64
644.95	357.73
645.29	356.74
645.64	355.74
645.98	354.84
646.32	354.03
646.66	353.18
647.01	352.35
647.35	351.58
647.69	350.81
648.04	350.10
648.38	349.33
648.72	348.60
649.06	347.84
649.41	347.05
649.75	346.30
650.09	345.60
650.43	344.85
650.78	344.08
651.12	343.36
651.46	342.63
651.80	341.92
652.14	341.25
652.49	340.62
652.83	339.94
653.17	339.23
653.51	338.55
653.85	337.99
654.20	337.37
654.54	336.64
654.88	335.95
655.22	335.29
655.56	334.62
655.90	333.96
656.25	333.33
656.59	332.70
656.93	332.13
657.27	331.58
657.61	330.97
657.95	330.42
658.29	329.83
658.64	329.28
658.98	328.66
659.32	328.09
659.66	327.54
660.00	327.03
660.34	326.51
660.68	325.93
661.02	325.28
661.36	324.68
661.70	324.14
662.05	323.61
662.39	323.09
662.73	322.62
663.07	322.21
663.41	321.74
663.75	321.22
664.09	320.70
664.43	320.08
664.77	319.56
665.11	318.96
665.45	318.42
665.79	317.93
666.13	317.40
666.47	316.85
666.81	316.28
667.15	315.67
667.49	315.21
667.83	314.78
668.17	314.32
668.51	313.89
668.85	313.48
669.19	313.11
669.53	312.56
669.87	312.02
670.21	311.47
670.55	310.95
670.89	310.56
671.23	310.11
671.57	309.73
671.91	309.36
672.25	309.03
672.58	308.70
672.92	308.25
673.26	307.89
673.60	307.51
673.94	307.12
674.28	306.77
674.62	306.38
674.96	305.94
675.30	305.54
675.64	305.10
675.97	304.62
676.31	304.12
676.65	303.69
676.99	303.36
677.33	302.90
677.67	302.52
678.01	302.01
678.34	301.59
678.68	301.17
679.02	300.71
679.36	300.25
679.70	299.77
680.04	299.37
680.37	298.94
680.71	298.55
681.05	298.18
681.39	297.74
681.73	297.27
682.06	296.82
682.40	296.41
682.74	296.05
683.08	295.75
683.42	295.37
683.75	295.03
684.09	294.54
684.43	294.15
684.77	293.71
685.10	293.32
685.44	292.91
685.78	292.49
686.12	292.08
686.45	291.67
686.79	291.23
687.13	290.84
687.46	290.38
687.80	289.98
688.14	289.50
688.48	289.09
688.81	288.68
689.15	288.33
689.49	287.90
689.82	287.46
690.16	286.92
690.50	286.46
690.83	286.02
691.17	285.57
691.51	285.14
691.84	284.77
692.18	284.35
692.52	283.90
692.85	283.46
693.19	283.10
693.52	282.67
693.86	282.25
694.20	281.82
694.53	281.40
694.87	280.93
695.21	280.50
695.54	280.07
695.88	279.63
696.21	279.15
696.55	278.71
696.88	278.27
697.22	277.85
697.56	277.46
697.89	277.01
698.23	276.62
698.56	276.20
698.90	275.79
699.23	275.34
699.57	274.95
699.90	274.55
700.24	274.08
700.58	273.69
700.91	273.34
701.25	273.10
701.58	272.80
701.92	272.47
702.25	272.12
702.59	271.71
702.92	271.34
703.26	270.96
703.59	270.57
703.93	270.34
704.26	269.99
704.60	269.60
704.93	269.24
705.26	268.85
705.60	268.52
705.93	268.10
706.27	267.80
706.60	267.47
706.94	267.18
707.27	266.78
707.61	266.43
707.94	266.03
708.27	265.50
708.61	265.08
708.94	264.68
709.28	264.32
709.61	263.96
709.94	263.63
710.28	263.31
710.61	263.01
710.95	262.53
711.28	262.30
711.61	261.96
711.95	261.66
712.28	261.33
712.61	260.97
712.95	260.77
713.28	260.53
713.61	260.18
713.95	259.81
714.28	259.52
714.61	259.19
714.95	258.88
715.28	258.58
715.61	258.28
715.95	258.01
716.28	257.71
716.61	257.47
716.95	257.16
717.28	256.86
717.61	256.55
717.94	256.28
718.28	255.89
718.61	255.62
718.94	255.33
719.27	255.06
719.61	254.82
719.94	254.50
720.27	254.14
720.60	253.88
720.94	253.62
721.27	253.36
721.60	253.13
721.93	252.88
722.27	252.68
722.60	252.46
722.93	252.19
723.26	251.97
723.59	251.69
723.93	251.49
724.26	251.27
724.59	251.04
724.92	250.83
725.25	250.65
725.59	250.43
725.92	250.23
726.25	250.01
726.58	249.79
726.91	249.56
727.24	249.38
727.57	249.16
727.91	248.93
728.24	248.76
728.57	248.54
728.90	248.36
729.23	248.09
729.56	247.96
729.89	247.77
730.22	247.56
730.55	247.38
730.89	247.17
731.22	246.98
731.55	246.79
731.88	246.61
732.21	246.40
732.54	246.20
732.87	246.02
733.20	245.86
733.53	245.69
733.86	245.53
734.19	245.33
734.52	245.19
734.85	245.16
735.18	244.97
735.51	244.86
735.84	244.70
736.17	244.60
736.50	244.35
736.83	244.39
737.16	244.23
737.49	244.09
737.82	243.92
738.15	243.79
738.48	243.63
738.81	243.47
739.14	243.29
739.47	243.12
739.80	242.96
740.13	242.81
740.46	242.63
740.79	242.44
741.12	242.29
741.45	242.12
741.78	241.87
742.11	241.76
742.44	241.55
742.77	241.42
743.10	241.25
743.43	241.09
743.75	240.76
744.08	240.89
744.41	240.72
744.74	240.57
745.07	240.39
745.40	240.29
745.73	240.23
746.06	240.12
746.39	240.03
746.71	239.88
747.04	239.73
747.37	239.60
747.70	239.51
748.03	239.38
748.36	239.28
748.68	239.16
749.01	239.00
749.34	238.90
749.67	238.78
750.00	238.69
750.33	238.72
750.65	238.62
750.98	238.24
751.31	238.14
751.64	238.05
751.97	238.04
752.29	237.92
752.62	237.73
752.95	237.61
753.28	237.47
753.60	237.36
753.93	237.29
754.26	237.21
754.59	237.06
754.91	236.94
755.24	236.82
755.57	236.73
755.90	236.61
756.22	236.48
756.55	236.35
756.88	236.20
757.20	235.98
757.53	235.83
757.86	235.74
758.19	235.65
758.51	235.55
758.84	235.36
759.17	235.26
759.49	235.17
759.82	235.16
760.15	235.10
760.47	235.01
760.80	234.87
761.13	234.81
761.45	234.72
761.78	234.65
762.11	234.58
762.43	234.47
762.76	234.39
763.08	234.33
763.41	234.27
763.74	234.21
764.06	234.13
764.39	234.05
764.71	233.97
765.04	233.87
765.37	233.79
765.69	233.72
766.02	233.63
766.34	233.55
766.67	233.41
767.00	233.37
767.32	233.39
767.65	233.44
767.97	233.35
768.30	233.30
768.62	233.23
768.95	233.14
769.27	233.07
769.60	233.03
769.92	232.93
770.25	232.82
770.57	232.74
770.90	232.69
771.22	232.62
771.55	232.56
771.87	232.52
772.20	232.46
772.52	232.54
772.85	232.71
773.17	232.66
773.50	232.60
773.82	232.52
774.15	232.37
774.47	232.21
774.80	232.15
775.12	232.10
775.45	232.05
775.77	232.01
776.09	231.99
776.42	231.95
776.74	231.97
777.07	231.93
777.39	231.91
777.72	231.85
778.04	231.83
778.36	231.78
778.69	231.74
779.01	231.72
779.33	231.53
779.66	231.29
779.98	231.25
780.31	231.21
780.63	231.26
780.95	231.27
781.28	231.22
781.60	231.17
781.92	231.13
782.25	231.09
782.57	231.06
782.89	231.02
783.22	230.98
783.54	230.90
783.86	230.89
784.19	230.83
784.51	230.86
784.83	230.81
785.16	230.78
785.48	230.74
785.80	230.71
786.12	230.69
786.45	230.66
786.77	230.64
787.09	230.60
787.42	230.50
787.74	230.46
788.06	230.45
788.38	230.42
788.71	230.38
789.03	230.36
789.35	230.35
789.67	230.30
789.99	230.29
790.32	230.25
790.64	230.24
790.96	230.40
791.28	230.31
791.61	230.28
791.93	230.26
792.25	230.23
792.57	230.33
792.89	230.28
793.21	230.26
793.54	230.21
793.86	230.17
794.18	230.16
794.50	230.11
794.82	230.08
795.14	230.08
795.47	230.11
795.79	230.10
796.11	230.04
796.43	230.02
796.75	229.99
797.07	229.97
797.39	229.94
797.71	229.77
798.04	229.76
798.36	229.76
798.68	229.75
799.00	229.75
799.32	229.64
799.64	229.67
799.96	229.64
800.28	229.66
800.60	229.63
800.92	229.62
801.24	229.60
801.56	229.60
801.89	229.56
802.21	229.55
802.53	229.50
802.85	229.54
803.17	229.60
803.49	229.54
803.81	229.51
804.13	229.48
804.45	229.44
804.77	229.44
805.09	229.42
805.41	229.38
805.73	229.34
806.05	229.27
806.37	229.24
806.69	229.20
807.01	229.17
807.33	229.16
807.65	229.09
807.97	229.15
808.28	229.11
808.60	229.10
808.92	229.04
809.24	229.14
809.56	229.09
809.88	229.01
810.20	229.01
810.52	229.02
810.84	228.99
811.16	228.96
811.48	228.93
811.80	228.98
812.12	228.96
812.43	228.97
812.75	228.97
813.07	228.94
813.39	228.94
813.71	228.90
814.03	228.87
814.35	228.88
814.67	228.79
814.98	228.75
815.30	228.74
815.62	228.69
815.94	228.55
816.26	228.55
816.58	228.50
816.89	228.51
817.21	228.45
817.53	228.45
817.85	228.45
818.17	228.43
818.48	228.34
818.80	228.37
