SpectraSuite Data File
++++++++++++++++++++++++++++++++++++
Date: Tue Oct 06 12:10:53 EDT 2015
User: lab3
Dark Spectrum Present: No
Reference Spectrum Present: No
Number of Sampled Component Spectra: 1
Spectrometers: USB2E7196
Integration Time (usec): 66000 (USB2E7196)
Spectra Averaged: 400 (USB2E7196)
Boxcar Smoothing: 10 (USB2E7196)
Correct for Electrical Dark: No (USB2E7196)
Strobe/Lamp Enabled: No (USB2E7196)
Correct for Detector Non-linearity: No (USB2E7196)
Correct for Stray Light: No (USB2E7196)
Number of Pixels in Processed Spectrum: 2048
>>>>>Begin Processed Spectral Data<<<<<
339.09	0.00
339.48	216.73
339.86	218.29
340.24	219.33
340.63	220.82
341.01	224.98
341.39	223.68
341.78	225.18
342.16	226.50
342.54	226.34
342.93	215.06
343.31	225.92
343.69	226.45
344.07	226.92
344.46	227.37
344.84	227.78
345.22	227.98
345.60	228.26
345.99	228.46
346.37	228.60
346.75	228.74
347.13	228.82
347.52	228.91
347.90	229.03
348.28	229.10
348.66	229.19
349.05	229.17
349.43	229.27
349.81	229.35
350.19	229.42
350.57	229.49
350.96	229.59
351.34	229.70
351.72	229.82
352.10	229.93
352.48	230.00
352.87	230.04
353.25	230.10
353.63	230.15
354.01	230.21
354.39	230.29
354.77	230.38
355.15	230.50
355.54	230.56
355.92	230.57
356.30	230.63
356.68	230.80
357.06	230.88
357.44	230.91
357.82	230.96
358.20	231.19
358.58	231.26
358.97	231.32
359.35	231.41
359.73	231.51
360.11	231.55
360.49	231.62
360.87	231.68
361.25	231.76
361.63	231.86
362.01	231.93
362.39	231.96
362.77	232.02
363.15	232.04
363.53	232.07
363.91	232.10
364.29	232.13
364.67	232.00
365.05	232.03
365.43	232.07
365.81	232.11
366.19	232.07
366.57	232.13
366.95	232.15
367.33	232.10
367.71	232.10
368.09	232.14
368.47	232.15
368.85	232.14
369.23	232.17
369.61	232.10
369.99	232.13
370.37	232.14
370.75	232.22
371.13	232.19
371.51	232.14
371.89	232.14
372.27	232.11
372.65	232.08
373.03	232.05
373.41	231.99
373.78	231.95
374.16	231.81
374.54	231.72
374.92	231.65
375.30	231.63
375.68	231.55
376.06	231.50
376.44	231.43
376.82	231.39
377.19	231.35
377.57	231.30
377.95	231.20
378.33	231.12
378.71	230.93
379.09	230.88
379.47	230.84
379.84	230.76
380.22	230.70
380.60	230.63
380.98	230.58
381.36	230.53
381.73	230.45
382.11	230.43
382.49	230.39
382.87	230.34
383.25	230.28
383.62	230.43
384.00	230.35
384.38	230.32
384.76	230.32
385.13	230.30
385.51	230.25
385.89	230.19
386.27	230.16
386.64	230.15
387.02	230.11
387.40	230.07
387.78	230.05
388.15	230.02
388.53	229.98
388.91	229.95
389.29	229.92
389.66	229.93
390.04	229.89
390.42	229.90
390.79	229.89
391.17	229.88
391.55	229.67
391.92	229.65
392.30	229.68
392.68	229.62
393.05	229.61
393.43	229.61
393.81	229.63
394.18	229.62
394.56	229.62
394.94	229.70
395.31	229.70
395.69	229.78
396.06	229.83
396.44	229.88
396.82	229.91
397.19	230.04
397.57	230.07
397.95	230.13
398.32	230.14
398.70	230.21
399.07	230.31
399.45	230.40
399.82	230.47
400.20	230.52
400.58	230.61
400.95	230.64
401.33	230.77
401.70	230.99
402.08	231.16
402.45	231.26
402.83	231.42
403.20	231.59
403.58	231.71
403.95	231.91
404.33	232.14
404.71	232.34
405.08	232.64
405.46	232.87
405.83	233.12
406.21	233.40
406.58	233.71
406.96	234.00
407.33	234.37
407.70	234.79
408.08	235.36
408.45	235.86
408.83	236.40
409.20	236.89
409.58	237.33
409.95	237.93
410.33	238.60
410.70	239.24
411.08	239.98
411.45	240.76
411.82	241.56
412.20	242.45
412.57	243.51
412.95	244.37
413.32	245.49
413.69	246.68
414.07	247.92
414.44	249.27
414.82	250.65
415.19	252.25
415.56	253.87
415.94	255.58
416.31	257.47
416.68	259.39
417.06	261.61
417.43	263.70
417.81	266.08
418.18	268.54
418.55	271.19
418.93	273.97
419.30	276.87
419.67	279.96
420.04	283.15
420.42	286.47
420.79	290.30
421.16	294.18
421.54	298.08
421.91	302.17
422.28	306.44
422.66	311.04
423.03	315.37
423.40	319.95
423.77	324.83
424.15	329.82
424.52	335.00
424.89	340.65
425.26	346.23
425.64	351.43
426.01	357.23
426.38	363.20
426.75	369.30
427.13	375.55
427.50	382.07
427.87	388.83
428.24	395.65
428.61	402.18
428.99	409.20
429.36	416.99
429.73	424.45
430.10	431.86
430.47	439.44
430.85	447.32
431.22	455.70
431.59	464.27
431.96	472.63
432.33	481.96
432.70	490.79
433.08	501.34
433.45	511.24
433.82	520.97
434.19	531.83
434.56	542.54
434.93	552.92
435.30	563.26
435.68	574.97
436.05	586.44
436.42	597.91
436.79	608.39
437.16	619.66
437.53	631.77
437.90	643.92
438.27	655.77
438.64	668.51
439.01	680.14
439.38	690.91
439.75	701.28
440.13	713.07
440.50	724.26
440.87	733.13
441.24	742.89
441.61	753.62
441.98	761.53
442.35	770.83
442.72	780.41
443.09	789.56
443.46	795.55
443.83	799.99
444.20	803.57
444.57	808.98
444.94	812.24
445.31	815.44
445.68	818.20
446.05	820.21
446.42	819.87
446.79	819.28
447.16	818.74
447.53	818.41
447.90	814.90
448.27	811.46
448.64	806.18
449.01	802.61
449.37	795.16
449.74	788.46
450.11	779.82
450.48	770.21
450.85	760.53
451.22	752.14
451.59	744.00
451.96	736.77
452.33	726.12
452.70	716.60
453.07	705.12
453.43	693.64
453.80	682.56
454.17	671.91
454.54	661.98
454.91	650.75
455.28	640.06
455.65	629.96
456.02	619.40
456.38	610.86
456.75	599.85
457.12	590.99
457.49	582.06
457.86	573.66
458.23	566.32
458.59	558.17
458.96	549.85
459.33	542.51
459.70	535.05
460.07	529.30
460.43	522.54
460.80	516.23
461.17	510.69
461.54	504.76
461.91	499.20
462.27	493.57
462.64	488.97
463.01	483.71
463.38	478.47
463.74	473.73
464.11	469.55
464.48	465.79
464.85	461.70
465.21	458.48
465.58	454.97
465.95	450.93
466.32	447.70
466.68	444.54
467.05	441.38
467.42	438.26
467.78	434.95
468.15	431.94
468.52	429.72
468.88	426.83
469.25	424.15
469.62	422.02
469.98	419.69
470.35	417.60
470.72	415.72
471.08	413.79
471.45	412.17
471.82	410.34
472.18	408.46
472.55	407.24
472.92	405.78
473.28	404.59
473.65	403.33
474.02	402.18
474.38	401.17
474.75	400.58
475.11	399.72
475.48	399.34
475.85	398.93
476.21	398.67
476.58	398.49
476.94	398.67
477.31	398.73
477.67	398.89
478.04	399.18
478.41	399.59
478.77	400.23
479.14	400.59
479.50	401.36
479.87	402.35
480.23	403.34
480.60	404.24
480.96	405.18
481.33	406.60
481.69	407.98
482.06	409.40
482.42	410.67
482.79	412.23
483.15	414.09
483.52	416.18
483.88	418.22
484.25	420.39
484.61	422.66
484.98	425.05
485.34	427.75
485.71	430.62
486.07	433.66
486.44	436.62
486.80	439.98
487.17	443.38
487.53	447.09
487.90	450.95
488.26	455.26
488.62	459.76
488.99	464.24
489.35	469.00
489.72	474.12
490.08	479.45
490.44	484.96
490.81	490.60
491.17	496.36
491.54	502.52
491.90	508.84
492.26	515.54
492.63	522.60
492.99	529.86
493.36	537.44
493.72	545.39
494.08	553.49
494.45	561.99
494.81	570.90
495.17	580.07
495.54	589.70
495.90	599.73
496.26	609.97
496.63	620.50
496.99	631.38
497.35	642.70
497.72	654.40
498.08	666.52
498.44	678.87
498.80	692.04
499.17	705.53
499.53	719.46
499.89	733.74
500.26	748.14
500.62	762.85
500.98	778.21
501.34	793.80
501.71	810.12
502.07	826.67
502.43	843.65
502.79	860.68
503.16	878.28
503.52	896.07
503.88	914.38
504.24	933.13
504.60	952.10
504.97	971.50
505.33	991.37
505.69	1012.17
506.05	1033.03
506.41	1053.86
506.78	1074.94
507.14	1096.74
507.50	1119.06
507.86	1141.80
508.22	1164.67
508.59	1187.32
508.95	1210.80
509.31	1234.72
509.67	1259.34
510.03	1283.80
510.39	1308.70
510.75	1333.55
511.12	1358.55
511.48	1383.47
511.84	1408.36
512.20	1433.81
512.56	1459.64
512.92	1485.24
513.28	1510.50
513.64	1536.20
514.00	1561.85
514.37	1587.78
514.73	1613.38
515.09	1638.54
515.45	1663.91
515.81	1689.30
516.17	1714.83
516.53	1739.64
516.89	1764.41
517.25	1789.20
517.61	1813.85
517.97	1838.60
518.33	1862.92
518.69	1887.07
519.05	1911.51
519.41	1935.92
519.77	1960.14
520.13	1984.06
520.49	2007.81
520.85	2031.67
521.21	2055.21
521.57	2078.95
521.93	2101.58
522.29	2124.72
522.65	2147.32
523.01	2169.76
523.37	2191.35
523.73	2213.38
524.09	2235.40
524.45	2257.48
524.81	2278.68
525.17	2299.71
525.53	2319.99
525.89	2340.54
526.25	2360.79
526.61	2379.74
526.97	2398.91
527.33	2417.56
527.68	2435.36
528.04	2452.52
528.40	2468.68
528.76	2485.34
529.12	2500.78
529.48	2516.63
529.84	2531.21
530.20	2546.81
530.56	2561.25
530.91	2575.65
531.27	2589.02
531.63	2601.51
531.99	2613.70
532.35	2624.32
532.71	2635.02
533.07	2646.01
533.42	2655.51
533.78	2665.60
534.14	2675.97
534.50	2684.98
534.86	2694.10
535.21	2701.30
535.57	2708.67
535.93	2716.32
536.29	2722.89
536.65	2729.72
537.00	2734.43
537.36	2739.61
537.72	2743.05
538.08	2746.19
538.44	2748.46
538.79	2751.06
539.15	2753.09
539.51	2754.38
539.87	2756.38
540.22	2756.35
540.58	2756.89
540.94	2756.89
541.29	2755.54
541.65	2752.69
542.01	2749.88
542.37	2746.04
542.72	2743.96
543.08	2740.50
543.44	2736.85
543.79	2731.46
544.15	2725.86
544.51	2721.12
544.87	2714.39
545.22	2707.12
545.58	2700.19
545.94	2694.02
546.29	2686.04
546.65	2677.38
547.01	2668.88
547.36	2659.96
547.72	2650.97
548.07	2640.77
548.43	2630.57
548.79	2619.18
549.14	2608.86
549.50	2598.32
549.86	2587.27
550.21	2574.37
550.57	2562.87
550.92	2549.56
551.28	2536.89
551.64	2524.56
551.99	2512.20
552.35	2500.04
552.70	2487.65
553.06	2475.54
553.41	2462.24
553.77	2448.76
554.13	2435.48
554.48	2421.42
554.84	2406.88
555.19	2393.23
555.55	2378.77
555.90	2364.45
556.26	2351.17
556.61	2337.13
556.97	2322.19
557.32	2307.56
557.68	2293.18
558.03	2278.13
558.39	2263.96
558.74	2250.16
559.10	2234.30
559.45	2219.03
559.81	2204.31
560.16	2189.33
560.52	2174.02
560.87	2159.57
561.23	2144.63
561.58	2130.11
561.94	2114.81
562.29	2099.76
562.64	2084.60
563.00	2069.64
563.35	2055.18
563.71	2040.49
564.06	2025.45
564.42	2010.90
564.77	1996.47
565.12	1982.48
565.48	1968.38
565.83	1953.96
566.19	1939.62
566.54	1925.79
566.89	1910.77
567.25	1895.34
567.60	1881.14
567.96	1866.32
568.31	1850.95
568.66	1836.46
569.02	1821.93
569.37	1807.64
569.72	1793.57
570.08	1779.40
570.43	1765.15
570.78	1750.22
571.14	1735.27
571.49	1720.73
571.84	1707.00
572.20	1692.00
572.55	1677.11
572.90	1661.76
573.26	1646.54
573.61	1631.01
573.96	1616.13
574.31	1601.86
574.67	1588.07
575.02	1573.39
575.37	1558.54
575.72	1543.60
576.08	1528.97
576.43	1514.46
576.78	1499.91
577.13	1485.54
577.49	1471.17
577.84	1456.73
578.19	1442.45
578.54	1428.31
578.90	1414.03
579.25	1399.23
579.60	1385.59
579.95	1372.00
580.30	1358.60
580.66	1345.19
581.01	1331.97
581.36	1318.53
581.71	1305.13
582.06	1291.73
582.42	1278.59
582.77	1265.76
583.12	1253.25
583.47	1240.58
583.82	1228.00
584.17	1215.53
584.53	1203.06
584.88	1190.97
585.23	1178.71
585.58	1166.69
585.93	1154.69
586.28	1143.29
586.63	1131.79
586.98	1120.17
587.34	1108.83
587.69	1097.31
588.04	1086.12
588.39	1075.11
588.74	1064.08
589.09	1053.36
589.44	1042.15
589.79	1031.47
590.14	1020.93
590.49	1010.45
590.84	1000.27
591.19	990.17
591.54	980.11
591.89	969.77
592.25	959.53
592.60	949.28
592.95	939.28
593.30	929.34
593.65	919.28
594.00	909.52
594.35	900.40
594.70	890.84
595.05	881.93
595.40	872.84
595.75	863.63
596.10	854.84
596.45	845.93
596.80	837.43
597.15	828.89
597.50	820.43
597.85	812.30
598.19	804.07
598.54	795.86
598.89	787.80
599.24	780.17
599.59	772.61
599.94	765.51
600.29	758.23
600.64	751.00
600.99	743.78
601.34	736.78
601.69	729.24
602.04	722.23
602.39	715.34
602.74	708.72
603.08	702.17
603.43	695.65
603.78	689.21
604.13	682.89
604.48	676.58
604.83	670.48
605.18	664.37
605.53	658.40
605.87	652.32
606.22	646.44
606.57	640.59
606.92	634.59
607.27	628.75
607.62	623.24
607.96	617.82
608.31	612.69
608.66	607.40
609.01	602.35
609.36	597.52
609.70	592.60
610.05	587.56
610.40	582.72
610.75	577.77
611.10	573.15
611.44	568.53
611.79	564.01
612.14	559.45
612.49	554.86
612.83	550.51
613.18	546.36
613.53	542.25
613.88	538.13
614.22	534.24
614.57	530.25
614.92	526.29
615.27	522.48
615.61	518.64
615.96	514.94
616.31	511.23
616.65	507.53
617.00	503.88
617.35	500.37
617.70	496.94
618.04	493.65
618.39	490.29
618.74	487.03
619.08	483.76
619.43	480.54
619.78	477.50
620.12	474.41
620.47	471.50
620.82	468.62
621.16	465.79
621.51	463.08
621.85	460.41
622.20	457.79
622.55	455.15
622.89	452.56
623.24	450.12
623.59	447.72
623.93	445.35
624.28	443.10
624.62	441.04
624.97	438.93
625.32	436.70
625.66	434.47
626.01	432.32
626.35	430.31
626.70	428.26
627.04	426.37
627.39	424.39
627.73	422.43
628.08	420.57
628.43	418.78
628.77	416.92
629.12	415.20
629.46	413.47
629.81	411.86
630.15	410.16
630.50	408.45
630.84	406.83
631.19	405.29
631.53	403.75
631.88	402.03
632.22	400.42
632.57	399.14
632.91	397.83
633.26	396.58
633.60	395.24
633.95	393.97
634.29	392.58
634.64	391.30
634.98	389.89
635.32	388.62
635.67	387.44
636.01	386.26
636.36	385.11
636.70	384.08
637.05	382.91
637.39	381.86
637.73	380.82
638.08	379.80
638.42	378.79
638.77	377.72
639.11	376.62
639.45	375.57
639.80	374.48
640.14	373.44
640.49	372.31
640.83	371.28
641.17	370.25
641.52	369.26
641.86	368.31
642.20	367.54
642.55	366.57
642.89	365.58
643.23	364.64
643.58	363.83
643.92	362.86
644.26	361.92
644.61	361.07
644.95	360.21
645.29	359.34
645.64	358.42
645.98	357.56
646.32	356.79
646.66	355.95
647.01	355.07
647.35	354.30
647.69	353.55
648.04	352.81
648.38	352.04
648.72	351.30
649.06	350.59
649.41	349.80
649.75	349.04
650.09	348.37
650.43	347.68
650.78	346.91
651.12	346.17
651.46	345.51
651.80	344.83
652.14	344.15
652.49	343.51
652.83	342.83
653.17	342.14
653.51	341.51
653.85	340.93
654.20	340.34
654.54	339.64
654.88	338.99
655.22	338.38
655.56	337.70
655.90	337.04
656.25	336.37
656.59	335.72
656.93	335.17
657.27	334.65
657.61	334.02
657.95	333.45
658.29	332.89
658.64	332.38
658.98	331.81
659.32	331.23
659.66	330.68
660.00	330.12
660.34	329.60
660.68	329.03
661.02	328.42
661.36	327.83
661.70	327.28
662.05	326.76
662.39	326.22
662.73	325.82
663.07	325.42
663.41	324.96
663.75	324.46
664.09	323.92
664.43	323.31
664.77	322.81
665.11	322.20
665.45	321.67
665.79	321.13
666.13	320.57
666.47	320.01
666.81	319.43
667.15	318.83
667.49	318.33
667.83	317.90
668.17	317.44
668.51	317.01
668.85	316.58
669.19	316.20
669.53	315.69
669.87	315.16
670.21	314.65
670.55	314.18
670.89	313.83
671.23	313.40
671.57	312.99
671.91	312.58
672.25	312.24
672.58	311.89
672.92	311.42
673.26	311.03
673.60	310.62
673.94	310.23
674.28	309.89
674.62	309.51
674.96	309.03
675.30	308.61
675.64	308.19
675.97	307.74
676.31	307.23
676.65	306.80
676.99	306.43
677.33	305.96
677.67	305.52
678.01	304.97
678.34	304.51
678.68	304.09
679.02	303.62
679.36	303.17
679.70	302.67
680.04	302.25
680.37	301.79
680.71	301.37
681.05	300.95
681.39	300.52
681.73	300.03
682.06	299.57
682.40	299.15
682.74	298.74
683.08	298.38
683.42	297.94
683.75	297.49
684.09	296.99
684.43	296.53
684.77	296.07
685.10	295.67
685.44	295.28
685.78	294.83
686.12	294.42
686.45	293.97
686.79	293.49
687.13	293.05
687.46	292.60
687.80	292.16
688.14	291.64
688.48	291.20
688.81	290.78
689.15	290.41
689.49	289.94
689.82	289.46
690.16	288.90
690.50	288.48
690.83	288.03
691.17	287.54
691.51	287.11
691.84	286.71
692.18	286.25
692.52	285.76
692.85	285.31
693.19	284.96
693.52	284.53
693.86	284.14
694.20	283.73
694.53	283.32
694.87	282.88
695.21	282.45
695.54	282.02
695.88	281.56
696.21	281.07
696.55	280.65
696.88	280.24
697.22	279.83
697.56	279.42
697.89	278.98
698.23	278.59
698.56	278.14
698.90	277.74
699.23	277.30
699.57	276.91
699.90	276.46
700.24	275.96
700.58	275.56
700.91	275.20
701.25	274.94
701.58	274.61
701.92	274.29
702.25	273.94
702.59	273.55
702.92	273.17
703.26	272.78
703.59	272.39
703.93	272.15
704.26	271.80
704.60	271.42
704.93	271.02
705.26	270.61
705.60	270.30
705.93	269.86
706.27	269.53
706.60	269.21
706.94	268.93
707.27	268.53
707.61	268.15
707.94	267.76
708.27	267.24
708.61	266.81
708.94	266.42
709.28	266.04
709.61	265.67
709.94	265.35
710.28	265.03
710.61	264.71
710.95	264.24
711.28	264.00
711.61	263.66
711.95	263.37
712.28	263.05
712.61	262.72
712.95	262.50
713.28	262.25
713.61	261.89
713.95	261.53
714.28	261.25
714.61	260.93
714.95	260.64
715.28	260.32
715.61	260.02
715.95	259.74
716.28	259.44
716.61	259.16
716.95	258.82
717.28	258.51
717.61	258.21
717.94	257.90
718.28	257.50
718.61	257.21
718.94	256.93
719.27	256.65
719.61	256.38
719.94	256.09
720.27	255.74
720.60	255.47
720.94	255.23
721.27	254.99
721.60	254.77
721.93	254.49
722.27	254.32
722.60	254.11
722.93	253.83
723.26	253.61
723.59	253.35
723.93	253.16
724.26	252.95
724.59	252.72
724.92	252.51
725.25	252.34
725.59	252.12
725.92	251.92
726.25	251.70
726.58	251.49
726.91	251.25
727.24	251.06
727.57	250.85
727.91	250.60
728.24	250.40
728.57	250.18
728.90	249.99
729.23	249.72
729.56	249.59
729.89	249.40
730.22	249.19
730.55	249.00
730.89	248.80
731.22	248.58
731.55	248.38
731.88	248.19
732.21	247.98
732.54	247.78
732.87	247.60
733.20	247.44
733.53	247.25
733.86	247.07
734.19	246.86
734.52	246.72
734.85	246.67
735.18	246.47
735.51	246.35
735.84	246.21
736.17	246.08
736.50	245.82
736.83	245.84
737.16	245.68
737.49	245.52
737.82	245.35
738.15	245.24
738.48	245.08
738.81	244.91
739.14	244.73
739.47	244.56
739.80	244.40
740.13	244.26
740.46	244.08
740.79	243.92
741.12	243.79
741.45	243.60
741.78	243.34
742.11	243.26
742.44	243.07
742.77	242.95
743.10	242.79
743.43	242.65
743.75	242.33
744.08	242.46
744.41	242.31
744.74	242.17
745.07	242.00
745.40	241.91
745.73	241.84
746.06	241.72
746.39	241.63
746.71	241.47
747.04	241.33
747.37	241.20
747.70	241.10
748.03	240.97
748.36	240.89
748.68	240.79
749.01	240.61
749.34	240.49
749.67	240.36
750.00	240.26
750.33	240.27
750.65	240.17
750.98	239.80
751.31	239.70
751.64	239.58
751.97	239.57
752.29	239.44
752.62	239.25
752.95	239.12
753.28	238.98
753.60	238.87
753.93	238.79
754.26	238.70
754.59	238.53
754.91	238.41
755.24	238.28
755.57	238.25
755.90	238.13
756.22	238.01
756.55	237.88
756.88	237.76
757.20	237.55
757.53	237.41
757.86	237.31
758.19	237.25
758.51	237.15
758.84	236.95
759.17	236.84
759.49	236.77
759.82	236.76
760.15	236.70
760.47	236.61
760.80	236.49
761.13	236.43
761.45	236.36
761.78	236.29
762.11	236.22
762.43	236.05
762.76	235.99
763.08	235.93
763.41	235.87
763.74	235.80
764.06	235.71
764.39	235.65
764.71	235.57
765.04	235.45
765.37	235.37
765.69	235.30
766.02	235.24
766.34	235.16
766.67	235.04
767.00	235.01
767.32	235.04
767.65	235.08
767.97	235.01
768.30	234.96
768.62	234.91
768.95	234.82
769.27	234.74
769.60	234.70
769.92	234.61
770.25	234.52
770.57	234.44
770.90	234.39
771.22	234.32
771.55	234.27
771.87	234.24
772.20	234.19
772.52	234.30
772.85	234.47
773.17	234.42
773.50	234.36
773.82	234.29
774.15	234.15
774.47	233.99
774.80	233.92
775.12	233.89
775.45	233.81
775.77	233.76
776.09	233.73
776.42	233.70
776.74	233.72
777.07	233.68
777.39	233.64
777.72	233.58
778.04	233.56
778.36	233.52
778.69	233.49
779.01	233.45
779.33	233.25
779.66	233.01
779.98	232.96
780.31	232.93
780.63	232.95
780.95	232.97
781.28	232.93
781.60	232.88
781.92	232.84
782.25	232.82
782.57	232.80
782.89	232.77
783.22	232.70
783.54	232.62
783.86	232.60
784.19	232.56
784.51	232.59
784.83	232.53
785.16	232.48
785.48	232.44
785.80	232.42
786.12	232.42
786.45	232.39
786.77	232.36
787.09	232.32
787.42	232.22
787.74	232.16
788.06	232.14
788.38	232.10
788.71	232.06
789.03	232.04
789.35	232.02
789.67	231.98
789.99	231.99
790.32	231.93
790.64	231.93
790.96	232.07
791.28	231.98
791.61	231.96
791.93	231.96
792.25	231.92
792.57	232.01
792.89	231.93
793.21	231.90
793.54	231.88
793.86	231.83
794.18	231.82
794.50	231.78
794.82	231.75
795.14	231.76
795.47	231.78
795.79	231.76
796.11	231.71
796.43	231.70
796.75	231.66
797.07	231.64
797.39	231.61
797.71	231.44
798.04	231.43
798.36	231.42
798.68	231.40
799.00	231.42
799.32	231.29
799.64	231.32
799.96	231.31
800.28	231.32
800.60	231.30
800.92	231.29
801.24	231.27
801.56	231.26
801.89	231.22
802.21	231.21
802.53	231.15
802.85	231.17
803.17	231.23
803.49	231.17
803.81	231.14
804.13	231.11
804.45	231.08
804.77	231.07
805.09	231.05
805.41	231.03
805.73	230.97
806.05	230.93
806.37	230.90
806.69	230.85
807.01	230.82
807.33	230.80
807.65	230.73
807.97	230.80
808.28	230.78
808.60	230.76
808.92	230.71
809.24	230.82
809.56	230.76
809.88	230.68
810.20	230.68
810.52	230.71
810.84	230.68
811.16	230.64
811.48	230.61
811.80	230.66
812.12	230.64
812.43	230.65
812.75	230.65
813.07	230.62
813.39	230.62
813.71	230.59
814.03	230.58
814.35	230.58
814.67	230.48
814.98	230.45
815.30	230.41
815.62	230.39
815.94	230.26
816.26	230.27
816.58	230.24
816.89	230.25
817.21	230.19
817.53	230.18
817.85	230.18
818.17	230.16
818.48	230.08
818.80	230.12
