SpectraSuite Data File
++++++++++++++++++++++++++++++++++++
Date: Tue Oct 06 18:55:03 EDT 2015
User: lab3
Dark Spectrum Present: No
Reference Spectrum Present: No
Number of Sampled Component Spectra: 1
Spectrometers: USB2E7196
Integration Time (usec): 66000 (USB2E7196)
Spectra Averaged: 3000 (USB2E7196)
Boxcar Smoothing: 10 (USB2E7196)
Correct for Electrical Dark: No (USB2E7196)
Strobe/Lamp Enabled: No (USB2E7196)
Correct for Detector Non-linearity: No (USB2E7196)
Correct for Stray Light: No (USB2E7196)
Number of Pixels in Processed Spectrum: 2048
>>>>>Begin Processed Spectral Data<<<<<
339.09	0.00
339.48	214.97
339.86	216.46
340.24	217.86
340.63	219.35
341.01	223.28
341.39	222.07
341.78	223.46
342.16	224.74
342.54	225.01
342.93	213.52
343.31	224.30
343.69	224.84
344.07	225.31
344.46	225.75
344.84	226.15
345.22	226.35
345.60	226.62
345.99	226.82
346.37	226.97
346.75	227.09
347.13	227.18
347.52	227.27
347.90	227.39
348.28	227.43
348.66	227.51
349.05	227.50
349.43	227.57
349.81	227.65
350.19	227.71
350.57	227.78
350.96	227.88
351.34	227.99
351.72	228.09
352.10	228.21
352.48	228.28
352.87	228.33
353.25	228.39
353.63	228.44
354.01	228.50
354.39	228.57
354.77	228.65
355.15	228.77
355.54	228.80
355.92	228.81
356.30	228.88
356.68	229.07
357.06	229.14
357.44	229.18
357.82	229.23
358.20	229.44
358.58	229.50
358.97	229.57
359.35	229.66
359.73	229.77
360.11	229.81
360.49	229.87
360.87	229.92
361.25	230.00
361.63	230.11
362.01	230.16
362.39	230.19
362.77	230.24
363.15	230.26
363.53	230.30
363.91	230.34
364.29	230.36
364.67	230.21
365.05	230.24
365.43	230.28
365.81	230.32
366.19	230.27
366.57	230.35
366.95	230.34
367.33	230.30
367.71	230.29
368.09	230.32
368.47	230.31
368.85	230.31
369.23	230.33
369.61	230.25
369.99	230.29
370.37	230.30
370.75	230.41
371.13	230.38
371.51	230.33
371.89	230.32
372.27	230.31
372.65	230.29
373.03	230.26
373.41	230.21
373.78	230.16
374.16	230.03
374.54	229.93
374.92	229.88
375.30	229.85
375.68	229.77
376.06	229.74
376.44	229.68
376.82	229.64
377.19	229.59
377.57	229.54
377.95	229.44
378.33	229.37
378.71	229.16
379.09	229.12
379.47	229.10
379.84	229.03
380.22	228.96
380.60	228.88
380.98	228.84
381.36	228.79
381.73	228.72
382.11	228.72
382.49	228.68
382.87	228.61
383.25	228.57
383.62	228.74
384.00	228.67
384.38	228.64
384.76	228.65
385.13	228.67
385.51	228.64
385.89	228.59
386.27	228.56
386.64	228.56
387.02	228.51
387.40	228.46
387.78	228.44
388.15	228.43
388.53	228.40
388.91	228.38
389.29	228.35
389.66	228.36
390.04	228.31
390.42	228.32
390.79	228.32
391.17	228.31
391.55	228.10
391.92	228.09
392.30	228.10
392.68	228.05
393.05	228.04
393.43	228.04
393.81	228.06
394.18	228.05
394.56	228.06
394.94	228.11
395.31	228.12
395.69	228.19
396.06	228.24
396.44	228.28
396.82	228.30
397.19	228.43
397.57	228.46
397.95	228.53
398.32	228.53
398.70	228.60
399.07	228.70
399.45	228.75
399.82	228.83
400.20	228.88
400.58	228.97
400.95	228.98
401.33	229.11
401.70	229.33
402.08	229.48
402.45	229.60
402.83	229.77
403.20	229.94
403.58	230.07
403.95	230.27
404.33	230.49
404.71	230.70
405.08	231.00
405.46	231.25
405.83	231.52
406.21	231.80
406.58	232.12
406.96	232.44
407.33	232.81
407.70	233.23
408.08	233.79
408.45	234.29
408.83	234.82
409.20	235.32
409.58	235.76
409.95	236.36
410.33	237.03
410.70	237.66
411.08	238.40
411.45	239.18
411.82	239.98
412.20	240.89
412.57	241.97
412.95	242.82
413.32	243.94
413.69	245.09
414.07	246.32
414.44	247.65
414.82	249.00
415.19	250.58
415.56	252.20
415.94	253.88
416.31	255.77
416.68	257.68
417.06	259.88
417.43	261.94
417.81	264.32
418.18	266.73
418.55	269.36
418.93	272.10
419.30	274.98
419.67	278.02
420.04	281.13
420.42	284.41
420.79	288.19
421.16	292.00
421.54	295.84
421.91	299.87
422.28	304.07
422.66	308.58
423.03	312.88
423.40	317.37
423.77	322.19
424.15	327.12
424.52	332.20
424.89	337.71
425.26	343.19
425.64	348.27
426.01	353.97
426.38	359.78
426.75	365.77
427.13	371.89
427.50	378.30
427.87	384.95
428.24	391.64
428.61	398.04
428.99	404.96
429.36	412.54
429.73	419.78
430.10	426.99
430.47	434.37
430.85	441.99
431.22	450.11
431.59	458.45
431.96	466.57
432.33	475.60
432.70	484.21
433.08	494.38
433.45	503.97
433.82	513.44
434.19	524.06
434.56	534.51
434.93	544.63
435.30	554.69
435.68	566.10
436.05	577.22
436.42	588.36
436.79	598.55
437.16	609.63
437.53	621.47
437.90	633.31
438.27	644.95
438.64	657.53
439.01	668.96
439.38	679.42
439.75	689.58
440.13	701.13
440.50	712.11
440.87	720.91
441.24	730.59
441.61	741.20
441.98	749.07
442.35	758.43
442.72	767.97
443.09	777.03
443.46	782.98
443.83	787.55
444.20	791.35
444.57	796.80
444.94	800.10
445.31	803.52
445.68	806.50
446.05	808.78
446.42	808.64
446.79	808.27
447.16	808.04
447.53	807.86
447.90	804.65
448.27	801.61
448.64	796.66
449.01	793.32
449.37	786.15
449.74	779.65
450.11	771.16
450.48	761.82
450.85	752.47
451.22	744.44
451.59	736.51
451.96	729.35
452.33	718.91
452.70	709.63
453.07	698.33
453.43	687.03
453.80	676.00
454.17	665.44
454.54	655.68
454.91	644.64
455.28	634.19
455.65	624.35
456.02	613.91
456.38	605.51
456.75	594.75
457.12	586.06
457.49	577.29
457.86	568.98
458.23	561.64
458.59	553.56
458.96	545.26
459.33	537.99
459.70	530.58
460.07	524.91
460.43	518.24
460.80	512.00
461.17	506.58
461.54	500.71
461.91	495.20
462.27	489.60
462.64	485.01
463.01	479.79
463.38	474.51
463.74	469.72
464.11	465.48
464.48	461.65
464.85	457.53
465.21	454.37
465.58	450.87
465.95	446.90
466.32	443.74
466.68	440.66
467.05	437.52
467.42	434.48
467.78	431.23
468.15	428.23
468.52	426.05
468.88	423.12
469.25	420.48
469.62	418.38
469.98	416.10
470.35	414.06
470.72	412.20
471.08	410.35
471.45	408.80
471.82	407.06
472.18	405.24
472.55	404.05
472.92	402.56
473.28	401.40
473.65	400.16
474.02	398.97
474.38	397.96
474.75	397.38
475.11	396.57
475.48	396.19
475.85	395.77
476.21	395.50
476.58	395.33
476.94	395.49
477.31	395.52
477.67	395.60
478.04	395.90
478.41	396.30
478.77	396.88
479.14	397.24
479.50	397.98
479.87	398.95
480.23	399.89
480.60	400.81
480.96	401.73
481.33	403.10
481.69	404.47
482.06	405.83
482.42	407.06
482.79	408.61
483.15	410.41
483.52	412.44
483.88	414.38
484.25	416.43
484.61	418.60
484.98	420.92
485.34	423.54
485.71	426.28
486.07	429.22
486.44	432.10
486.80	435.36
487.17	438.70
487.53	442.33
487.90	446.12
488.26	450.25
488.62	454.60
488.99	458.95
489.35	463.49
489.72	468.38
490.08	473.54
490.44	478.80
490.81	484.29
491.17	489.94
491.54	496.01
491.90	502.20
492.26	508.80
492.63	515.74
492.99	522.99
493.36	530.36
493.72	538.12
494.08	546.09
494.45	554.43
494.81	563.14
495.17	572.12
495.54	581.58
495.90	591.45
496.26	601.50
496.63	611.84
496.99	622.60
497.35	633.83
497.72	645.31
498.08	657.12
498.44	669.24
498.80	682.04
499.17	695.12
499.53	708.64
499.89	722.59
500.26	736.73
500.62	751.21
500.98	766.52
501.34	781.86
501.71	797.97
502.07	814.38
502.43	831.23
502.79	848.29
503.16	865.83
503.52	883.56
503.88	901.70
504.24	920.29
504.60	939.10
504.97	958.54
505.33	978.46
505.69	999.37
506.05	1020.53
506.41	1041.56
506.78	1062.75
507.14	1084.53
507.50	1106.74
507.86	1129.35
508.22	1152.18
508.59	1174.89
508.95	1198.63
509.31	1222.83
509.67	1247.61
510.03	1272.34
510.39	1296.98
510.75	1321.70
511.12	1346.84
511.48	1372.13
511.84	1397.44
512.20	1423.12
512.56	1449.81
512.92	1476.28
513.28	1502.18
513.64	1528.49
514.00	1555.16
514.37	1582.05
514.73	1608.96
515.09	1635.20
515.45	1661.77
515.81	1688.51
516.17	1714.99
516.53	1740.89
516.89	1766.61
517.25	1792.60
517.61	1818.39
517.97	1844.87
518.33	1870.74
518.69	1896.47
519.05	1922.67
519.41	1949.00
519.77	1975.29
520.13	2000.09
520.49	2024.98
520.85	2050.23
521.21	2074.87
521.57	2099.80
521.93	2123.79
522.29	2148.40
522.65	2172.89
523.01	2196.98
523.37	2220.39
523.73	2244.49
524.09	2268.34
524.45	2291.83
524.81	2314.73
525.17	2337.44
525.53	2359.37
525.89	2381.71
526.25	2403.72
526.61	2424.09
526.97	2444.49
527.33	2464.76
527.68	2484.78
528.04	2504.45
528.40	2522.88
528.76	2541.50
529.12	2559.69
529.48	2578.43
529.84	2594.40
530.20	2610.82
530.56	2626.44
530.91	2642.32
531.27	2657.61
531.63	2671.87
531.99	2686.03
532.35	2699.85
532.71	2713.20
533.07	2726.90
533.42	2738.70
533.78	2750.74
534.14	2763.73
534.50	2775.58
534.86	2787.87
535.21	2798.20
535.57	2808.35
535.93	2818.29
536.29	2826.37
536.65	2834.38
537.00	2840.96
537.36	2849.01
537.72	2856.03
538.08	2862.60
538.44	2868.00
538.79	2873.12
539.15	2876.91
539.51	2879.86
539.87	2881.66
540.22	2882.01
540.58	2882.59
540.94	2884.01
541.29	2884.18
541.65	2883.13
542.01	2881.64
542.37	2878.58
542.72	2877.01
543.08	2873.74
543.44	2870.72
543.79	2867.47
544.15	2863.40
544.51	2859.50
544.87	2854.53
545.22	2848.63
545.58	2842.57
545.94	2836.66
546.29	2829.29
546.65	2822.20
547.01	2815.24
547.36	2808.73
547.72	2802.34
548.07	2794.29
548.43	2785.15
548.79	2775.84
549.14	2766.70
549.50	2757.68
549.86	2747.78
550.21	2736.29
550.57	2725.96
550.92	2713.90
551.28	2702.26
551.64	2690.89
551.99	2679.13
552.35	2666.98
552.70	2654.76
553.06	2642.93
553.41	2630.68
553.77	2618.27
554.13	2605.89
554.48	2592.38
554.84	2578.10
555.19	2564.27
555.55	2550.31
555.90	2536.81
556.26	2523.54
556.61	2509.19
556.97	2493.89
557.32	2479.06
557.68	2464.59
558.03	2449.78
558.39	2435.96
558.74	2422.67
559.10	2407.51
559.45	2392.59
559.81	2378.34
560.16	2363.71
560.52	2348.86
560.87	2334.19
561.23	2319.14
561.58	2304.69
561.94	2289.77
562.29	2274.32
562.64	2259.04
563.00	2243.88
563.35	2228.81
563.71	2213.41
564.06	2198.17
564.42	2183.47
564.77	2168.83
565.12	2153.82
565.48	2138.62
565.83	2123.59
566.19	2108.51
566.54	2093.71
566.89	2078.40
567.25	2063.02
567.60	2048.47
567.96	2033.16
568.31	2016.65
568.66	2001.12
569.02	1986.05
569.37	1971.60
569.72	1957.75
570.08	1943.42
570.43	1928.49
570.78	1913.45
571.14	1898.23
571.49	1883.04
571.84	1868.10
572.20	1851.98
572.55	1836.70
572.90	1821.50
573.26	1806.29
573.61	1790.45
573.96	1775.15
574.31	1759.70
574.67	1744.04
575.02	1728.09
575.37	1712.21
575.72	1697.07
576.08	1681.57
576.43	1665.45
576.78	1649.48
577.13	1633.78
577.49	1618.31
577.84	1603.30
578.19	1587.79
578.54	1572.35
578.90	1556.83
579.25	1541.21
579.60	1526.74
579.95	1511.97
580.30	1497.11
580.66	1482.00
581.01	1466.99
581.36	1452.15
581.71	1438.10
582.06	1424.00
582.42	1409.74
582.77	1395.95
583.12	1382.39
583.47	1368.80
583.82	1355.35
584.17	1341.49
584.53	1327.65
584.88	1314.08
585.23	1300.37
585.58	1287.09
585.93	1273.71
586.28	1261.35
586.63	1248.78
586.98	1235.81
587.34	1223.23
587.69	1210.48
588.04	1198.07
588.39	1185.94
588.74	1173.36
589.09	1160.92
589.44	1148.24
589.79	1136.13
590.14	1124.07
590.49	1112.09
590.84	1100.35
591.19	1088.91
591.54	1077.56
591.89	1065.83
592.25	1054.48
592.60	1042.98
592.95	1031.65
593.30	1020.69
593.65	1009.40
594.00	998.39
594.35	988.31
594.70	977.54
595.05	967.38
595.40	957.01
595.75	946.51
596.10	936.66
596.45	926.81
596.80	917.27
597.15	907.73
597.50	898.19
597.85	888.83
598.19	879.52
598.54	870.22
598.89	861.44
599.24	853.04
599.59	844.46
599.94	836.53
600.29	828.56
600.64	820.42
600.99	812.19
601.34	804.22
601.69	795.74
602.04	788.17
602.39	780.47
602.74	772.98
603.08	765.66
603.43	758.27
603.78	750.86
604.13	743.54
604.48	736.28
604.83	729.24
605.18	722.28
605.53	715.45
605.87	708.58
606.22	701.82
606.57	694.98
606.92	688.07
607.27	681.19
607.62	674.53
607.96	668.14
608.31	662.18
608.66	656.18
609.01	650.43
609.36	644.61
609.70	638.76
610.05	632.93
610.40	627.25
610.75	621.56
611.10	616.08
611.44	610.63
611.79	605.28
612.14	599.84
612.49	594.52
612.83	589.47
613.18	584.46
613.53	579.44
613.88	574.60
614.22	570.08
614.57	565.48
614.92	560.96
615.27	556.58
615.61	552.07
615.96	547.60
616.31	543.15
616.65	538.85
617.00	534.68
617.35	530.54
617.70	526.44
618.04	522.46
618.39	518.58
618.74	514.94
619.08	511.26
619.43	507.71
619.78	504.09
620.12	500.45
620.47	497.04
620.82	493.72
621.16	490.40
621.51	487.12
621.85	483.86
622.20	480.67
622.55	477.42
622.89	474.24
623.24	471.23
623.59	468.29
623.93	465.42
624.28	462.68
624.62	460.14
624.97	457.61
625.32	454.99
625.66	452.34
626.01	449.66
626.35	447.14
626.70	444.55
627.04	442.16
627.39	439.73
627.73	437.38
628.08	435.09
628.43	432.80
628.77	430.44
629.12	428.20
629.46	426.08
629.81	424.10
630.15	422.04
630.50	419.99
630.84	418.00
631.19	416.02
631.53	414.14
631.88	412.09
632.22	410.14
632.57	408.47
632.91	406.75
633.26	405.10
633.60	403.46
633.95	401.92
634.29	400.25
634.64	398.64
634.98	396.91
635.32	395.35
635.67	393.95
636.01	392.55
636.36	391.18
636.70	389.90
637.05	388.46
637.39	387.17
637.73	385.87
638.08	384.65
638.42	383.47
638.77	382.15
639.11	380.80
639.45	379.49
639.80	378.12
640.14	376.85
640.49	375.57
640.83	374.29
641.17	373.05
641.52	371.86
641.86	370.70
642.20	369.69
642.55	368.49
642.89	367.31
643.23	366.21
643.58	365.22
643.92	364.07
644.26	363.01
644.61	362.00
644.95	360.94
645.29	359.80
645.64	358.65
645.98	357.63
646.32	356.71
646.66	355.74
647.01	354.80
647.35	353.95
647.69	353.05
648.04	352.24
648.38	351.36
648.72	350.52
649.06	349.68
649.41	348.79
649.75	347.96
650.09	347.17
650.43	346.35
650.78	345.50
651.12	344.70
651.46	343.89
651.80	343.11
652.14	342.39
652.49	341.73
652.83	341.01
653.17	340.24
653.51	339.52
653.85	338.89
654.20	338.21
654.54	337.45
654.88	336.71
655.22	336.04
655.56	335.34
655.90	334.67
656.25	333.99
656.59	333.35
656.93	332.75
657.27	332.19
657.61	331.54
657.95	330.96
658.29	330.35
658.64	329.77
658.98	329.13
659.32	328.50
659.66	327.91
660.00	327.36
660.34	326.81
660.68	326.21
661.02	325.56
661.36	324.95
661.70	324.39
662.05	323.84
662.39	323.28
662.73	322.81
663.07	322.38
663.41	321.92
663.75	321.39
664.09	320.87
664.43	320.25
664.77	319.73
665.11	319.15
665.45	318.64
665.79	318.15
666.13	317.63
666.47	317.11
666.81	316.56
667.15	315.96
667.49	315.51
667.83	315.10
668.17	314.66
668.51	314.25
668.85	313.84
669.19	313.49
669.53	312.96
669.87	312.43
670.21	311.90
670.55	311.40
670.89	311.02
671.23	310.59
671.57	310.21
671.91	309.86
672.25	309.53
672.58	309.20
672.92	308.76
673.26	308.42
673.60	308.06
673.94	307.70
674.28	307.38
674.62	307.02
674.96	306.58
675.30	306.20
675.64	305.76
675.97	305.32
676.31	304.85
676.65	304.45
676.99	304.14
677.33	303.71
677.67	303.33
678.01	302.85
678.34	302.44
678.68	302.06
679.02	301.62
679.36	301.20
679.70	300.75
680.04	300.38
680.37	299.99
680.71	299.62
681.05	299.27
681.39	298.86
681.73	298.41
682.06	298.01
682.40	297.63
682.74	297.28
683.08	297.00
683.42	296.64
683.75	296.30
684.09	295.85
684.43	295.47
684.77	295.06
685.10	294.69
685.44	294.31
685.78	293.91
686.12	293.52
686.45	293.12
686.79	292.69
687.13	292.30
687.46	291.87
687.80	291.48
688.14	291.00
688.48	290.60
688.81	290.19
689.15	289.85
689.49	289.42
689.82	288.99
690.16	288.46
690.50	288.02
690.83	287.59
691.17	287.15
691.51	286.75
691.84	286.37
692.18	285.96
692.52	285.51
692.85	285.08
693.19	284.72
693.52	284.30
693.86	283.88
694.20	283.46
694.53	283.04
694.87	282.59
695.21	282.16
695.54	281.73
695.88	281.31
696.21	280.82
696.55	280.40
696.88	279.98
697.22	279.58
697.56	279.20
697.89	278.74
698.23	278.35
698.56	277.91
698.90	277.51
699.23	277.07
699.57	276.69
699.90	276.28
700.24	275.83
700.58	275.45
700.91	275.10
701.25	274.87
701.58	274.56
701.92	274.23
702.25	273.87
702.59	273.48
702.92	273.10
703.26	272.71
703.59	272.32
703.93	272.08
704.26	271.71
704.60	271.32
704.93	270.94
705.26	270.55
705.60	270.22
705.93	269.80
706.27	269.51
706.60	269.18
706.94	268.87
707.27	268.48
707.61	268.12
707.94	267.72
708.27	267.19
708.61	266.76
708.94	266.35
709.28	266.00
709.61	265.63
709.94	265.31
710.28	264.99
710.61	264.67
710.95	264.18
711.28	263.96
711.61	263.61
711.95	263.32
712.28	262.98
712.61	262.62
712.95	262.39
713.28	262.11
713.61	261.75
713.95	261.39
714.28	261.08
714.61	260.73
714.95	260.42
715.28	260.10
715.61	259.80
715.95	259.52
716.28	259.20
716.61	258.94
716.95	258.63
717.28	258.34
717.61	258.05
717.94	257.77
718.28	257.36
718.61	257.08
718.94	256.77
719.27	256.50
719.61	256.24
719.94	255.93
720.27	255.58
720.60	255.31
720.94	255.04
721.27	254.78
721.60	254.56
721.93	254.30
722.27	254.09
722.60	253.84
722.93	253.56
723.26	253.33
723.59	253.04
723.93	252.82
724.26	252.59
724.59	252.34
724.92	252.12
725.25	251.94
725.59	251.71
725.92	251.50
726.25	251.28
726.58	251.05
726.91	250.81
727.24	250.60
727.57	250.37
727.91	250.12
728.24	249.93
728.57	249.70
728.90	249.50
729.23	249.23
729.56	249.11
729.89	248.91
730.22	248.70
730.55	248.49
730.89	248.29
731.22	248.07
731.55	247.87
731.88	247.67
732.21	247.44
732.54	247.24
732.87	247.04
733.20	246.87
733.53	246.69
733.86	246.53
734.19	246.32
734.52	246.17
734.85	246.13
735.18	245.93
735.51	245.81
735.84	245.66
736.17	245.54
736.50	245.28
736.83	245.31
737.16	245.15
737.49	244.99
737.82	244.81
738.15	244.66
738.48	244.50
738.81	244.33
739.14	244.15
739.47	243.98
739.80	243.81
740.13	243.66
740.46	243.47
740.79	243.29
741.12	243.13
741.45	242.94
741.78	242.68
742.11	242.56
742.44	242.36
742.77	242.22
743.10	242.03
743.43	241.87
743.75	241.53
744.08	241.64
744.41	241.48
744.74	241.33
745.07	241.15
745.40	241.04
745.73	240.97
746.06	240.85
746.39	240.74
746.71	240.60
747.04	240.45
747.37	240.31
747.70	240.20
748.03	240.08
748.36	239.98
748.68	239.84
749.01	239.67
749.34	239.56
749.67	239.44
750.00	239.34
750.33	239.35
750.65	239.24
750.98	238.86
751.31	238.75
751.64	238.66
751.97	238.64
752.29	238.51
752.62	238.32
752.95	238.19
753.28	238.05
753.60	237.93
753.93	237.86
754.26	237.77
754.59	237.60
754.91	237.47
755.24	237.34
755.57	237.24
755.90	237.13
756.22	237.00
756.55	236.86
756.88	236.72
757.20	236.49
757.53	236.34
757.86	236.24
758.19	236.15
758.51	236.04
758.84	235.85
759.17	235.74
759.49	235.65
759.82	235.64
760.15	235.57
760.47	235.47
760.80	235.33
761.13	235.26
761.45	235.18
761.78	235.09
762.11	235.02
762.43	234.91
762.76	234.82
763.08	234.76
763.41	234.69
763.74	234.63
764.06	234.54
764.39	234.48
764.71	234.39
765.04	234.29
765.37	234.19
765.69	234.12
766.02	234.04
766.34	233.95
766.67	233.80
767.00	233.76
767.32	233.79
767.65	233.83
767.97	233.74
768.30	233.69
768.62	233.61
768.95	233.53
769.27	233.46
769.60	233.42
769.92	233.32
770.25	233.23
770.57	233.13
770.90	233.07
771.22	232.99
771.55	232.95
771.87	232.91
772.20	232.84
772.52	232.93
772.85	233.09
773.17	233.04
773.50	232.97
773.82	232.89
774.15	232.74
774.47	232.57
774.80	232.51
775.12	232.45
775.45	232.40
775.77	232.36
776.09	232.33
776.42	232.28
776.74	232.28
777.07	232.23
777.39	232.20
777.72	232.14
778.04	232.13
778.36	232.06
778.69	232.02
779.01	231.99
779.33	231.80
779.66	231.56
779.98	231.51
780.31	231.48
780.63	231.51
780.95	231.50
781.28	231.46
781.60	231.40
781.92	231.37
782.25	231.33
782.57	231.28
782.89	231.23
783.22	231.19
783.54	231.11
783.86	231.09
784.19	231.05
784.51	231.07
784.83	231.00
785.16	230.96
785.48	230.93
785.80	230.89
786.12	230.87
786.45	230.83
786.77	230.81
787.09	230.77
787.42	230.66
787.74	230.64
788.06	230.62
788.38	230.59
788.71	230.55
789.03	230.53
789.35	230.52
789.67	230.46
789.99	230.44
790.32	230.40
790.64	230.39
790.96	230.54
791.28	230.45
791.61	230.42
791.93	230.40
792.25	230.37
792.57	230.48
792.89	230.42
793.21	230.40
793.54	230.36
793.86	230.32
794.18	230.30
794.50	230.25
794.82	230.22
795.14	230.22
795.47	230.23
795.79	230.21
796.11	230.15
796.43	230.13
796.75	230.10
797.07	230.08
797.39	230.04
797.71	229.87
798.04	229.85
798.36	229.84
798.68	229.82
799.00	229.81
799.32	229.69
799.64	229.70
799.96	229.67
800.28	229.68
800.60	229.66
800.92	229.66
801.24	229.63
801.56	229.62
801.89	229.58
802.21	229.56
802.53	229.51
802.85	229.53
803.17	229.60
803.49	229.55
803.81	229.53
804.13	229.49
804.45	229.45
804.77	229.46
805.09	229.44
805.41	229.40
805.73	229.35
806.05	229.30
806.37	229.27
806.69	229.24
807.01	229.21
807.33	229.20
807.65	229.11
807.97	229.18
808.28	229.13
808.60	229.12
808.92	229.08
809.24	229.17
809.56	229.12
809.88	229.04
810.20	229.04
810.52	229.07
810.84	229.03
811.16	229.00
811.48	228.96
811.80	229.02
812.12	229.00
812.43	229.02
812.75	229.02
813.07	229.00
813.39	228.99
813.71	228.96
814.03	228.93
814.35	228.93
814.67	228.85
814.98	228.83
815.30	228.81
815.62	228.77
815.94	228.64
816.26	228.65
816.58	228.60
816.89	228.59
817.21	228.54
817.53	228.54
817.85	228.54
818.17	228.52
818.48	228.44
