SpectraSuite Data File
++++++++++++++++++++++++++++++++++++
Date: Tue Oct 06 13:17:34 EDT 2015
User: lab3
Dark Spectrum Present: No
Reference Spectrum Present: No
Number of Sampled Component Spectra: 1
Spectrometers: USB2E7196
Integration Time (usec): 66000 (USB2E7196)
Spectra Averaged: 1000 (USB2E7196)
Boxcar Smoothing: 10 (USB2E7196)
Correct for Electrical Dark: No (USB2E7196)
Strobe/Lamp Enabled: No (USB2E7196)
Correct for Detector Non-linearity: No (USB2E7196)
Correct for Stray Light: No (USB2E7196)
Number of Pixels in Processed Spectrum: 2048
>>>>>Begin Processed Spectral Data<<<<<
339.09	0.00
339.48	216.20
339.86	217.86
340.24	219.17
340.63	220.71
341.01	224.64
341.39	223.09
341.78	224.93
342.16	225.98
342.54	226.56
342.93	214.78
343.31	225.62
343.69	226.16
344.07	226.63
344.46	227.07
344.84	227.47
345.22	227.68
345.60	227.96
345.99	228.16
346.37	228.31
346.75	228.42
347.13	228.51
347.52	228.59
347.90	228.72
348.28	228.76
348.66	228.84
349.05	228.83
349.43	228.89
349.81	228.97
350.19	229.04
350.57	229.11
350.96	229.20
351.34	229.31
351.72	229.43
352.10	229.53
352.48	229.60
352.87	229.64
353.25	229.71
353.63	229.76
354.01	229.83
354.39	229.91
354.77	229.98
355.15	230.10
355.54	230.14
355.92	230.14
356.30	230.22
356.68	230.41
357.06	230.50
357.44	230.54
357.82	230.59
358.20	230.80
358.58	230.86
358.97	230.93
359.35	231.01
359.73	231.11
360.11	231.17
360.49	231.24
360.87	231.30
361.25	231.36
361.63	231.47
362.01	231.52
362.39	231.55
362.77	231.60
363.15	231.62
363.53	231.66
363.91	231.71
364.29	231.74
364.67	231.59
365.05	231.61
365.43	231.66
365.81	231.69
366.19	231.63
366.57	231.72
366.95	231.72
367.33	231.69
367.71	231.68
368.09	231.71
368.47	231.70
368.85	231.69
369.23	231.72
369.61	231.63
369.99	231.66
370.37	231.67
370.75	231.78
371.13	231.75
371.51	231.70
371.89	231.69
372.27	231.67
372.65	231.65
373.03	231.61
373.41	231.58
373.78	231.54
374.16	231.41
374.54	231.31
374.92	231.25
375.30	231.22
375.68	231.14
376.06	231.09
376.44	231.02
376.82	230.99
377.19	230.94
377.57	230.91
377.95	230.80
378.33	230.73
378.71	230.53
379.09	230.49
379.47	230.47
379.84	230.40
380.22	230.34
380.60	230.26
380.98	230.21
381.36	230.14
381.73	230.06
382.11	230.05
382.49	230.02
382.87	229.97
383.25	229.94
383.62	230.10
384.00	230.02
384.38	229.99
384.76	229.98
385.13	229.99
385.51	229.95
385.89	229.91
386.27	229.89
386.64	229.87
387.02	229.82
387.40	229.78
387.78	229.75
388.15	229.73
388.53	229.70
388.91	229.67
389.29	229.66
389.66	229.67
390.04	229.63
390.42	229.64
390.79	229.63
391.17	229.61
391.55	229.42
391.92	229.42
392.30	229.43
392.68	229.39
393.05	229.37
393.43	229.39
393.81	229.41
394.18	229.38
394.56	229.41
394.94	229.45
395.31	229.45
395.69	229.53
396.06	229.57
396.44	229.63
396.82	229.65
397.19	229.78
397.57	229.80
397.95	229.86
398.32	229.85
398.70	229.93
399.07	230.02
399.45	230.08
399.82	230.15
400.20	230.20
400.58	230.28
400.95	230.30
401.33	230.42
401.70	230.64
402.08	230.79
402.45	230.90
402.83	231.06
403.20	231.23
403.58	231.38
403.95	231.58
404.33	231.80
404.71	232.01
405.08	232.30
405.46	232.54
405.83	232.81
406.21	233.10
406.58	233.40
406.96	233.71
407.33	234.07
407.70	234.49
408.08	235.05
408.45	235.55
408.83	236.08
409.20	236.57
409.58	237.01
409.95	237.62
410.33	238.28
410.70	238.90
411.08	239.63
411.45	240.41
411.82	241.19
412.20	242.09
412.57	243.16
412.95	244.02
413.32	245.14
413.69	246.27
414.07	247.49
414.44	248.81
414.82	250.18
415.19	251.76
415.56	253.37
415.94	255.04
416.31	256.91
416.68	258.79
417.06	260.96
417.43	263.01
417.81	265.36
418.18	267.76
418.55	270.38
418.93	273.12
419.30	275.97
419.67	279.00
420.04	282.11
420.42	285.37
420.79	289.12
421.16	292.91
421.54	296.75
421.91	300.78
422.28	304.94
422.66	309.43
423.03	313.69
423.40	318.17
423.77	322.94
424.15	327.84
424.52	332.91
424.89	338.42
425.26	343.86
425.64	348.92
426.01	354.58
426.38	360.39
426.75	366.35
427.13	372.41
427.50	378.78
427.87	385.37
428.24	392.00
428.61	398.37
428.99	405.21
429.36	412.76
429.73	419.98
430.10	427.18
430.47	434.55
430.85	442.19
431.22	450.31
431.59	458.63
431.96	466.75
432.33	475.77
432.70	484.38
433.08	494.58
433.45	504.19
433.82	513.63
434.19	524.16
434.56	534.54
434.93	544.61
435.30	554.58
435.68	565.91
436.05	576.98
436.42	588.07
436.79	598.19
437.16	609.10
437.53	620.82
437.90	632.61
438.27	644.08
438.64	656.39
439.01	667.64
439.38	678.09
439.75	688.11
440.13	699.53
440.50	710.38
440.87	719.00
441.24	728.51
441.61	738.95
441.98	746.65
442.35	755.74
442.72	765.07
443.09	774.06
443.46	780.01
443.83	784.46
444.20	788.09
444.57	793.47
444.94	796.80
445.31	800.13
445.68	802.96
446.05	805.14
446.42	805.01
446.79	804.66
447.16	804.32
447.53	804.16
447.90	800.95
448.27	797.82
448.64	792.85
449.01	789.56
449.37	782.53
449.74	776.21
450.11	767.97
450.48	758.83
450.85	749.56
451.22	741.47
451.59	733.66
451.96	726.72
452.33	716.49
452.70	707.32
453.07	696.19
453.43	685.11
453.80	674.31
454.17	664.01
454.54	654.37
454.91	643.47
455.28	633.14
455.65	623.35
456.02	613.11
456.38	604.85
456.75	594.13
457.12	585.47
457.49	576.73
457.86	568.51
458.23	561.31
458.59	553.32
458.96	545.19
459.33	538.00
459.70	530.68
460.07	524.98
460.43	518.33
460.80	512.11
461.17	506.65
461.54	500.83
461.91	495.36
462.27	489.81
462.64	485.28
463.01	480.09
463.38	474.93
463.74	470.22
464.11	466.08
464.48	462.37
464.85	458.32
465.21	455.20
465.58	451.75
465.95	447.79
466.32	444.65
466.68	441.57
467.05	438.46
467.42	435.42
467.78	432.20
468.15	429.25
468.52	427.08
468.88	424.23
469.25	421.60
469.62	419.52
469.98	417.22
470.35	415.18
470.72	413.36
471.08	411.47
471.45	409.90
471.82	408.11
472.18	406.25
472.55	405.04
472.92	403.58
473.28	402.39
473.65	401.14
474.02	399.97
474.38	398.97
474.75	398.37
475.11	397.53
475.48	397.12
475.85	396.71
476.21	396.48
476.58	396.33
476.94	396.53
477.31	396.58
477.67	396.71
478.04	397.01
478.41	397.40
478.77	397.98
479.14	398.33
479.50	399.06
479.87	400.02
480.23	400.98
480.60	401.88
480.96	402.83
481.33	404.23
481.69	405.59
482.06	406.95
482.42	408.23
482.79	409.81
483.15	411.65
483.52	413.71
483.88	415.70
484.25	417.83
484.61	420.04
484.98	422.41
485.34	425.09
485.71	427.86
486.07	430.82
486.44	433.72
486.80	437.01
487.17	440.37
487.53	444.04
487.90	447.87
488.26	452.06
488.62	456.44
488.99	460.84
489.35	465.50
489.72	470.51
490.08	475.78
490.44	481.13
490.81	486.66
491.17	492.30
491.54	498.34
491.90	504.50
492.26	511.10
492.63	518.00
492.99	525.17
493.36	532.58
493.72	540.40
494.08	548.36
494.45	556.71
494.81	565.49
495.17	574.43
495.54	583.90
495.90	593.76
496.26	603.87
496.63	614.21
496.99	624.89
497.35	636.00
497.72	647.45
498.08	659.36
498.44	671.54
498.80	684.51
499.17	697.78
499.53	711.51
499.89	725.56
500.26	739.71
500.62	754.16
500.98	769.32
501.34	784.65
501.71	800.73
502.07	817.06
502.43	833.79
502.79	850.69
503.16	868.01
503.52	885.60
503.88	903.67
504.24	922.21
504.60	940.96
504.97	960.16
505.33	979.78
505.69	1000.33
506.05	1020.96
506.41	1041.51
506.78	1062.37
507.14	1083.99
507.50	1106.14
507.86	1128.69
508.22	1151.35
508.59	1173.81
508.95	1197.13
509.31	1220.91
509.67	1245.31
510.03	1269.59
510.39	1294.25
510.75	1318.95
511.12	1343.73
511.48	1368.46
511.84	1393.31
512.20	1418.65
512.56	1444.41
512.92	1469.94
513.28	1495.18
513.64	1520.77
514.00	1546.42
514.37	1572.27
514.73	1597.82
515.09	1622.87
515.45	1648.24
515.81	1673.67
516.17	1699.24
516.53	1724.07
516.89	1748.84
517.25	1773.72
517.61	1798.46
517.97	1823.38
518.33	1847.85
518.69	1872.21
519.05	1896.83
519.41	1921.30
519.77	1945.71
520.13	1969.86
520.49	1993.90
520.85	2017.92
521.21	2041.75
521.57	2065.76
521.93	2088.75
522.29	2112.23
522.65	2135.27
523.01	2158.01
523.37	2179.93
523.73	2202.24
524.09	2224.73
524.45	2247.21
524.81	2268.83
525.17	2290.28
525.53	2311.03
525.89	2332.15
526.25	2352.76
526.61	2372.24
526.97	2391.96
527.33	2411.10
527.68	2429.37
528.04	2447.04
528.40	2463.73
528.76	2480.94
529.12	2496.94
529.48	2513.40
529.84	2528.62
530.20	2544.80
530.56	2559.97
530.91	2575.06
531.27	2589.19
531.63	2602.35
531.99	2615.18
532.35	2626.49
532.71	2637.85
533.07	2649.47
533.42	2659.53
533.78	2670.47
534.14	2681.61
534.50	2691.27
534.86	2701.12
535.21	2709.06
535.57	2717.16
535.93	2725.63
536.29	2732.93
536.65	2740.54
537.00	2745.93
537.36	2751.74
537.72	2755.89
538.08	2759.69
538.44	2762.69
538.79	2765.99
539.15	2768.67
539.51	2770.78
539.87	2773.53
540.22	2774.19
540.58	2775.43
540.94	2776.23
541.29	2775.50
541.65	2773.30
542.01	2771.22
542.37	2768.13
542.72	2766.75
543.08	2763.96
543.44	2760.99
543.79	2756.25
544.15	2751.40
544.51	2747.37
544.87	2741.35
545.22	2734.76
545.58	2728.50
545.94	2722.99
546.29	2715.71
546.65	2707.73
547.01	2699.83
547.36	2691.56
547.72	2683.25
548.07	2673.67
548.43	2663.93
548.79	2653.18
549.14	2643.41
549.50	2633.48
549.86	2622.89
550.21	2610.57
550.57	2599.51
550.92	2586.72
551.28	2574.62
551.64	2562.76
551.99	2550.92
552.35	2539.20
552.70	2527.26
553.06	2515.60
553.41	2502.72
553.77	2489.53
554.13	2476.65
554.48	2462.95
554.84	2448.74
555.19	2435.45
555.55	2421.39
555.90	2407.49
556.26	2394.51
556.61	2380.80
556.97	2366.11
557.32	2351.76
557.68	2337.59
558.03	2322.93
558.39	2309.02
558.74	2295.34
559.10	2279.64
559.45	2264.51
559.81	2250.03
560.16	2235.22
560.52	2220.08
560.87	2205.81
561.23	2191.09
561.58	2176.58
561.94	2161.42
562.29	2146.47
562.64	2131.33
563.00	2116.36
563.35	2102.06
563.71	2087.45
564.06	2072.47
564.42	2057.98
564.77	2043.62
565.12	2029.64
565.48	2015.45
565.83	2000.97
566.19	1986.63
566.54	1972.76
566.89	1957.65
567.25	1942.16
567.60	1927.85
567.96	1912.95
568.31	1897.47
568.66	1882.88
569.02	1868.32
569.37	1853.90
569.72	1839.74
570.08	1825.51
570.43	1811.18
570.78	1796.06
571.14	1780.97
571.49	1766.29
571.84	1752.42
572.20	1737.20
572.55	1722.20
572.90	1706.70
573.26	1691.29
573.61	1675.55
573.96	1660.50
574.31	1646.08
574.67	1632.08
575.02	1617.22
575.37	1602.12
575.72	1586.92
576.08	1572.03
576.43	1557.25
576.78	1542.53
577.13	1527.90
577.49	1513.30
577.84	1498.57
578.19	1484.04
578.54	1469.58
578.90	1454.97
579.25	1439.89
579.60	1425.99
579.95	1412.02
580.30	1398.28
580.66	1384.57
581.01	1371.07
581.36	1357.35
581.71	1343.58
582.06	1329.87
582.42	1316.36
582.77	1303.22
583.12	1290.32
583.47	1277.33
583.82	1264.44
584.17	1251.55
584.53	1238.69
584.88	1226.20
585.23	1213.57
585.58	1201.17
585.93	1188.78
586.28	1177.06
586.63	1165.14
586.98	1153.16
587.34	1141.51
587.69	1129.64
588.04	1118.12
588.39	1106.75
588.74	1095.29
589.09	1084.23
589.44	1072.64
589.79	1061.61
590.14	1050.71
590.49	1039.97
590.84	1029.46
591.19	1019.01
591.54	1008.58
591.89	997.92
592.25	987.31
592.60	976.71
592.95	966.37
593.30	956.11
593.65	945.70
594.00	935.63
594.35	926.20
594.70	916.30
595.05	907.10
595.40	897.67
595.75	888.11
596.10	879.03
596.45	869.82
596.80	861.01
597.15	852.20
597.50	843.43
597.85	834.95
598.19	826.40
598.54	817.89
598.89	809.55
599.24	801.63
599.59	793.80
599.94	786.42
600.29	778.85
600.64	771.34
600.99	763.84
601.34	756.56
601.69	748.65
602.04	741.39
602.39	734.22
602.74	727.27
603.08	720.42
603.43	713.60
603.78	706.86
604.13	700.28
604.48	693.65
604.83	687.26
605.18	680.86
605.53	674.60
605.87	668.21
606.22	662.11
606.57	655.98
606.92	649.72
607.27	643.63
607.62	637.87
607.96	632.20
608.31	626.83
608.66	621.30
609.01	616.07
609.36	611.00
609.70	605.83
610.05	600.63
610.40	595.53
610.75	590.39
611.10	585.56
611.44	580.71
611.79	575.97
612.14	571.19
612.49	566.40
612.83	561.83
613.18	557.51
613.53	553.17
613.88	548.84
614.22	544.73
614.57	540.52
614.92	536.32
615.27	532.29
615.61	528.22
615.96	524.30
616.31	520.41
616.65	516.48
617.00	512.67
617.35	508.98
617.70	505.38
618.04	501.92
618.39	498.40
618.74	494.99
619.08	491.54
619.43	488.17
619.78	484.94
620.12	481.71
620.47	478.62
620.82	475.53
621.16	472.54
621.51	469.69
621.85	466.86
622.20	464.11
622.55	461.34
622.89	458.61
623.24	456.03
623.59	453.43
623.93	450.93
624.28	448.52
624.62	446.29
624.97	444.05
625.32	441.64
625.66	439.26
626.01	436.94
626.35	434.78
626.70	432.58
627.04	430.55
627.39	428.41
627.73	426.33
628.08	424.38
628.43	422.44
628.77	420.47
629.12	418.62
629.46	416.72
629.81	414.97
630.15	413.16
630.50	411.34
630.84	409.60
631.19	407.94
631.53	406.30
631.88	404.50
632.22	402.78
632.57	401.42
632.91	400.02
633.26	398.66
633.60	397.24
633.95	395.90
634.29	394.44
634.64	393.07
634.98	391.56
635.32	390.20
635.67	388.94
636.01	387.67
636.36	386.43
636.70	385.34
637.05	384.09
637.39	382.96
637.73	381.86
638.08	380.79
638.42	379.70
638.77	378.53
639.11	377.33
639.45	376.20
639.80	375.01
640.14	373.87
640.49	372.72
640.83	371.61
641.17	370.52
641.52	369.46
641.86	368.44
642.20	367.60
642.55	366.56
642.89	365.56
643.23	364.55
643.58	363.67
643.92	362.63
644.26	361.67
644.61	360.79
644.95	359.86
645.29	358.93
645.64	357.96
645.98	357.06
646.32	356.26
646.66	355.39
647.01	354.51
647.35	353.70
647.69	352.88
648.04	352.11
648.38	351.29
648.72	350.52
649.06	349.79
649.41	348.98
649.75	348.22
650.09	347.51
650.43	346.80
650.78	346.02
651.12	345.28
651.46	344.58
651.80	343.87
652.14	343.15
652.49	342.48
652.83	341.78
653.17	341.10
653.51	340.43
653.85	339.84
654.20	339.22
654.54	338.52
654.88	337.87
655.22	337.23
655.56	336.55
655.90	335.87
656.25	335.21
656.59	334.57
656.93	334.00
657.27	333.43
657.61	332.77
657.95	332.19
658.29	331.61
658.64	331.08
658.98	330.47
659.32	329.90
659.66	329.32
660.00	328.78
660.34	328.23
660.68	327.65
661.02	327.02
661.36	326.44
661.70	325.90
662.05	325.37
662.39	324.86
662.73	324.43
663.07	324.03
663.41	323.54
663.75	323.01
664.09	322.48
664.43	321.89
664.77	321.41
665.11	320.83
665.45	320.30
665.79	319.75
666.13	319.22
666.47	318.68
666.81	318.12
667.15	317.54
667.49	317.05
667.83	316.63
668.17	316.19
668.51	315.74
668.85	315.32
669.19	314.93
669.53	314.42
669.87	313.93
670.21	313.45
670.55	312.98
670.89	312.65
671.23	312.23
671.57	311.82
671.91	311.44
672.25	311.09
672.58	310.74
672.92	310.30
673.26	309.92
673.60	309.53
673.94	309.16
674.28	308.82
674.62	308.44
674.96	307.99
675.30	307.58
675.64	307.17
675.97	306.74
676.31	306.27
676.65	305.84
676.99	305.49
677.33	305.02
677.67	304.60
678.01	304.05
678.34	303.62
678.68	303.22
679.02	302.75
679.36	302.32
679.70	301.85
680.04	301.44
680.37	301.01
680.71	300.60
681.05	300.20
681.39	299.76
681.73	299.29
682.06	298.83
682.40	298.42
682.74	298.05
683.08	297.69
683.42	297.26
683.75	296.86
684.09	296.35
684.43	295.91
684.77	295.45
685.10	295.07
685.44	294.68
685.78	294.26
686.12	293.85
686.45	293.41
686.79	292.95
687.13	292.54
687.46	292.09
687.80	291.66
688.14	291.18
688.48	290.76
688.81	290.35
689.15	289.99
689.49	289.53
689.82	289.06
690.16	288.54
690.50	288.12
690.83	287.67
691.17	287.21
691.51	286.81
691.84	286.44
692.18	286.02
692.52	285.55
692.85	285.11
693.19	284.75
693.52	284.36
693.86	283.96
694.20	283.54
694.53	283.16
694.87	282.71
695.21	282.29
695.54	281.88
695.88	281.42
696.21	280.93
696.55	280.52
696.88	280.10
697.22	279.69
697.56	279.29
697.89	278.84
698.23	278.44
698.56	278.00
698.90	277.59
699.23	277.15
699.57	276.75
699.90	276.30
700.24	275.82
700.58	275.42
700.91	275.07
701.25	274.81
701.58	274.49
701.92	274.18
702.25	273.82
702.59	273.43
702.92	273.07
703.26	272.69
703.59	272.30
703.93	272.06
704.26	271.69
704.60	271.30
704.93	270.91
705.26	270.52
705.60	270.19
705.93	269.75
706.27	269.43
706.60	269.09
706.94	268.81
707.27	268.41
707.61	268.04
707.94	267.64
708.27	267.13
708.61	266.69
708.94	266.29
709.28	265.92
709.61	265.55
709.94	265.23
710.28	264.93
710.61	264.64
710.95	264.17
711.28	263.97
711.61	263.65
711.95	263.38
712.28	263.05
712.61	262.71
712.95	262.49
713.28	262.25
713.61	261.91
713.95	261.56
714.28	261.27
714.61	260.95
714.95	260.64
715.28	260.33
715.61	260.03
715.95	259.76
716.28	259.45
716.61	259.17
716.95	258.86
717.28	258.54
717.61	258.22
717.94	257.92
718.28	257.51
718.61	257.23
718.94	256.93
719.27	256.67
719.61	256.41
719.94	256.11
720.27	255.75
720.60	255.49
720.94	255.24
721.27	255.00
721.60	254.77
721.93	254.51
722.27	254.31
722.60	254.09
722.93	253.81
723.26	253.58
723.59	253.32
723.93	253.11
724.26	252.91
724.59	252.67
724.92	252.47
725.25	252.30
725.59	252.07
725.92	251.89
726.25	251.66
726.58	251.44
726.91	251.21
727.24	251.02
727.57	250.79
727.91	250.55
728.24	250.37
728.57	250.13
728.90	249.95
729.23	249.71
729.56	249.61
729.89	249.42
730.22	249.21
730.55	249.02
730.89	248.81
731.22	248.60
731.55	248.41
731.88	248.22
732.21	248.00
732.54	247.80
732.87	247.60
733.20	247.42
733.53	247.24
733.86	247.07
734.19	246.87
734.52	246.73
734.85	246.69
735.18	246.49
735.51	246.37
735.84	246.22
736.17	246.09
736.50	245.81
736.83	245.85
737.16	245.70
737.49	245.53
737.82	245.36
738.15	245.22
738.48	245.07
738.81	244.89
739.14	244.72
739.47	244.54
739.80	244.38
740.13	244.26
740.46	244.08
740.79	243.90
741.12	243.74
741.45	243.55
741.78	243.31
742.11	243.20
742.44	243.02
742.77	242.89
743.10	242.71
743.43	242.58
743.75	242.25
744.08	242.36
744.41	242.20
744.74	242.07
745.07	241.90
745.40	241.80
745.73	241.75
746.06	241.63
746.39	241.54
746.71	241.39
747.04	241.22
747.37	241.10
747.70	241.01
748.03	240.90
748.36	240.81
748.68	240.69
749.01	240.52
749.34	240.40
749.67	240.27
750.00	240.18
750.33	240.20
750.65	240.10
750.98	239.74
751.31	239.65
751.64	239.55
751.97	239.52
752.29	239.39
752.62	239.20
752.95	239.08
753.28	238.94
753.60	238.83
753.93	238.78
754.26	238.69
754.59	238.53
754.91	238.39
755.24	238.26
755.57	238.17
755.90	238.07
756.22	237.95
756.55	237.83
756.88	237.70
757.20	237.47
757.53	237.33
757.86	237.22
758.19	237.13
758.51	237.03
758.84	236.85
759.17	236.74
759.49	236.66
759.82	236.65
760.15	236.59
760.47	236.50
760.80	236.36
761.13	236.29
761.45	236.21
761.78	236.14
762.11	236.07
762.43	235.96
762.76	235.88
763.08	235.83
763.41	235.75
763.74	235.68
764.06	235.61
764.39	235.54
764.71	235.46
765.04	235.37
765.37	235.28
765.69	235.21
766.02	235.14
766.34	235.05
766.67	234.91
767.00	234.86
767.32	234.88
767.65	234.93
767.97	234.84
768.30	234.79
768.62	234.72
768.95	234.64
769.27	234.58
769.60	234.53
769.92	234.43
770.25	234.33
770.57	234.23
770.90	234.17
771.22	234.11
771.55	234.06
771.87	234.02
772.20	233.97
772.52	234.07
772.85	234.24
773.17	234.19
773.50	234.12
773.82	234.05
774.15	233.91
774.47	233.75
774.80	233.69
775.12	233.64
775.45	233.59
775.77	233.55
776.09	233.52
776.42	233.47
776.74	233.49
777.07	233.46
777.39	233.43
777.72	233.38
778.04	233.37
778.36	233.31
778.69	233.26
779.01	233.23
779.33	233.03
779.66	232.77
779.98	232.73
780.31	232.70
780.63	232.74
780.95	232.73
781.28	232.70
781.60	232.63
781.92	232.61
782.25	232.57
782.57	232.53
782.89	232.48
783.22	232.43
783.54	232.34
783.86	232.32
784.19	232.27
784.51	232.28
784.83	232.22
785.16	232.19
785.48	232.16
785.80	232.12
786.12	232.11
786.45	232.09
786.77	232.07
787.09	232.02
787.42	231.93
787.74	231.90
788.06	231.88
788.38	231.85
788.71	231.79
789.03	231.77
789.35	231.77
789.67	231.72
789.99	231.71
790.32	231.67
790.64	231.66
790.96	231.80
791.28	231.70
791.61	231.68
791.93	231.65
792.25	231.63
792.57	231.72
792.89	231.66
793.21	231.64
793.54	231.60
793.86	231.57
794.18	231.55
794.50	231.49
794.82	231.47
795.14	231.48
795.47	231.48
795.79	231.47
796.11	231.39
796.43	231.37
796.75	231.34
797.07	231.34
797.39	231.30
797.71	231.13
798.04	231.11
798.36	231.10
798.68	231.08
799.00	231.06
799.32	230.96
799.64	230.98
799.96	230.96
800.28	230.96
800.60	230.94
800.92	230.93
801.24	230.90
801.56	230.89
801.89	230.85
802.21	230.83
802.53	230.78
802.85	230.82
803.17	230.88
803.49	230.83
803.81	230.79
804.13	230.76
804.45	230.74
804.77	230.75
805.09	230.73
805.41	230.69
805.73	230.65
806.05	230.58
806.37	230.55
806.69	230.52
807.01	230.48
807.33	230.48
807.65	230.40
807.97	230.46
808.28	230.42
808.60	230.41
808.92	230.36
809.24	230.46
809.56	230.40
809.88	230.32
810.20	230.32
810.52	230.35
810.84	230.33
811.16	230.29
811.48	230.27
811.80	230.32
812.12	230.31
812.43	230.34
812.75	230.34
813.07	230.30
813.39	230.30
813.71	230.27
814.03	230.23
814.35	230.24
814.67	230.17
814.98	230.16
815.30	230.14
815.62	230.12
815.94	229.99
816.26	230.00
816.58	229.96
816.89	229.95
817.21	229.91
817.53	229.91
817.85	229.91
818.17	229.89
818.48	229.81
818.80	229.82
