SpectraSuite Data File
++++++++++++++++++++++++++++++++++++
Date: Tue Oct 06 16:29:45 EDT 2015
User: lab3
Dark Spectrum Present: No
Reference Spectrum Present: No
Number of Sampled Component Spectra: 1
Spectrometers: USB2E7196
Integration Time (usec): 66000 (USB2E7196)
Spectra Averaged: 1000 (USB2E7196)
Boxcar Smoothing: 10 (USB2E7196)
Correct for Electrical Dark: No (USB2E7196)
Strobe/Lamp Enabled: No (USB2E7196)
Correct for Detector Non-linearity: No (USB2E7196)
Correct for Stray Light: No (USB2E7196)
Number of Pixels in Processed Spectrum: 2048
>>>>>Begin Processed Spectral Data<<<<<
339.09	0.00
339.48	215.26
339.86	216.70
340.24	218.24
340.63	219.73
341.01	223.71
341.39	222.37
341.78	223.91
342.16	225.16
342.54	225.40
342.93	213.87
343.31	224.68
343.69	225.22
344.07	225.69
344.46	226.13
344.84	226.53
345.22	226.73
345.60	227.00
345.99	227.21
346.37	227.34
346.75	227.46
347.13	227.54
347.52	227.63
347.90	227.75
348.28	227.79
348.66	227.87
349.05	227.86
349.43	227.93
349.81	228.01
350.19	228.07
350.57	228.15
350.96	228.24
351.34	228.33
351.72	228.43
352.10	228.55
352.48	228.63
352.87	228.67
353.25	228.73
353.63	228.78
354.01	228.83
354.39	228.91
354.77	228.99
355.15	229.12
355.54	229.15
355.92	229.15
356.30	229.23
356.68	229.41
357.06	229.49
357.44	229.53
357.82	229.58
358.20	229.79
358.58	229.85
358.97	229.92
359.35	230.01
359.73	230.11
360.11	230.16
360.49	230.22
360.87	230.28
361.25	230.35
361.63	230.45
362.01	230.51
362.39	230.53
362.77	230.57
363.15	230.58
363.53	230.63
363.91	230.67
364.29	230.69
364.67	230.55
365.05	230.57
365.43	230.60
365.81	230.63
366.19	230.58
366.57	230.67
366.95	230.66
367.33	230.63
367.71	230.61
368.09	230.65
368.47	230.65
368.85	230.64
369.23	230.66
369.61	230.58
369.99	230.62
370.37	230.63
370.75	230.75
371.13	230.72
371.51	230.68
371.89	230.66
372.27	230.65
372.65	230.63
373.03	230.60
373.41	230.56
373.78	230.51
374.16	230.39
374.54	230.29
374.92	230.23
375.30	230.20
375.68	230.13
376.06	230.09
376.44	230.03
376.82	229.99
377.19	229.95
377.57	229.91
377.95	229.80
378.33	229.74
378.71	229.53
379.09	229.49
379.47	229.47
379.84	229.41
380.22	229.34
380.60	229.26
380.98	229.22
381.36	229.18
381.73	229.11
382.11	229.10
382.49	229.07
382.87	229.01
383.25	228.97
383.62	229.14
384.00	229.06
384.38	229.03
384.76	229.03
385.13	229.04
385.51	229.01
385.89	228.95
386.27	228.93
386.64	228.93
387.02	228.88
387.40	228.84
387.78	228.83
388.15	228.82
388.53	228.78
388.91	228.76
389.29	228.73
389.66	228.74
390.04	228.69
390.42	228.69
390.79	228.70
391.17	228.67
391.55	228.46
391.92	228.46
392.30	228.47
392.68	228.43
393.05	228.41
393.43	228.41
393.81	228.43
394.18	228.41
394.56	228.42
394.94	228.47
395.31	228.48
395.69	228.55
396.06	228.59
396.44	228.64
396.82	228.66
397.19	228.78
397.57	228.80
397.95	228.88
398.32	228.88
398.70	228.95
399.07	229.05
399.45	229.12
399.82	229.19
400.20	229.25
400.58	229.35
400.95	229.38
401.33	229.51
401.70	229.74
402.08	229.88
402.45	230.02
402.83	230.20
403.20	230.36
403.58	230.50
403.95	230.71
404.33	230.93
404.71	231.15
405.08	231.46
405.46	231.71
405.83	231.99
406.21	232.28
406.58	232.60
406.96	232.93
407.33	233.30
407.70	233.73
408.08	234.29
408.45	234.80
408.83	235.35
409.20	235.85
409.58	236.33
409.95	236.97
410.33	237.65
410.70	238.29
411.08	239.05
411.45	239.87
411.82	240.70
412.20	241.63
412.57	242.74
412.95	243.63
413.32	244.78
413.69	245.97
414.07	247.25
414.44	248.62
414.82	250.01
415.19	251.66
415.56	253.33
415.94	255.07
416.31	257.02
416.68	258.98
417.06	261.25
417.43	263.35
417.81	265.77
418.18	268.25
418.55	270.96
418.93	273.79
419.30	276.76
419.67	279.90
420.04	283.13
420.42	286.50
420.79	290.40
421.16	294.32
421.54	298.28
421.91	302.42
422.28	306.74
422.66	311.40
423.03	315.82
423.40	320.47
423.77	325.43
424.15	330.53
424.52	335.77
424.89	341.48
425.26	347.16
425.64	352.40
426.01	358.30
426.38	364.33
426.75	370.52
427.13	376.83
427.50	383.44
427.87	390.32
428.24	397.26
428.61	403.89
428.99	411.04
429.36	418.90
429.73	426.40
430.10	433.87
430.47	441.49
430.85	449.38
431.22	457.80
431.59	466.42
431.96	474.83
432.33	484.18
432.70	493.07
433.08	503.58
433.45	513.50
433.82	523.31
434.19	534.30
434.56	545.12
434.93	555.61
435.30	566.02
435.68	577.81
436.05	589.32
436.42	600.86
436.79	611.39
437.16	622.83
437.53	635.11
437.90	647.37
438.27	659.43
438.64	672.44
439.01	684.26
439.38	695.11
439.75	705.62
440.13	717.60
440.50	728.96
440.87	738.08
441.24	748.13
441.61	759.11
441.98	767.19
442.35	776.85
442.72	786.70
443.09	796.09
443.46	802.25
443.83	806.96
444.20	810.92
444.57	816.59
444.94	820.01
445.31	823.53
445.68	826.61
446.05	828.97
446.42	828.87
446.79	828.49
447.16	828.25
447.53	828.08
447.90	824.75
448.27	821.59
448.64	816.45
449.01	812.98
449.37	805.57
449.74	798.91
450.11	790.18
450.48	780.55
450.85	770.90
451.22	762.60
451.59	754.41
451.96	747.00
452.33	736.21
452.70	726.65
453.07	715.00
453.43	703.36
453.80	691.97
454.17	681.07
454.54	671.01
454.91	659.60
455.28	648.81
455.65	638.66
456.02	627.90
456.38	619.25
456.75	608.14
457.12	599.16
457.49	590.10
457.86	581.52
458.23	573.96
458.59	565.61
458.96	557.06
459.33	549.55
459.70	541.91
460.07	536.07
460.43	529.18
460.80	522.74
461.17	517.13
461.54	511.09
461.91	505.39
462.27	499.62
462.64	494.90
463.01	489.50
463.38	484.03
463.74	479.13
464.11	474.76
464.48	470.83
464.85	466.59
465.21	463.33
465.58	459.73
465.95	455.64
466.32	452.40
466.68	449.20
467.05	445.97
467.42	442.84
467.78	439.50
468.15	436.40
468.52	434.13
468.88	431.11
469.25	428.35
469.62	426.17
469.98	423.80
470.35	421.68
470.72	419.77
471.08	417.85
471.45	416.21
471.82	414.40
472.18	412.49
472.55	411.27
472.92	409.73
473.28	408.54
473.65	407.24
474.02	405.99
474.38	404.95
474.75	404.33
475.11	403.49
475.48	403.08
475.85	402.64
476.21	402.38
476.58	402.19
476.94	402.37
477.31	402.42
477.67	402.49
478.04	402.81
478.41	403.24
478.77	403.85
479.14	404.24
479.50	405.04
479.87	406.05
480.23	407.02
480.60	407.97
480.96	408.91
481.33	410.37
481.69	411.80
482.06	413.22
482.42	414.51
482.79	416.12
483.15	418.00
483.52	420.11
483.88	422.12
484.25	424.27
484.61	426.51
484.98	428.93
485.34	431.66
485.71	434.49
486.07	437.55
486.44	440.56
486.80	443.95
487.17	447.42
487.53	451.17
487.90	455.11
488.26	459.39
488.62	463.90
488.99	468.40
489.35	473.10
489.72	478.17
490.08	483.52
490.44	488.96
490.81	494.66
491.17	500.52
491.54	506.79
491.90	513.22
492.26	520.05
492.63	527.19
492.99	534.68
493.36	542.32
493.72	550.32
494.08	558.54
494.45	567.13
494.81	576.11
495.17	585.36
495.54	595.09
495.90	605.26
496.26	615.59
496.63	626.21
496.99	637.24
497.35	648.75
497.72	660.55
498.08	672.68
498.44	685.10
498.80	698.22
499.17	711.64
499.53	725.46
499.89	739.76
500.26	754.24
500.62	769.05
500.98	784.69
501.34	800.34
501.71	816.80
502.07	833.54
502.43	850.72
502.79	868.06
503.16	885.91
503.52	903.94
503.88	922.40
504.24	941.23
504.60	960.34
504.97	980.05
505.33	1000.18
505.69	1021.36
506.05	1042.71
506.41	1063.93
506.78	1085.30
507.14	1107.26
507.50	1129.59
507.86	1152.33
508.22	1175.22
508.59	1197.95
508.95	1221.76
509.31	1245.98
509.67	1270.77
510.03	1295.43
510.39	1320.08
510.75	1344.74
511.12	1369.81
511.48	1394.96
511.84	1420.15
512.20	1445.58
512.56	1471.99
512.92	1498.23
513.28	1523.80
513.64	1549.75
514.00	1575.99
514.37	1602.50
514.73	1628.97
515.09	1654.80
515.45	1680.89
515.81	1707.05
516.17	1732.98
516.53	1758.22
516.89	1783.30
517.25	1808.67
517.61	1833.81
517.97	1859.54
518.33	1884.63
518.69	1909.49
519.05	1934.82
519.41	1960.21
519.77	1985.56
520.13	2009.38
520.49	2033.33
520.85	2057.60
521.21	2081.26
521.57	2105.21
521.93	2128.12
522.29	2151.59
522.65	2174.91
523.01	2197.87
523.37	2220.22
523.73	2243.17
524.09	2265.83
524.45	2288.00
524.81	2309.51
525.17	2330.85
525.53	2351.43
525.89	2372.35
526.25	2392.94
526.61	2411.92
526.97	2430.97
527.33	2449.79
527.68	2468.29
528.04	2486.33
528.40	2503.12
528.76	2520.13
529.12	2536.70
529.48	2553.75
529.84	2568.22
530.20	2582.96
530.56	2596.84
530.91	2610.95
531.27	2624.52
531.63	2637.08
531.99	2649.48
532.35	2661.51
532.71	2672.99
533.07	2684.86
533.42	2694.89
533.78	2705.14
534.14	2716.27
534.50	2726.17
534.86	2736.61
535.21	2745.13
535.57	2753.44
535.93	2761.61
536.29	2768.06
536.65	2774.31
537.00	2779.02
537.36	2785.04
537.72	2790.18
538.08	2794.85
538.44	2798.40
538.79	2801.66
539.15	2803.62
539.51	2804.91
539.87	2805.10
540.22	2803.89
540.58	2802.82
540.94	2802.63
541.29	2801.13
541.65	2798.40
542.01	2795.34
542.37	2790.81
542.72	2787.75
543.08	2783.08
543.44	2778.61
543.79	2773.62
544.15	2767.98
544.51	2762.72
544.87	2756.34
545.22	2749.08
545.58	2741.72
545.94	2734.53
546.29	2725.87
546.65	2717.55
547.01	2709.25
547.36	2701.36
547.72	2693.65
548.07	2684.25
548.43	2673.85
548.79	2663.35
549.14	2653.12
549.50	2643.00
549.86	2631.99
550.21	2619.45
550.57	2608.00
550.92	2594.81
551.28	2582.26
551.64	2569.92
551.99	2557.26
552.35	2544.27
552.70	2531.19
553.06	2518.49
553.41	2505.36
553.77	2492.09
554.13	2478.90
554.48	2464.68
554.84	2449.81
555.19	2435.46
555.55	2421.04
555.90	2406.99
556.26	2393.25
556.61	2378.42
556.97	2362.67
557.32	2347.35
557.68	2332.39
558.03	2317.18
558.39	2302.98
558.74	2289.25
559.10	2273.74
559.45	2258.61
559.81	2244.13
560.16	2229.30
560.52	2214.37
560.87	2199.55
561.23	2184.40
561.58	2169.77
561.94	2154.76
562.29	2139.29
562.64	2123.92
563.00	2108.72
563.35	2093.67
563.71	2078.30
564.06	2063.13
564.42	2048.47
564.77	2033.81
565.12	2018.97
565.48	2003.97
565.83	1989.16
566.19	1974.35
566.54	1959.88
566.89	1944.77
567.25	1929.52
567.60	1915.15
567.96	1899.98
568.31	1883.81
568.66	1868.65
569.02	1853.90
569.37	1839.71
569.72	1826.13
570.08	1812.09
570.43	1797.55
570.78	1782.87
571.14	1767.97
571.49	1753.19
571.84	1738.71
572.20	1723.21
572.55	1708.50
572.90	1693.80
573.26	1679.05
573.61	1663.71
573.96	1648.88
574.31	1633.97
574.67	1619.02
575.02	1603.78
575.37	1588.60
575.72	1574.08
576.08	1559.33
576.43	1544.09
576.78	1528.94
577.13	1513.93
577.49	1499.28
577.84	1485.02
578.19	1470.29
578.54	1455.67
578.90	1441.02
579.25	1426.30
579.60	1412.63
579.95	1398.70
580.30	1384.77
580.66	1370.61
581.01	1356.54
581.36	1342.65
581.71	1329.46
582.06	1316.20
582.42	1302.82
582.77	1289.87
583.12	1277.20
583.47	1264.40
583.82	1251.79
584.17	1238.83
584.53	1226.01
584.88	1213.36
585.23	1200.62
585.58	1188.27
585.93	1175.90
586.28	1164.41
586.63	1152.75
586.98	1140.76
587.34	1129.12
587.69	1117.31
588.04	1105.89
588.39	1094.76
588.74	1083.18
589.09	1071.75
589.44	1060.10
589.79	1048.95
590.14	1037.91
590.49	1026.92
590.84	1016.21
591.19	1005.69
591.54	995.34
591.89	984.55
592.25	974.18
592.60	963.66
592.95	953.30
593.30	943.25
593.65	932.92
594.00	922.88
594.35	913.70
594.70	903.85
595.05	894.60
595.40	885.11
595.75	875.47
596.10	866.49
596.45	857.51
596.80	848.82
597.15	840.17
597.50	831.56
597.85	823.10
598.19	814.62
598.54	806.18
598.89	798.19
599.24	790.59
599.59	782.78
599.94	775.57
600.29	768.38
600.64	761.04
600.99	753.59
601.34	746.39
601.69	738.70
602.04	731.84
602.39	724.86
602.74	718.10
603.08	711.50
603.43	704.86
603.78	698.15
604.13	691.61
604.48	685.08
604.83	678.73
605.18	672.49
605.53	666.39
605.87	660.25
606.22	654.19
606.57	648.10
606.92	641.93
607.27	635.76
607.62	629.83
607.96	624.14
608.31	618.83
608.66	613.46
609.01	608.31
609.36	603.14
609.70	597.93
610.05	592.77
610.40	587.75
610.75	582.71
611.10	577.90
611.44	573.05
611.79	568.31
612.14	563.51
612.49	558.79
612.83	554.30
613.18	549.85
613.53	545.43
613.88	541.16
614.22	537.20
614.57	533.17
614.92	529.18
615.27	525.32
615.61	521.41
615.96	517.49
616.31	513.60
616.65	509.87
617.00	506.22
617.35	502.60
617.70	499.02
618.04	495.51
618.39	492.11
618.74	488.94
619.08	485.73
619.43	482.63
619.78	479.47
620.12	476.33
620.47	473.38
620.82	470.47
621.16	467.54
621.51	464.70
621.85	461.87
622.20	459.11
622.55	456.32
622.89	453.57
623.24	450.99
623.59	448.43
623.93	445.94
624.28	443.60
624.62	441.45
624.97	439.31
625.32	437.06
625.66	434.78
626.01	432.48
626.35	430.32
626.70	428.09
627.04	426.04
627.39	423.96
627.73	421.97
628.08	420.02
628.43	418.11
628.77	416.08
629.12	414.20
629.46	412.41
629.81	410.71
630.15	408.95
630.50	407.21
630.84	405.53
631.19	403.88
631.53	402.29
631.88	400.51
632.22	398.83
632.57	397.42
632.91	395.99
633.26	394.58
633.60	393.22
633.95	391.92
634.29	390.52
634.64	389.15
634.98	387.67
635.32	386.35
635.67	385.15
636.01	383.96
636.36	382.78
636.70	381.70
637.05	380.48
637.39	379.39
637.73	378.28
638.08	377.25
638.42	376.25
638.77	375.12
639.11	373.96
639.45	372.84
639.80	371.67
640.14	370.58
640.49	369.48
640.83	368.37
641.17	367.30
641.52	366.28
641.86	365.27
642.20	364.42
642.55	363.38
642.89	362.35
643.23	361.40
643.58	360.55
643.92	359.54
644.26	358.62
644.61	357.73
644.95	356.81
645.29	355.80
645.64	354.78
645.98	353.87
646.32	353.08
646.66	352.24
647.01	351.42
647.35	350.67
647.69	349.89
648.04	349.18
648.38	348.42
648.72	347.68
649.06	346.93
649.41	346.12
649.75	345.38
650.09	344.68
650.43	343.93
650.78	343.19
651.12	342.47
651.46	341.74
651.80	341.03
652.14	340.37
652.49	339.75
652.83	339.08
653.17	338.38
653.51	337.71
653.85	337.13
654.20	336.50
654.54	335.79
654.88	335.10
655.22	334.46
655.56	333.79
655.90	333.15
656.25	332.53
656.59	331.92
656.93	331.35
657.27	330.82
657.61	330.24
657.95	329.66
658.29	329.09
658.64	328.54
658.98	327.94
659.32	327.37
659.66	326.83
660.00	326.32
660.34	325.80
660.68	325.23
661.02	324.60
661.36	324.00
661.70	323.45
662.05	322.93
662.39	322.39
662.73	321.93
663.07	321.52
663.41	321.06
663.75	320.55
664.09	320.05
664.43	319.43
664.77	318.91
665.11	318.32
665.45	317.79
665.79	317.30
666.13	316.78
666.47	316.25
666.81	315.67
667.15	315.08
667.49	314.61
667.83	314.18
668.17	313.74
668.51	313.31
668.85	312.91
669.19	312.53
669.53	312.00
669.87	311.46
670.21	310.91
670.55	310.40
670.89	310.01
671.23	309.57
671.57	309.19
671.91	308.81
672.25	308.49
672.58	308.16
672.92	307.71
673.26	307.35
673.60	306.99
673.94	306.63
674.28	306.28
674.62	305.89
674.96	305.46
675.30	305.06
675.64	304.62
675.97	304.17
676.31	303.70
676.65	303.28
676.99	302.96
677.33	302.52
677.67	302.13
678.01	301.65
678.34	301.23
678.68	300.83
679.02	300.38
679.36	299.92
679.70	299.46
680.04	299.07
680.37	298.67
680.71	298.29
681.05	297.93
681.39	297.51
681.73	297.05
682.06	296.63
682.40	296.23
682.74	295.88
683.08	295.58
683.42	295.21
683.75	294.87
684.09	294.40
684.43	294.02
684.77	293.60
685.10	293.21
685.44	292.82
685.78	292.41
686.12	292.02
686.45	291.63
686.79	291.20
687.13	290.80
687.46	290.34
687.80	289.93
688.14	289.45
688.48	289.04
688.81	288.63
689.15	288.28
689.49	287.84
689.82	287.40
690.16	286.86
690.50	286.43
690.83	285.98
691.17	285.55
691.51	285.13
691.84	284.75
692.18	284.33
692.52	283.88
692.85	283.45
693.19	283.09
693.52	282.66
693.86	282.24
694.20	281.82
694.53	281.42
694.87	280.95
695.21	280.53
695.54	280.10
695.88	279.68
696.21	279.20
696.55	278.78
696.88	278.36
697.22	277.95
697.56	277.54
697.89	277.10
698.23	276.71
698.56	276.27
698.90	275.88
699.23	275.43
699.57	275.05
699.90	274.64
700.24	274.20
700.58	273.82
700.91	273.48
701.25	273.26
701.58	272.96
701.92	272.63
702.25	272.28
702.59	271.90
702.92	271.52
703.26	271.14
703.59	270.76
703.93	270.52
704.26	270.17
704.60	269.79
704.93	269.42
705.26	269.02
705.60	268.70
705.93	268.29
706.27	268.00
706.60	267.70
706.94	267.40
707.27	267.01
707.61	266.64
707.94	266.24
708.27	265.72
708.61	265.28
708.94	264.89
709.28	264.54
709.61	264.19
709.94	263.88
710.28	263.57
710.61	263.25
710.95	262.76
711.28	262.54
711.61	262.20
711.95	261.91
712.28	261.59
712.61	261.24
712.95	261.02
713.28	260.75
713.61	260.39
713.95	260.03
714.28	259.74
714.61	259.41
714.95	259.10
715.28	258.79
715.61	258.50
715.95	258.22
716.28	257.92
716.61	257.68
716.95	257.36
717.28	257.07
717.61	256.78
717.94	256.52
718.28	256.12
718.61	255.85
718.94	255.56
719.27	255.29
719.61	255.06
719.94	254.77
720.27	254.42
720.60	254.17
720.94	253.91
721.27	253.67
721.60	253.45
721.93	253.21
722.27	253.01
722.60	252.78
722.93	252.52
723.26	252.29
723.59	252.02
723.93	251.81
724.26	251.60
724.59	251.36
724.92	251.15
725.25	250.99
725.59	250.76
725.92	250.56
726.25	250.34
726.58	250.11
726.91	249.88
727.24	249.68
727.57	249.47
727.91	249.23
728.24	249.04
728.57	248.83
728.90	248.63
729.23	248.37
729.56	248.26
729.89	248.06
730.22	247.85
730.55	247.66
730.89	247.45
731.22	247.24
731.55	247.06
731.88	246.88
732.21	246.65
732.54	246.47
732.87	246.29
733.20	246.13
733.53	245.96
733.86	245.81
734.19	245.63
734.52	245.48
734.85	245.44
735.18	245.24
735.51	245.12
735.84	244.97
736.17	244.86
736.50	244.59
736.83	244.64
737.16	244.50
737.49	244.34
737.82	244.17
738.15	244.04
738.48	243.87
738.81	243.70
739.14	243.53
739.47	243.36
739.80	243.20
740.13	243.05
740.46	242.87
740.79	242.69
741.12	242.53
741.45	242.34
741.78	242.09
742.11	241.99
742.44	241.79
742.77	241.67
743.10	241.50
743.43	241.35
743.75	241.01
744.08	241.12
744.41	240.98
744.74	240.84
745.07	240.66
745.40	240.56
745.73	240.50
746.06	240.37
746.39	240.28
746.71	240.14
747.04	240.00
747.37	239.87
747.70	239.77
748.03	239.65
748.36	239.56
748.68	239.44
749.01	239.29
749.34	239.18
749.67	239.06
750.00	238.95
750.33	238.98
750.65	238.89
750.98	238.53
751.31	238.43
751.64	238.34
751.97	238.34
752.29	238.22
752.62	238.04
752.95	237.92
753.28	237.79
753.60	237.66
753.93	237.60
754.26	237.52
754.59	237.36
754.91	237.24
755.24	237.12
755.57	237.01
755.90	236.89
756.22	236.76
756.55	236.63
756.88	236.49
757.20	236.27
757.53	236.12
757.86	236.01
758.19	235.92
758.51	235.81
758.84	235.62
759.17	235.51
759.49	235.42
759.82	235.41
760.15	235.34
760.47	235.26
760.80	235.12
761.13	235.05
761.45	234.97
761.78	234.89
762.11	234.81
762.43	234.70
762.76	234.62
763.08	234.57
763.41	234.52
763.74	234.44
764.06	234.36
764.39	234.28
764.71	234.20
765.04	234.12
765.37	234.03
765.69	233.96
766.02	233.89
766.34	233.80
766.67	233.67
767.00	233.64
767.32	233.65
767.65	233.70
767.97	233.61
768.30	233.56
768.62	233.50
768.95	233.41
769.27	233.35
769.60	233.32
769.92	233.22
770.25	233.12
770.57	233.04
770.90	232.98
771.22	232.92
771.55	232.88
771.87	232.82
772.20	232.77
772.52	232.87
772.85	233.04
773.17	232.99
773.50	232.93
773.82	232.84
774.15	232.71
774.47	232.55
774.80	232.48
775.12	232.43
775.45	232.38
775.77	232.35
776.09	232.32
776.42	232.27
776.74	232.28
777.07	232.25
777.39	232.21
777.72	232.16
778.04	232.14
778.36	232.08
778.69	232.05
779.01	232.03
779.33	231.83
779.66	231.58
779.98	231.53
780.31	231.50
780.63	231.55
780.95	231.54
781.28	231.50
781.60	231.46
781.92	231.43
782.25	231.40
782.57	231.37
782.89	231.34
783.22	231.30
783.54	231.23
783.86	231.23
784.19	231.19
784.51	231.22
784.83	231.16
785.16	231.13
785.48	231.10
785.80	231.07
786.12	231.04
786.45	231.02
786.77	231.01
787.09	230.97
787.42	230.87
787.74	230.85
788.06	230.83
788.38	230.80
788.71	230.76
789.03	230.73
789.35	230.72
789.67	230.67
789.99	230.65
790.32	230.61
790.64	230.59
790.96	230.74
791.28	230.64
791.61	230.61
791.93	230.59
792.25	230.55
792.57	230.64
792.89	230.60
793.21	230.59
793.54	230.54
793.86	230.49
794.18	230.48
794.50	230.41
794.82	230.39
795.14	230.39
795.47	230.40
795.79	230.38
796.11	230.32
796.43	230.30
796.75	230.28
797.07	230.26
797.39	230.23
797.71	230.05
798.04	230.05
798.36	230.04
798.68	230.02
799.00	230.02
799.32	229.92
799.64	229.92
799.96	229.89
800.28	229.92
800.60	229.91
800.92	229.89
801.24	229.87
801.56	229.87
801.89	229.84
802.21	229.82
802.53	229.78
802.85	229.81
803.17	229.87
803.49	229.82
803.81	229.78
804.13	229.75
804.45	229.71
804.77	229.70
805.09	229.68
805.41	229.66
805.73	229.61
806.05	229.54
806.37	229.51
806.69	229.48
807.01	229.45
807.33	229.44
807.65	229.37
807.97	229.44
808.28	229.40
808.60	229.38
808.92	229.34
809.24	229.43
809.56	229.38
809.88	229.31
810.20	229.30
810.52	229.34
810.84	229.30
811.16	229.27
811.48	229.25
811.80	229.31
812.12	229.29
812.43	229.32
812.75	229.33
813.07	229.31
813.39	229.29
813.71	229.26
814.03	229.22
814.35	229.22
814.67	229.13
814.98	229.10
815.30	229.09
815.62	229.06
815.94	228.93
816.26	228.94
816.58	228.90
816.89	228.90
817.21	228.85
817.53	228.86
817.85	228.86
818.17	228.85
818.48	228.75
818.80	228.78
