SpectraSuite Data File
++++++++++++++++++++++++++++++++++++
Date: Tue Oct 06 13:23:12 EDT 2015
User: lab3
Dark Spectrum Present: No
Reference Spectrum Present: No
Number of Sampled Component Spectra: 1
Spectrometers: USB2E7196
Integration Time (usec): 66000 (USB2E7196)
Spectra Averaged: 1000 (USB2E7196)
Boxcar Smoothing: 10 (USB2E7196)
Correct for Electrical Dark: No (USB2E7196)
Strobe/Lamp Enabled: No (USB2E7196)
Correct for Detector Non-linearity: No (USB2E7196)
Correct for Stray Light: No (USB2E7196)
Number of Pixels in Processed Spectrum: 2048
>>>>>Begin Processed Spectral Data<<<<<
339.09	0.00
339.48	216.40
339.86	217.66
340.24	219.16
340.63	220.50
341.01	224.56
341.39	223.20
341.78	224.65
342.16	226.08
342.54	226.19
342.93	214.71
343.31	225.55
343.69	226.08
344.07	226.55
344.46	227.00
344.84	227.39
345.22	227.59
345.60	227.86
345.99	228.07
346.37	228.21
346.75	228.32
347.13	228.41
347.52	228.49
347.90	228.62
348.28	228.66
348.66	228.75
349.05	228.74
349.43	228.80
349.81	228.87
350.19	228.93
350.57	229.02
350.96	229.12
351.34	229.21
351.72	229.32
352.10	229.44
352.48	229.50
352.87	229.56
353.25	229.62
353.63	229.69
354.01	229.74
354.39	229.81
354.77	229.89
355.15	230.01
355.54	230.07
355.92	230.06
356.30	230.14
356.68	230.32
357.06	230.39
357.44	230.43
357.82	230.49
358.20	230.71
358.58	230.76
358.97	230.82
359.35	230.93
359.73	231.02
360.11	231.06
360.49	231.13
360.87	231.18
361.25	231.24
361.63	231.34
362.01	231.39
362.39	231.42
362.77	231.47
363.15	231.49
363.53	231.52
363.91	231.56
364.29	231.59
364.67	231.46
365.05	231.49
365.43	231.52
365.81	231.57
366.19	231.51
366.57	231.58
366.95	231.58
367.33	231.54
367.71	231.54
368.09	231.58
368.47	231.58
368.85	231.56
369.23	231.59
369.61	231.52
369.99	231.56
370.37	231.57
370.75	231.69
371.13	231.65
371.51	231.60
371.89	231.59
372.27	231.57
372.65	231.54
373.03	231.51
373.41	231.46
373.78	231.41
374.16	231.29
374.54	231.18
374.92	231.12
375.30	231.09
375.68	231.01
376.06	230.97
376.44	230.91
376.82	230.87
377.19	230.81
377.57	230.77
377.95	230.66
378.33	230.59
378.71	230.39
379.09	230.34
379.47	230.33
379.84	230.27
380.22	230.19
380.60	230.12
380.98	230.08
381.36	230.03
381.73	229.96
382.11	229.95
382.49	229.92
382.87	229.86
383.25	229.81
383.62	229.97
384.00	229.89
384.38	229.86
384.76	229.88
385.13	229.90
385.51	229.87
385.89	229.81
386.27	229.79
386.64	229.78
387.02	229.74
387.40	229.68
387.78	229.67
388.15	229.67
388.53	229.63
388.91	229.60
389.29	229.57
389.66	229.58
390.04	229.54
390.42	229.54
390.79	229.55
391.17	229.53
391.55	229.33
391.92	229.32
392.30	229.33
392.68	229.28
393.05	229.25
393.43	229.26
393.81	229.28
394.18	229.25
394.56	229.27
394.94	229.32
395.31	229.33
395.69	229.40
396.06	229.44
396.44	229.49
396.82	229.51
397.19	229.64
397.57	229.66
397.95	229.73
398.32	229.73
398.70	229.79
399.07	229.90
399.45	229.96
399.82	230.02
400.20	230.07
400.58	230.17
400.95	230.19
401.33	230.32
401.70	230.54
402.08	230.69
402.45	230.82
402.83	230.98
403.20	231.14
403.58	231.26
403.95	231.46
404.33	231.67
404.71	231.88
405.08	232.17
405.46	232.40
405.83	232.68
406.21	232.97
406.58	233.30
406.96	233.61
407.33	233.96
407.70	234.37
408.08	234.94
408.45	235.42
408.83	235.95
409.20	236.44
409.58	236.88
409.95	237.49
410.33	238.14
410.70	238.76
411.08	239.49
411.45	240.27
411.82	241.06
412.20	241.95
412.57	243.02
412.95	243.88
413.32	244.99
413.69	246.12
414.07	247.32
414.44	248.64
414.82	249.99
415.19	251.58
415.56	253.19
415.94	254.86
416.31	256.75
416.68	258.64
417.06	260.83
417.43	262.88
417.81	265.23
418.18	267.64
418.55	270.25
418.93	273.00
419.30	275.86
419.67	278.89
420.04	282.02
420.42	285.28
420.79	289.05
421.16	292.84
421.54	296.68
421.91	300.71
422.28	304.88
422.66	309.37
423.03	313.64
423.40	318.14
423.77	322.93
424.15	327.83
424.52	332.92
424.89	338.41
425.26	343.87
425.64	348.94
426.01	354.61
426.38	360.44
426.75	366.40
427.13	372.49
427.50	378.86
427.87	385.45
428.24	392.11
428.61	398.48
428.99	405.35
429.36	412.93
429.73	420.17
430.10	427.39
430.47	434.78
430.85	442.44
431.22	450.58
431.59	458.92
431.96	467.04
432.33	476.06
432.70	484.67
433.08	494.89
433.45	504.52
433.82	513.96
434.19	524.54
434.56	534.95
434.93	545.01
435.30	555.03
435.68	566.39
436.05	577.46
436.42	588.56
436.79	598.70
437.16	609.64
437.53	621.41
437.90	633.23
438.27	644.75
438.64	657.11
439.01	668.37
439.38	678.83
439.75	688.88
440.13	700.35
440.50	711.27
440.87	719.92
441.24	729.46
441.61	739.93
441.98	747.64
442.35	756.74
442.72	766.14
443.09	775.13
443.46	781.10
443.83	785.58
444.20	789.24
444.57	794.62
444.94	797.96
445.31	801.26
445.68	804.08
446.05	806.23
446.42	806.06
446.79	805.70
447.16	805.32
447.53	805.14
447.90	801.93
448.27	798.76
448.64	793.78
449.01	790.44
449.37	783.40
449.74	777.04
450.11	768.78
450.48	759.58
450.85	750.31
451.22	742.22
451.59	734.37
451.96	727.41
452.33	717.17
452.70	707.97
453.07	696.83
453.43	685.75
453.80	674.94
454.17	664.64
454.54	654.99
454.91	644.09
455.28	633.75
455.65	623.93
456.02	613.64
456.38	605.33
456.75	594.61
457.12	585.93
457.49	577.17
457.86	568.93
458.23	561.71
458.59	553.68
458.96	545.52
459.33	538.36
459.70	530.99
460.07	525.30
460.43	518.65
460.80	512.41
461.17	506.93
461.54	501.10
461.91	495.61
462.27	490.05
462.64	485.52
463.01	480.34
463.38	475.17
463.74	470.49
464.11	466.35
464.48	462.62
464.85	458.57
465.21	455.46
465.58	452.00
465.95	448.07
466.32	444.92
466.68	441.82
467.05	438.67
467.42	435.65
467.78	432.41
468.15	429.42
468.52	427.24
468.88	424.38
469.25	421.75
469.62	419.65
469.98	417.36
470.35	415.31
470.72	413.46
471.08	411.53
471.45	409.95
471.82	408.16
472.18	406.31
472.55	405.12
472.92	403.62
473.28	402.44
473.65	401.18
474.02	400.02
474.38	399.03
474.75	398.44
475.11	397.58
475.48	397.19
475.85	396.79
476.21	396.56
476.58	396.40
476.94	396.59
477.31	396.63
477.67	396.76
478.04	397.06
478.41	397.47
478.77	398.10
479.14	398.45
479.50	399.21
479.87	400.17
480.23	401.13
480.60	402.06
480.96	402.99
481.33	404.38
481.69	405.75
482.06	407.11
482.42	408.39
482.79	409.93
483.15	411.78
483.52	413.86
483.88	415.86
484.25	417.98
484.61	420.20
484.98	422.55
485.34	425.24
485.71	428.01
486.07	430.98
486.44	433.87
486.80	437.17
487.17	440.49
487.53	444.16
487.90	447.99
488.26	452.20
488.62	456.58
488.99	461.00
489.35	465.66
489.72	470.70
490.08	475.96
490.44	481.35
490.81	486.86
491.17	492.52
491.54	498.56
491.90	504.75
492.26	511.34
492.63	518.29
492.99	525.45
493.36	532.88
493.72	540.70
494.08	548.67
494.45	557.01
494.81	565.80
495.17	574.78
495.54	584.26
495.90	594.10
496.26	604.24
496.63	614.57
496.99	625.27
497.35	636.38
497.72	647.87
498.08	659.79
498.44	671.98
498.80	684.94
499.17	698.23
499.53	711.97
499.89	726.06
500.26	740.24
500.62	754.74
500.98	769.91
501.34	785.27
501.71	801.36
502.07	817.69
502.43	834.45
502.79	851.36
503.16	868.69
503.52	886.31
503.88	904.39
504.24	922.94
504.60	941.73
504.97	960.93
505.33	980.57
505.69	1001.18
506.05	1021.86
506.41	1042.45
506.78	1063.34
507.14	1085.00
507.50	1107.12
507.86	1129.71
508.22	1152.41
508.59	1174.94
508.95	1198.31
509.31	1222.08
509.67	1246.56
510.03	1270.91
510.39	1295.63
510.75	1320.37
511.12	1345.17
511.48	1369.97
511.84	1394.86
512.20	1420.22
512.56	1446.01
512.92	1471.58
513.28	1496.86
513.64	1522.48
514.00	1548.19
514.37	1574.06
514.73	1599.67
515.09	1624.83
515.45	1650.18
515.81	1675.65
516.17	1701.21
516.53	1726.07
516.89	1750.96
517.25	1775.87
517.61	1800.60
517.97	1825.54
518.33	1850.05
518.69	1874.47
519.05	1899.06
519.41	1923.58
519.77	1948.03
520.13	1972.16
520.49	1996.19
520.85	2020.23
521.21	2044.13
521.57	2068.17
521.93	2091.23
522.29	2114.74
522.65	2137.73
523.01	2160.52
523.37	2182.46
523.73	2204.83
524.09	2227.35
524.45	2249.86
524.81	2271.53
525.17	2293.00
525.53	2313.74
525.89	2334.87
526.25	2355.57
526.61	2375.16
526.97	2394.92
527.33	2414.15
527.68	2432.52
528.04	2450.28
528.40	2466.99
528.76	2484.20
529.12	2500.28
529.48	2516.77
529.84	2532.00
530.20	2548.32
530.56	2563.54
530.91	2578.69
531.27	2592.84
531.63	2606.02
531.99	2618.89
532.35	2630.25
532.71	2641.66
533.07	2653.35
533.42	2663.48
533.78	2674.36
534.14	2685.46
534.50	2695.11
534.86	2704.96
535.21	2712.92
535.57	2721.02
535.93	2729.54
536.29	2736.91
536.65	2744.46
537.00	2749.92
537.36	2755.77
537.72	2759.91
538.08	2763.79
538.44	2766.83
538.79	2770.21
539.15	2772.92
539.51	2775.03
539.87	2777.81
540.22	2778.52
540.58	2779.76
540.94	2780.59
541.29	2779.91
541.65	2777.77
542.01	2775.76
542.37	2772.64
542.72	2771.26
543.08	2768.48
543.44	2765.46
543.79	2760.76
544.15	2755.91
544.51	2751.87
544.87	2745.84
545.22	2739.27
545.58	2732.96
545.94	2727.41
546.29	2720.12
546.65	2712.16
547.01	2704.28
547.36	2695.97
547.72	2687.63
548.07	2678.07
548.43	2668.34
548.79	2657.61
549.14	2647.89
549.50	2637.94
549.86	2627.44
550.21	2615.12
550.57	2604.06
550.92	2591.29
551.28	2579.14
551.64	2567.27
551.99	2555.38
552.35	2543.63
552.70	2531.65
553.06	2519.96
553.41	2507.09
553.77	2493.87
554.13	2480.95
554.48	2467.21
554.84	2453.00
555.19	2439.77
555.55	2425.59
555.90	2411.65
556.26	2398.65
556.61	2384.85
556.97	2370.13
557.32	2355.77
557.68	2341.58
558.03	2326.90
558.39	2313.04
558.74	2299.36
559.10	2283.64
559.45	2268.50
559.81	2254.08
560.16	2239.28
560.52	2224.19
560.87	2209.88
561.23	2195.11
561.58	2180.65
561.94	2165.51
562.29	2150.48
562.64	2135.33
563.00	2120.41
563.35	2106.08
563.71	2091.45
564.06	2076.47
564.42	2061.96
564.77	2047.58
565.12	2033.59
565.48	2019.44
565.83	2004.94
566.19	1990.56
566.54	1976.77
566.89	1961.68
567.25	1946.13
567.60	1931.80
567.96	1916.85
568.31	1901.41
568.66	1886.82
569.02	1872.20
569.37	1857.75
569.72	1843.64
570.08	1829.35
570.43	1815.06
570.78	1799.89
571.14	1784.77
571.49	1770.06
571.84	1756.16
572.20	1740.89
572.55	1725.87
572.90	1710.32
573.26	1694.85
573.61	1679.13
573.96	1663.96
574.31	1649.51
574.67	1635.52
575.02	1620.63
575.37	1605.45
575.72	1590.23
576.08	1575.30
576.43	1560.47
576.78	1545.70
577.13	1530.99
577.49	1516.31
577.84	1501.58
578.19	1487.07
578.54	1472.59
578.90	1458.00
579.25	1442.88
579.60	1428.98
579.95	1414.98
580.30	1401.22
580.66	1387.48
581.01	1373.92
581.36	1360.17
581.71	1346.33
582.06	1332.56
582.42	1318.98
582.77	1305.82
583.12	1292.88
583.47	1279.84
583.82	1266.91
584.17	1253.98
584.53	1241.07
584.88	1228.57
585.23	1215.85
585.58	1203.42
585.93	1190.98
586.28	1179.16
586.63	1167.24
586.98	1155.18
587.34	1143.48
587.69	1131.59
588.04	1120.06
588.39	1108.67
588.74	1097.21
589.09	1086.12
589.44	1074.52
589.79	1063.51
590.14	1052.63
590.49	1041.83
590.84	1031.31
591.19	1020.90
591.54	1010.47
591.89	999.83
592.25	989.26
592.60	978.67
592.95	968.33
593.30	958.06
593.65	947.69
594.00	937.59
594.35	928.16
594.70	918.28
595.05	909.02
595.40	899.61
595.75	890.03
596.10	880.93
596.45	871.68
596.80	862.87
597.15	854.02
597.50	845.21
597.85	836.74
598.19	828.20
598.54	819.63
598.89	811.28
599.24	803.34
599.59	795.46
599.94	788.06
600.29	780.44
600.64	772.91
600.99	765.37
601.34	758.06
601.69	750.16
602.04	742.88
602.39	735.73
602.74	728.72
603.08	721.85
603.43	715.00
603.78	708.28
604.13	701.65
604.48	695.03
604.83	688.64
605.18	682.21
605.53	675.92
605.87	669.53
606.22	663.39
606.57	657.24
606.92	650.94
607.27	644.81
607.62	639.06
607.96	633.38
608.31	627.98
608.66	622.44
609.01	617.17
609.36	612.07
609.70	606.86
610.05	601.62
610.40	596.54
610.75	591.35
611.10	586.53
611.44	581.62
611.79	576.83
612.14	572.00
612.49	567.22
612.83	562.64
613.18	558.28
613.53	553.95
613.88	549.57
614.22	545.48
614.57	541.27
614.92	537.07
615.27	533.00
615.61	528.95
615.96	525.03
616.31	521.11
616.65	517.19
617.00	513.37
617.35	509.66
617.70	506.01
618.04	502.56
618.39	499.00
618.74	495.59
619.08	492.12
619.43	488.75
619.78	485.47
620.12	482.23
620.47	479.14
620.82	476.06
621.16	473.08
621.51	470.20
621.85	467.34
622.20	464.57
622.55	461.79
622.89	459.05
623.24	456.45
623.59	453.88
623.93	451.35
624.28	448.93
624.62	446.73
624.97	444.49
625.32	442.11
625.66	439.73
626.01	437.42
626.35	435.28
626.70	433.06
627.04	431.03
627.39	428.89
627.73	426.80
628.08	424.81
628.43	422.85
628.77	420.88
629.12	419.03
629.46	417.14
629.81	415.37
630.15	413.54
630.50	411.73
630.84	409.99
631.19	408.32
631.53	406.69
631.88	404.86
632.22	403.15
632.57	401.75
632.91	400.34
633.26	398.98
633.60	397.55
633.95	396.22
634.29	394.77
634.64	393.40
634.98	391.89
635.32	390.53
635.67	389.26
636.01	387.99
636.36	386.75
636.70	385.64
637.05	384.38
637.39	383.25
637.73	382.11
638.08	381.03
638.42	379.95
638.77	378.77
639.11	377.57
639.45	376.44
639.80	375.26
640.14	374.12
640.49	372.95
640.83	371.86
641.17	370.75
641.52	369.68
641.86	368.66
642.20	367.82
642.55	366.79
642.89	365.78
643.23	364.79
643.58	363.91
643.92	362.89
644.26	361.93
644.61	361.02
644.95	360.09
645.29	359.16
645.64	358.21
645.98	357.30
646.32	356.50
646.66	355.61
647.01	354.71
647.35	353.91
647.69	353.08
648.04	352.30
648.38	351.47
648.72	350.70
649.06	349.95
649.41	349.13
649.75	348.36
650.09	347.64
650.43	346.92
650.78	346.13
651.12	345.38
651.46	344.67
651.80	343.98
652.14	343.26
652.49	342.57
652.83	341.85
653.17	341.16
653.51	340.49
653.85	339.91
654.20	339.30
654.54	338.59
654.88	337.95
655.22	337.31
655.56	336.62
655.90	335.93
656.25	335.27
656.59	334.64
656.93	334.05
657.27	333.49
657.61	332.84
657.95	332.28
658.29	331.69
658.64	331.18
658.98	330.57
659.32	329.99
659.66	329.43
660.00	328.89
660.34	328.34
660.68	327.76
661.02	327.13
661.36	326.53
661.70	325.96
662.05	325.42
662.39	324.92
662.73	324.50
663.07	324.09
663.41	323.61
663.75	323.07
664.09	322.55
664.43	321.94
664.77	321.46
665.11	320.87
665.45	320.35
665.79	319.79
666.13	319.25
666.47	318.72
666.81	318.15
667.15	317.57
667.49	317.09
667.83	316.66
668.17	316.19
668.51	315.76
668.85	315.35
669.19	314.98
669.53	314.45
669.87	313.96
670.21	313.48
670.55	313.01
670.89	312.68
671.23	312.23
671.57	311.82
671.91	311.42
672.25	311.06
672.58	310.69
672.92	310.24
673.26	309.85
673.60	309.45
673.94	309.08
674.28	308.73
674.62	308.36
674.96	307.90
675.30	307.52
675.64	307.08
675.97	306.66
676.31	306.17
676.65	305.74
676.99	305.37
677.33	304.91
677.67	304.48
678.01	303.93
678.34	303.51
678.68	303.11
679.02	302.66
679.36	302.23
679.70	301.77
680.04	301.36
680.37	300.94
680.71	300.53
681.05	300.12
681.39	299.70
681.73	299.22
682.06	298.78
682.40	298.36
682.74	297.99
683.08	297.63
683.42	297.18
683.75	296.79
684.09	296.29
684.43	295.84
684.77	295.40
685.10	295.02
685.44	294.63
685.78	294.21
686.12	293.80
686.45	293.36
686.79	292.91
687.13	292.50
687.46	292.05
687.80	291.63
688.14	291.15
688.48	290.71
688.81	290.31
689.15	289.95
689.49	289.49
689.82	289.04
690.16	288.51
690.50	288.10
690.83	287.68
691.17	287.23
691.51	286.83
691.84	286.46
692.18	286.03
692.52	285.57
692.85	285.15
693.19	284.80
693.52	284.41
693.86	284.02
694.20	283.60
694.53	283.20
694.87	282.75
695.21	282.32
695.54	281.92
695.88	281.46
696.21	280.97
696.55	280.55
696.88	280.11
697.22	279.71
697.56	279.32
697.89	278.85
698.23	278.45
698.56	278.00
698.90	277.59
699.23	277.15
699.57	276.76
699.90	276.31
700.24	275.84
700.58	275.44
700.91	275.07
701.25	274.84
701.58	274.53
701.92	274.22
702.25	273.86
702.59	273.47
702.92	273.10
703.26	272.72
703.59	272.34
703.93	272.11
704.26	271.75
704.60	271.36
704.93	270.98
705.26	270.57
705.60	270.24
705.93	269.79
706.27	269.47
706.60	269.14
706.94	268.83
707.27	268.43
707.61	268.05
707.94	267.65
708.27	267.12
708.61	266.66
708.94	266.26
709.28	265.89
709.61	265.52
709.94	265.21
710.28	264.89
710.61	264.60
710.95	264.13
711.28	263.91
711.61	263.59
711.95	263.32
712.28	262.99
712.61	262.64
712.95	262.43
713.28	262.18
713.61	261.83
713.95	261.47
714.28	261.19
714.61	260.86
714.95	260.57
715.28	260.27
715.61	259.98
715.95	259.72
716.28	259.41
716.61	259.14
716.95	258.79
717.28	258.48
717.61	258.14
717.94	257.84
718.28	257.43
718.61	257.12
718.94	256.80
719.27	256.54
719.61	256.29
719.94	255.98
720.27	255.63
720.60	255.36
720.94	255.10
721.27	254.85
721.60	254.62
721.93	254.35
722.27	254.15
722.60	253.92
722.93	253.64
723.26	253.42
723.59	253.17
723.93	252.98
724.26	252.77
724.59	252.56
724.92	252.35
725.25	252.18
725.59	251.97
725.92	251.78
726.25	251.57
726.58	251.36
726.91	251.13
727.24	250.93
727.57	250.71
727.91	250.48
728.24	250.29
728.57	250.07
728.90	249.88
729.23	249.64
729.56	249.53
729.89	249.34
730.22	249.13
730.55	248.92
730.89	248.72
731.22	248.51
731.55	248.31
731.88	248.12
732.21	247.91
732.54	247.71
732.87	247.53
733.20	247.35
733.53	247.17
733.86	247.01
734.19	246.80
734.52	246.67
734.85	246.62
735.18	246.43
735.51	246.32
735.84	246.17
736.17	246.03
736.50	245.76
736.83	245.80
737.16	245.64
737.49	245.49
737.82	245.31
738.15	245.17
738.48	245.01
738.81	244.85
739.14	244.66
739.47	244.49
739.80	244.33
740.13	244.19
740.46	244.02
740.79	243.84
741.12	243.70
741.45	243.51
741.78	243.27
742.11	243.17
742.44	242.98
742.77	242.85
743.10	242.69
743.43	242.56
743.75	242.22
744.08	242.35
744.41	242.19
744.74	242.06
745.07	241.88
745.40	241.79
745.73	241.73
746.06	241.61
746.39	241.51
746.71	241.34
747.04	241.20
747.37	241.06
747.70	240.96
748.03	240.84
748.36	240.75
748.68	240.62
749.01	240.45
749.34	240.33
749.67	240.21
750.00	240.11
750.33	240.13
750.65	240.04
750.98	239.66
751.31	239.56
751.64	239.46
751.97	239.45
752.29	239.31
752.62	239.12
752.95	238.99
753.28	238.85
753.60	238.76
753.93	238.69
754.26	238.60
754.59	238.43
754.91	238.30
755.24	238.16
755.57	238.06
755.90	237.94
756.22	237.81
756.55	237.69
756.88	237.54
757.20	237.32
757.53	237.16
757.86	237.06
758.19	236.97
758.51	236.87
758.84	236.69
759.17	236.58
759.49	236.50
759.82	236.50
760.15	236.44
760.47	236.34
760.80	236.20
761.13	236.14
761.45	236.06
761.78	235.99
762.11	235.92
762.43	235.81
762.76	235.73
763.08	235.68
763.41	235.60
763.74	235.54
764.06	235.45
764.39	235.38
764.71	235.30
765.04	235.20
765.37	235.10
765.69	235.02
766.02	234.95
766.34	234.87
766.67	234.72
767.00	234.67
767.32	234.71
767.65	234.75
767.97	234.66
768.30	234.62
768.62	234.55
768.95	234.46
769.27	234.39
769.60	234.36
769.92	234.27
770.25	234.18
770.57	234.09
770.90	234.04
771.22	233.97
771.55	233.93
771.87	233.89
772.20	233.83
772.52	233.93
772.85	234.09
773.17	234.05
773.50	233.99
773.82	233.91
774.15	233.76
774.47	233.59
774.80	233.53
775.12	233.47
775.45	233.41
775.77	233.39
776.09	233.36
776.42	233.30
776.74	233.32
777.07	233.28
777.39	233.26
777.72	233.20
778.04	233.18
778.36	233.12
778.69	233.07
779.01	233.05
779.33	232.86
779.66	232.61
779.98	232.55
780.31	232.53
780.63	232.57
780.95	232.57
781.28	232.54
781.60	232.48
781.92	232.44
782.25	232.42
782.57	232.38
782.89	232.33
783.22	232.29
783.54	232.21
783.86	232.20
784.19	232.15
784.51	232.16
784.83	232.11
785.16	232.08
785.48	232.07
785.80	232.04
786.12	232.03
786.45	232.00
786.77	231.99
787.09	231.96
787.42	231.86
787.74	231.83
788.06	231.82
788.38	231.80
788.71	231.76
789.03	231.73
789.35	231.72
789.67	231.67
789.99	231.65
790.32	231.60
790.64	231.59
790.96	231.72
791.28	231.63
791.61	231.59
791.93	231.58
792.25	231.54
792.57	231.64
792.89	231.59
793.21	231.57
793.54	231.53
793.86	231.48
794.18	231.47
794.50	231.41
794.82	231.38
795.14	231.38
795.47	231.40
795.79	231.37
796.11	231.31
796.43	231.29
796.75	231.27
797.07	231.26
797.39	231.23
797.71	231.06
798.04	231.06
798.36	231.06
798.68	231.04
799.00	231.03
799.32	230.91
799.64	230.91
799.96	230.89
800.28	230.90
800.60	230.88
800.92	230.86
801.24	230.84
801.56	230.84
801.89	230.81
802.21	230.78
802.53	230.73
802.85	230.76
803.17	230.83
803.49	230.77
803.81	230.73
804.13	230.70
804.45	230.66
804.77	230.65
805.09	230.64
805.41	230.60
805.73	230.54
806.05	230.49
806.37	230.45
806.69	230.43
807.01	230.40
807.33	230.40
807.65	230.32
807.97	230.39
808.28	230.35
808.60	230.33
808.92	230.29
809.24	230.39
809.56	230.35
809.88	230.26
810.20	230.27
810.52	230.30
810.84	230.27
811.16	230.23
811.48	230.20
811.80	230.25
812.12	230.24
812.43	230.26
812.75	230.26
813.07	230.24
813.39	230.24
813.71	230.19
814.03	230.16
814.35	230.16
814.67	230.07
814.98	230.05
815.30	230.03
815.62	230.00
815.94	229.87
816.26	229.89
816.58	229.85
816.89	229.86
817.21	229.81
817.53	229.81
817.85	229.81
818.17	229.80
818.48	229.72
818.80	229.75
