SpectraSuite Data File
++++++++++++++++++++++++++++++++++++
Date: Wed Oct 07 01:11:14 EDT 2015
User: lab3
Dark Spectrum Present: No
Reference Spectrum Present: No
Number of Sampled Component Spectra: 1
Spectrometers: USB2E7196
Integration Time (usec): 66000 (USB2E7196)
Spectra Averaged: 10000 (USB2E7196)
Boxcar Smoothing: 10 (USB2E7196)
Correct for Electrical Dark: No (USB2E7196)
Strobe/Lamp Enabled: No (USB2E7196)
Correct for Detector Non-linearity: No (USB2E7196)
Correct for Stray Light: No (USB2E7196)
Number of Pixels in Processed Spectrum: 2048
>>>>>Begin Processed Spectral Data<<<<<
339.09	0.00
339.48	212.80
339.86	214.29
340.24	215.58
340.63	217.08
341.01	221.18
341.39	219.74
341.78	221.21
342.16	222.61
342.54	222.87
342.93	211.41
343.31	222.09
343.69	222.63
344.07	223.09
344.46	223.54
344.84	223.94
345.22	224.14
345.60	224.42
345.99	224.63
346.37	224.77
346.75	224.89
347.13	224.98
347.52	225.07
347.90	225.20
348.28	225.25
348.66	225.34
349.05	225.33
349.43	225.40
349.81	225.47
350.19	225.54
350.57	225.62
350.96	225.72
351.34	225.83
351.72	225.94
352.10	226.07
352.48	226.14
352.87	226.19
353.25	226.25
353.63	226.31
354.01	226.36
354.39	226.44
354.77	226.52
355.15	226.64
355.54	226.68
355.92	226.68
356.30	226.76
356.68	226.94
357.06	227.02
357.44	227.06
357.82	227.11
358.20	227.33
358.58	227.38
358.97	227.45
359.35	227.54
359.73	227.64
360.11	227.68
360.49	227.75
360.87	227.80
361.25	227.87
361.63	227.98
362.01	228.03
362.39	228.06
362.77	228.12
363.15	228.14
363.53	228.17
363.91	228.22
364.29	228.24
364.67	228.09
365.05	228.11
365.43	228.16
365.81	228.20
366.19	228.15
366.57	228.24
366.95	228.23
367.33	228.19
367.71	228.18
368.09	228.22
368.47	228.21
368.85	228.20
369.23	228.23
369.61	228.15
369.99	228.19
370.37	228.20
370.75	228.32
371.13	228.28
371.51	228.24
371.89	228.23
372.27	228.21
372.65	228.20
373.03	228.16
373.41	228.11
373.78	228.06
374.16	227.93
374.54	227.83
374.92	227.78
375.30	227.74
375.68	227.66
376.06	227.62
376.44	227.56
376.82	227.53
377.19	227.48
377.57	227.44
377.95	227.32
378.33	227.26
378.71	227.05
379.09	227.01
379.47	226.99
379.84	226.92
380.22	226.86
380.60	226.78
380.98	226.74
381.36	226.68
381.73	226.62
382.11	226.62
382.49	226.58
382.87	226.52
383.25	226.48
383.62	226.66
384.00	226.58
384.38	226.55
384.76	226.55
385.13	226.57
385.51	226.53
385.89	226.48
386.27	226.45
386.64	226.45
387.02	226.40
387.40	226.35
387.78	226.33
388.15	226.31
388.53	226.28
388.91	226.26
389.29	226.22
389.66	226.24
390.04	226.19
390.42	226.20
390.79	226.20
391.17	226.19
391.55	225.98
391.92	225.97
392.30	225.99
392.68	225.94
393.05	225.92
393.43	225.94
393.81	225.96
394.18	225.94
394.56	225.95
394.94	226.01
395.31	226.02
395.69	226.09
396.06	226.15
396.44	226.19
396.82	226.22
397.19	226.36
397.57	226.37
397.95	226.45
398.32	226.44
398.70	226.51
399.07	226.61
399.45	226.67
399.82	226.75
400.20	226.80
400.58	226.90
400.95	226.92
401.33	227.04
401.70	227.28
402.08	227.42
402.45	227.56
402.83	227.73
403.20	227.90
403.58	228.04
403.95	228.24
404.33	228.47
404.71	228.69
405.08	229.00
405.46	229.26
405.83	229.54
406.21	229.84
406.58	230.16
406.96	230.49
407.33	230.87
407.70	231.30
408.08	231.88
408.45	232.39
408.83	232.94
409.20	233.45
409.58	233.91
409.95	234.54
410.33	235.22
410.70	235.87
411.08	236.63
411.45	237.44
411.82	238.27
412.20	239.21
412.57	240.33
412.95	241.22
413.32	242.37
413.69	243.56
414.07	244.83
414.44	246.21
414.82	247.61
415.19	249.26
415.56	250.93
415.94	252.68
416.31	254.63
416.68	256.59
417.06	258.86
417.43	261.00
417.81	263.45
418.18	265.95
418.55	268.67
418.93	271.51
419.30	274.47
419.67	277.61
420.04	280.83
420.42	284.21
420.79	288.11
421.16	292.04
421.54	296.01
421.91	300.17
422.28	304.50
422.66	309.16
423.03	313.58
423.40	318.23
423.77	323.18
424.15	328.26
424.52	333.54
424.89	339.24
425.26	344.89
425.64	350.14
426.01	356.03
426.38	362.04
426.75	368.24
427.13	374.57
427.50	381.20
427.87	388.08
428.24	395.01
428.61	401.64
428.99	408.80
429.36	416.66
429.73	424.18
430.10	431.67
430.47	439.34
430.85	447.26
431.22	455.67
431.59	464.33
431.96	472.77
432.33	482.16
432.70	491.09
433.08	501.67
433.45	511.63
433.82	521.50
434.19	532.56
434.56	543.44
434.93	554.00
435.30	564.48
435.68	576.33
436.05	587.95
436.42	599.59
436.79	610.23
437.16	621.80
437.53	634.15
437.90	646.51
438.27	658.65
438.64	671.79
439.01	683.75
439.38	694.72
439.75	705.33
440.13	717.44
440.50	728.94
440.87	738.16
441.24	748.31
441.61	759.43
441.98	767.68
442.35	777.48
442.72	787.46
443.09	796.99
443.46	803.25
443.83	808.02
444.20	812.03
444.57	817.73
444.94	821.20
445.31	824.81
445.68	827.95
446.05	830.38
446.42	830.30
446.79	829.96
447.16	829.71
447.53	829.54
447.90	826.18
448.27	823.04
448.64	817.91
449.01	814.46
449.37	806.97
449.74	800.18
450.11	791.37
450.48	781.65
450.85	771.86
451.22	763.49
451.59	755.24
451.96	747.76
452.33	736.90
452.70	727.19
453.07	715.41
453.43	703.62
453.80	692.11
454.17	681.06
454.54	670.87
454.91	659.37
455.28	648.48
455.65	638.19
456.02	627.27
456.38	618.48
456.75	607.22
457.12	598.17
457.49	589.02
457.86	580.33
458.23	572.68
458.59	564.27
458.96	555.64
459.33	548.04
459.70	540.30
460.07	534.39
460.43	527.45
460.80	520.96
461.17	515.31
461.54	509.21
461.91	503.47
462.27	497.64
462.64	492.87
463.01	487.44
463.38	481.96
463.74	477.01
464.11	472.61
464.48	468.63
464.85	464.35
465.21	461.07
465.58	457.43
465.95	453.30
466.32	450.01
466.68	446.80
467.05	443.57
467.42	440.43
467.78	437.06
468.15	433.95
468.52	431.67
468.88	428.64
469.25	425.86
469.62	423.68
469.98	421.31
470.35	419.20
470.72	417.27
471.08	415.34
471.45	413.72
471.82	411.90
472.18	410.00
472.55	408.76
472.92	407.22
473.28	406.01
473.65	404.72
474.02	403.46
474.38	402.40
474.75	401.75
475.11	400.89
475.48	400.47
475.85	400.01
476.21	399.73
476.58	399.53
476.94	399.68
477.31	399.69
477.67	399.73
478.04	400.00
478.41	400.40
478.77	400.98
479.14	401.32
479.50	402.07
479.87	403.05
480.23	404.00
480.60	404.90
480.96	405.81
481.33	407.22
481.69	408.60
482.06	409.96
482.42	411.20
482.79	412.76
483.15	414.58
483.52	416.65
483.88	418.62
484.25	420.71
484.61	422.90
484.98	425.28
485.34	427.96
485.71	430.74
486.07	433.74
486.44	436.68
486.80	440.01
487.17	443.42
487.53	447.12
487.90	450.99
488.26	455.22
488.62	459.67
488.99	464.12
489.35	468.80
489.72	473.83
490.08	479.11
490.44	484.51
490.81	490.12
491.17	495.92
491.54	502.13
491.90	508.47
492.26	515.26
492.63	522.38
492.99	529.82
493.36	537.44
493.72	545.42
494.08	553.63
494.45	562.24
494.81	571.23
495.17	580.46
495.54	590.21
495.90	600.38
496.26	610.75
496.63	621.44
496.99	632.50
497.35	644.10
497.72	655.99
498.08	668.21
498.44	680.78
498.80	694.03
499.17	707.57
499.53	721.56
499.89	735.99
500.26	750.66
500.62	765.67
500.98	781.58
501.34	797.52
501.71	814.20
502.07	831.23
502.43	848.73
502.79	866.49
503.16	884.72
503.52	903.18
503.88	922.06
504.24	941.40
504.60	961.02
504.97	981.24
505.33	1001.98
505.69	1023.80
506.05	1045.87
506.41	1067.93
506.78	1090.14
507.14	1112.87
507.50	1136.12
507.86	1159.75
508.22	1183.63
508.59	1207.40
508.95	1232.16
509.31	1257.51
509.67	1283.50
510.03	1309.48
510.39	1335.34
510.75	1361.31
511.12	1387.57
511.48	1414.22
511.84	1440.80
512.20	1467.69
512.56	1495.72
512.92	1523.63
513.28	1550.85
513.64	1578.52
514.00	1606.56
514.37	1634.91
514.73	1663.33
515.09	1691.09
515.45	1719.09
515.81	1747.43
516.17	1775.53
516.53	1802.96
516.89	1830.07
517.25	1857.47
517.61	1884.69
517.97	1912.58
518.33	1939.97
518.69	1967.31
519.05	1994.95
519.41	2022.78
519.77	2050.80
520.13	2077.23
520.49	2103.56
520.85	2130.34
521.21	2156.52
521.57	2183.03
521.93	2208.38
522.29	2234.50
522.65	2260.41
523.01	2286.07
523.37	2310.96
523.73	2336.60
524.09	2361.93
524.45	2387.13
524.81	2411.72
525.17	2436.21
525.53	2459.68
525.89	2483.67
526.25	2507.36
526.61	2529.28
526.97	2551.30
527.33	2572.95
527.68	2594.64
528.04	2615.95
528.40	2636.18
528.76	2656.35
529.12	2676.00
529.48	2696.45
529.84	2714.16
530.20	2732.13
530.56	2749.47
530.91	2766.84
531.27	2783.47
531.63	2799.34
531.99	2814.69
532.35	2829.88
532.71	2844.63
533.07	2859.94
533.42	2873.22
533.78	2886.56
534.14	2901.08
534.50	2914.49
534.86	2928.52
535.21	2940.03
535.57	2951.50
535.93	2962.52
536.29	2971.90
536.65	2981.07
537.00	2989.00
537.36	2998.01
537.72	3006.24
538.08	3013.99
538.44	3020.39
538.79	3026.71
539.15	3031.73
539.51	3036.01
539.87	3038.95
540.22	3040.15
540.58	3041.59
540.94	3043.65
541.29	3044.83
541.65	3044.49
542.01	3043.75
542.37	3041.22
542.72	3040.56
543.08	3038.03
543.44	3035.68
543.79	3033.21
544.15	3029.92
544.51	3026.45
544.87	3022.12
545.22	3016.77
545.58	3010.89
545.94	3005.45
546.29	2998.58
546.65	2991.74
547.01	2985.07
547.36	2979.04
547.72	2973.16
548.07	2965.52
548.43	2956.70
548.79	2947.45
549.14	2938.48
549.50	2929.64
549.86	2919.97
550.21	2908.45
550.57	2898.28
550.92	2886.43
551.28	2874.66
551.64	2863.26
551.99	2851.67
552.35	2839.61
552.70	2827.47
553.06	2815.87
553.41	2803.83
553.77	2791.33
554.13	2778.96
554.48	2765.42
554.84	2750.55
555.19	2736.17
555.55	2721.80
555.90	2708.00
556.26	2694.45
556.61	2679.87
556.97	2664.13
557.32	2648.76
557.68	2633.84
558.03	2618.45
558.39	2603.97
558.74	2590.29
559.10	2574.72
559.45	2559.03
559.81	2543.99
560.16	2528.52
560.52	2512.75
560.87	2497.33
561.23	2481.41
561.58	2466.08
561.94	2450.40
562.29	2434.35
562.64	2418.48
563.00	2402.59
563.35	2386.97
563.71	2370.86
564.06	2354.91
564.42	2339.45
564.77	2324.17
565.12	2308.50
565.48	2292.49
565.83	2276.57
566.19	2260.54
566.54	2244.70
566.89	2228.50
567.25	2212.33
567.60	2197.04
567.96	2181.21
568.31	2163.77
568.66	2147.08
569.02	2131.07
569.37	2115.64
569.72	2100.75
570.08	2085.45
570.43	2069.46
570.78	2053.20
571.14	2036.97
571.49	2020.63
571.84	2004.57
572.20	1987.25
572.55	1970.63
572.90	1954.20
573.26	1937.99
573.61	1921.08
573.96	1904.65
574.31	1888.14
574.67	1871.24
575.02	1854.01
575.37	1836.73
575.72	1820.37
576.08	1803.90
576.43	1786.41
576.78	1769.25
577.13	1752.34
577.49	1735.59
577.84	1719.43
578.19	1702.84
578.54	1686.13
578.90	1669.36
579.25	1652.37
579.60	1636.75
579.95	1620.81
580.30	1604.83
580.66	1588.52
581.01	1572.32
581.36	1556.17
581.71	1540.90
582.06	1525.71
582.42	1510.33
582.77	1495.32
583.12	1480.57
583.47	1465.92
583.82	1451.47
584.17	1436.35
584.53	1421.37
584.88	1406.74
585.23	1391.94
585.58	1377.55
585.93	1362.99
586.28	1349.49
586.63	1335.89
586.98	1321.73
587.34	1308.05
587.69	1294.17
588.04	1280.58
588.39	1267.28
588.74	1253.66
589.09	1240.13
589.44	1226.25
589.79	1213.06
590.14	1199.89
590.49	1186.73
590.84	1173.79
591.19	1161.25
591.54	1148.90
591.89	1136.17
592.25	1123.73
592.60	1111.16
592.95	1098.74
593.30	1086.81
593.65	1074.55
594.00	1062.61
594.35	1051.59
594.70	1039.83
595.05	1028.69
595.40	1017.47
595.75	1006.07
596.10	995.31
596.45	984.45
596.80	974.14
597.15	963.70
597.50	953.25
597.85	943.22
598.19	933.14
598.54	923.02
598.89	913.42
599.24	904.22
599.59	894.76
599.94	886.03
600.29	877.36
600.64	868.45
600.99	859.43
601.34	850.78
601.69	841.58
602.04	833.35
602.39	825.01
602.74	816.88
603.08	808.88
603.43	800.88
603.78	792.91
604.13	784.93
604.48	776.97
604.83	769.35
605.18	761.68
605.53	754.24
605.87	746.80
606.22	739.45
606.57	732.03
606.92	724.59
607.27	717.15
607.62	709.88
607.96	702.88
608.31	696.41
608.66	689.76
609.01	683.44
609.36	677.07
609.70	670.69
610.05	664.28
610.40	658.07
610.75	651.83
611.10	645.84
611.44	639.84
611.79	634.03
612.14	628.07
612.49	622.20
612.83	616.64
613.18	611.17
613.53	605.69
613.88	600.33
614.22	595.37
614.57	590.33
614.92	585.42
615.27	580.63
615.61	575.70
615.96	570.87
616.31	565.99
616.65	561.27
617.00	556.67
617.35	552.18
617.70	547.68
618.04	543.32
618.39	539.04
618.74	535.05
619.08	530.99
619.43	527.09
619.78	523.16
620.12	519.14
620.47	515.36
620.82	511.68
621.16	508.04
621.51	504.44
621.85	500.84
622.20	497.28
622.55	493.76
622.89	490.26
623.24	486.95
623.59	483.72
623.93	480.56
624.28	477.52
624.62	474.68
624.97	471.89
625.32	469.00
625.66	466.09
626.01	463.12
626.35	460.35
626.70	457.52
627.04	454.90
627.39	452.25
627.73	449.67
628.08	447.12
628.43	444.60
628.77	442.02
629.12	439.54
629.46	437.18
629.81	434.97
630.15	432.67
630.50	430.40
630.84	428.19
631.19	426.01
631.53	423.94
631.88	421.69
632.22	419.51
632.57	417.65
632.91	415.75
633.26	413.92
633.60	412.10
633.95	410.37
634.29	408.52
634.64	406.73
634.98	404.83
635.32	403.12
635.67	401.57
636.01	400.01
636.36	398.51
636.70	397.08
637.05	395.48
637.39	394.05
637.73	392.62
638.08	391.25
638.42	389.94
638.77	388.48
639.11	386.99
639.45	385.57
639.80	384.09
640.14	382.69
640.49	381.29
640.83	379.89
641.17	378.55
641.52	377.24
641.86	375.96
642.20	374.84
642.55	373.53
642.89	372.24
643.23	371.02
643.58	369.94
643.92	368.69
644.26	367.54
644.61	366.43
644.95	365.29
645.29	364.09
645.64	362.88
645.98	361.77
646.32	360.80
646.66	359.75
647.01	358.72
647.35	357.80
647.69	356.84
648.04	355.95
648.38	354.99
648.72	354.08
649.06	353.17
649.41	352.23
649.75	351.35
650.09	350.49
650.43	349.61
650.78	348.68
651.12	347.84
651.46	347.01
651.80	346.18
652.14	345.40
652.49	344.69
652.83	343.91
653.17	343.11
653.51	342.32
653.85	341.66
654.20	340.95
654.54	340.13
654.88	339.37
655.22	338.67
655.56	337.92
655.90	337.24
656.25	336.56
656.59	335.89
656.93	335.26
657.27	334.68
657.61	334.03
657.95	333.44
658.29	332.81
658.64	332.20
658.98	331.55
659.32	330.90
659.66	330.29
660.00	329.73
660.34	329.17
660.68	328.55
661.02	327.88
661.36	327.24
661.70	326.66
662.05	326.09
662.39	325.53
662.73	325.07
663.07	324.64
663.41	324.16
663.75	323.63
664.09	323.12
664.43	322.49
664.77	321.95
665.11	321.37
665.45	320.84
665.79	320.33
666.13	319.82
666.47	319.29
666.81	318.72
667.15	318.10
667.49	317.62
667.83	317.20
668.17	316.74
668.51	316.33
668.85	315.94
669.19	315.59
669.53	315.07
669.87	314.51
670.21	313.96
670.55	313.44
670.89	313.03
671.23	312.57
671.57	312.16
671.91	311.81
672.25	311.47
672.58	311.14
672.92	310.71
673.26	310.36
673.60	310.02
673.94	309.65
674.28	309.32
674.62	308.96
674.96	308.53
675.30	308.17
675.64	307.74
675.97	307.29
676.31	306.80
676.65	306.40
676.99	306.08
677.33	305.65
677.67	305.26
678.01	304.79
678.34	304.39
678.68	304.01
679.02	303.56
679.36	303.11
679.70	302.66
680.04	302.26
680.37	301.85
680.71	301.45
681.05	301.10
681.39	300.69
681.73	300.24
682.06	299.81
682.40	299.41
682.74	299.06
683.08	298.76
683.42	298.38
683.75	298.04
684.09	297.58
684.43	297.20
684.77	296.79
685.10	296.42
685.44	296.02
685.78	295.60
686.12	295.22
686.45	294.79
686.79	294.36
687.13	293.96
687.46	293.52
687.80	293.10
688.14	292.63
688.48	292.22
688.81	291.79
689.15	291.43
689.49	290.98
689.82	290.54
690.16	290.00
690.50	289.56
690.83	289.10
691.17	288.64
691.51	288.21
691.84	287.81
692.18	287.37
692.52	286.90
692.85	286.47
693.19	286.09
693.52	285.67
693.86	285.23
694.20	284.80
694.53	284.37
694.87	283.90
695.21	283.44
695.54	282.99
695.88	282.53
696.21	282.04
696.55	281.60
696.88	281.14
697.22	280.73
697.56	280.32
697.89	279.84
698.23	279.42
698.56	278.97
698.90	278.56
699.23	278.10
699.57	277.70
699.90	277.27
700.24	276.79
700.58	276.39
700.91	276.02
701.25	275.76
701.58	275.44
701.92	275.09
702.25	274.71
702.59	274.29
702.92	273.90
703.26	273.49
703.59	273.07
703.93	272.80
704.26	272.40
704.60	271.98
704.93	271.58
705.26	271.16
705.60	270.80
705.93	270.34
706.27	270.02
706.60	269.68
706.94	269.36
707.27	268.93
707.61	268.53
707.94	268.11
708.27	267.55
708.61	267.07
708.94	266.65
709.28	266.25
709.61	265.87
709.94	265.52
710.28	265.17
710.61	264.84
710.95	264.33
711.28	264.08
711.61	263.72
711.95	263.41
712.28	263.04
712.61	262.66
712.95	262.41
713.28	262.12
713.61	261.72
713.95	261.32
714.28	261.01
714.61	260.64
714.95	260.31
715.28	259.97
715.61	259.65
715.95	259.35
716.28	259.02
716.61	258.73
716.95	258.40
717.28	258.08
717.61	257.75
717.94	257.46
718.28	257.03
718.61	256.73
718.94	256.40
719.27	256.11
719.61	255.84
719.94	255.51
720.27	255.13
720.60	254.84
720.94	254.56
721.27	254.28
721.60	254.04
721.93	253.76
722.27	253.54
722.60	253.27
722.93	252.96
723.26	252.72
723.59	252.41
723.93	252.17
724.26	251.92
724.59	251.66
724.92	251.42
725.25	251.23
725.59	250.98
725.92	250.76
726.25	250.51
726.58	250.27
726.91	250.01
727.24	249.80
727.57	249.55
727.91	249.28
728.24	249.07
728.57	248.82
728.90	248.61
729.23	248.32
729.56	248.19
729.89	247.97
730.22	247.74
730.55	247.52
730.89	247.30
731.22	247.08
731.55	246.86
731.88	246.66
732.21	246.41
732.54	246.19
732.87	245.99
733.20	245.80
733.53	245.60
733.86	245.43
734.19	245.21
734.52	245.06
734.85	245.01
735.18	244.79
735.51	244.66
735.84	244.49
736.17	244.36
736.50	244.08
736.83	244.12
737.16	243.94
737.49	243.77
737.82	243.58
738.15	243.42
738.48	243.24
738.81	243.05
739.14	242.86
739.47	242.68
739.80	242.50
740.13	242.34
740.46	242.14
740.79	241.94
741.12	241.76
741.45	241.55
741.78	241.27
742.11	241.15
742.44	240.93
742.77	240.78
743.10	240.58
743.43	240.41
743.75	240.05
744.08	240.17
744.41	240.00
744.74	239.84
745.07	239.65
745.40	239.54
745.73	239.47
746.06	239.33
746.39	239.22
746.71	239.07
747.04	238.90
747.37	238.76
747.70	238.64
748.03	238.51
748.36	238.41
748.68	238.27
749.01	238.09
749.34	237.97
749.67	237.84
750.00	237.74
750.33	237.75
750.65	237.65
750.98	237.25
751.31	237.14
751.64	237.04
751.97	237.02
752.29	236.87
752.62	236.66
752.95	236.53
753.28	236.38
753.60	236.25
753.93	236.17
754.26	236.07
754.59	235.89
754.91	235.76
755.24	235.62
755.57	235.51
755.90	235.39
756.22	235.26
756.55	235.11
756.88	234.96
757.20	234.72
757.53	234.56
757.86	234.45
758.19	234.35
758.51	234.23
758.84	234.03
759.17	233.91
759.49	233.83
759.82	233.82
760.15	233.74
760.47	233.64
760.80	233.49
761.13	233.42
761.45	233.33
761.78	233.24
762.11	233.15
762.43	233.04
762.76	232.95
763.08	232.88
763.41	232.81
763.74	232.74
764.06	232.65
764.39	232.57
764.71	232.49
765.04	232.39
765.37	232.29
765.69	232.21
766.02	232.13
766.34	232.04
766.67	231.89
767.00	231.85
767.32	231.87
767.65	231.92
767.97	231.83
768.30	231.76
768.62	231.70
768.95	231.61
769.27	231.53
769.60	231.49
769.92	231.39
770.25	231.29
770.57	231.19
770.90	231.12
771.22	231.04
771.55	230.99
771.87	230.94
772.20	230.88
772.52	230.98
772.85	231.13
773.17	231.09
773.50	231.01
773.82	230.92
774.15	230.77
774.47	230.59
774.80	230.53
775.12	230.47
775.45	230.42
775.77	230.37
776.09	230.34
776.42	230.28
776.74	230.29
777.07	230.24
777.39	230.20
777.72	230.14
778.04	230.12
778.36	230.06
778.69	230.01
779.01	229.98
779.33	229.78
779.66	229.52
779.98	229.47
780.31	229.43
780.63	229.47
780.95	229.47
781.28	229.43
781.60	229.37
781.92	229.33
782.25	229.29
782.57	229.25
782.89	229.20
783.22	229.15
783.54	229.08
783.86	229.06
784.19	229.02
784.51	229.04
784.83	228.98
785.16	228.94
785.48	228.90
785.80	228.87
786.12	228.85
786.45	228.81
786.77	228.79
787.09	228.75
787.42	228.65
787.74	228.62
788.06	228.60
788.38	228.56
788.71	228.52
789.03	228.50
789.35	228.50
789.67	228.44
789.99	228.43
790.32	228.38
790.64	228.37
790.96	228.51
791.28	228.42
791.61	228.39
791.93	228.37
792.25	228.33
792.57	228.43
792.89	228.38
793.21	228.36
793.54	228.31
793.86	228.26
794.18	228.25
794.50	228.19
794.82	228.16
795.14	228.16
795.47	228.17
795.79	228.14
796.11	228.07
796.43	228.05
796.75	228.02
797.07	228.00
797.39	227.96
797.71	227.78
798.04	227.77
798.36	227.76
798.68	227.73
799.00	227.72
799.32	227.61
799.64	227.62
799.96	227.59
800.28	227.61
800.60	227.59
800.92	227.58
801.24	227.55
801.56	227.54
801.89	227.50
802.21	227.49
802.53	227.44
802.85	227.47
803.17	227.53
803.49	227.47
803.81	227.44
804.13	227.40
804.45	227.36
804.77	227.36
805.09	227.34
805.41	227.31
805.73	227.26
806.05	227.19
806.37	227.16
806.69	227.13
807.01	227.09
807.33	227.08
807.65	227.00
807.97	227.07
808.28	227.02
808.60	227.00
808.92	226.96
809.24	227.05
809.56	227.00
809.88	226.92
810.20	226.92
810.52	226.94
810.84	226.90
811.16	226.87
811.48	226.84
811.80	226.88
812.12	226.87
812.43	226.89
812.75	226.89
813.07	226.86
813.39	226.85
813.71	226.82
814.03	226.78
814.35	226.78
814.67	226.69
814.98	226.66
815.30	226.65
815.62	226.61
815.94	226.47
816.26	226.48
816.58	226.44
816.89	226.44
817.21	226.38
817.53	226.39
817.85	226.39
818.17	226.37
818.48	226.29
