SpectraSuite Data File
++++++++++++++++++++++++++++++++++++
Date: Tue Oct 06 11:23:57 EDT 2015
User: lab3
Dark Spectrum Present: No
Reference Spectrum Present: No
Number of Sampled Component Spectra: 1
Spectrometers: USB2E7196
Integration Time (usec): 66000 (USB2E7196)
Spectra Averaged: 1000 (USB2E7196)
Boxcar Smoothing: 10 (USB2E7196)
Correct for Electrical Dark: No (USB2E7196)
Strobe/Lamp Enabled: No (USB2E7196)
Correct for Detector Non-linearity: No (USB2E7196)
Correct for Stray Light: No (USB2E7196)
Number of Pixels in Processed Spectrum: 2048
>>>>>Begin Processed Spectral Data<<<<<
339.09	0.00
339.48	215.92
339.86	217.38
340.24	218.73
340.63	220.19
341.01	224.38
341.39	222.77
341.78	224.45
342.16	225.60
342.54	225.96
342.93	214.39
343.31	225.22
343.69	225.76
344.07	226.22
344.46	226.67
344.84	227.09
345.22	227.28
345.60	227.57
345.99	227.77
346.37	227.92
346.75	228.03
347.13	228.14
347.52	228.23
347.90	228.35
348.28	228.40
348.66	228.48
349.05	228.47
349.43	228.54
349.81	228.60
350.19	228.67
350.57	228.75
350.96	228.86
351.34	228.97
351.72	229.09
352.10	229.21
352.48	229.28
352.87	229.32
353.25	229.39
353.63	229.44
354.01	229.50
354.39	229.58
354.77	229.67
355.15	229.78
355.54	229.82
355.92	229.84
356.30	229.91
356.68	230.10
357.06	230.18
357.44	230.22
357.82	230.30
358.20	230.50
358.58	230.56
358.97	230.62
359.35	230.73
359.73	230.82
360.11	230.88
360.49	230.94
360.87	231.00
361.25	231.08
361.63	231.18
362.01	231.25
362.39	231.28
362.77	231.33
363.15	231.36
363.53	231.39
363.91	231.42
364.29	231.44
364.67	231.29
365.05	231.32
365.43	231.37
365.81	231.40
366.19	231.36
366.57	231.45
366.95	231.45
367.33	231.39
367.71	231.38
368.09	231.39
368.47	231.39
368.85	231.37
369.23	231.40
369.61	231.32
369.99	231.35
370.37	231.36
370.75	231.46
371.13	231.42
371.51	231.38
371.89	231.37
372.27	231.35
372.65	231.34
373.03	231.29
373.41	231.24
373.78	231.18
374.16	231.05
374.54	230.95
374.92	230.90
375.30	230.86
375.68	230.79
376.06	230.75
376.44	230.70
376.82	230.66
377.19	230.61
377.57	230.56
377.95	230.44
378.33	230.37
378.71	230.17
379.09	230.12
379.47	230.11
379.84	230.04
380.22	229.97
380.60	229.89
380.98	229.84
381.36	229.79
381.73	229.73
382.11	229.73
382.49	229.69
382.87	229.62
383.25	229.58
383.62	229.76
384.00	229.68
384.38	229.64
384.76	229.64
385.13	229.64
385.51	229.61
385.89	229.55
386.27	229.53
386.64	229.53
387.02	229.49
387.40	229.44
387.78	229.44
388.15	229.41
388.53	229.39
388.91	229.36
389.29	229.33
389.66	229.33
390.04	229.28
390.42	229.29
390.79	229.29
391.17	229.27
391.55	229.05
391.92	229.05
392.30	229.07
392.68	229.02
393.05	229.01
393.43	229.02
393.81	229.05
394.18	229.03
394.56	229.04
394.94	229.09
395.31	229.10
395.69	229.16
396.06	229.21
396.44	229.25
396.82	229.29
397.19	229.41
397.57	229.44
397.95	229.52
398.32	229.52
398.70	229.59
399.07	229.69
399.45	229.75
399.82	229.82
400.20	229.88
400.58	229.98
400.95	229.99
401.33	230.12
401.70	230.35
402.08	230.50
402.45	230.61
402.83	230.77
403.20	230.94
403.58	231.07
403.95	231.28
404.33	231.51
404.71	231.71
405.08	232.02
405.46	232.27
405.83	232.54
406.21	232.84
406.58	233.16
406.96	233.48
407.33	233.87
407.70	234.30
408.08	234.87
408.45	235.38
408.83	235.93
409.20	236.43
409.58	236.89
409.95	237.50
410.33	238.19
410.70	238.84
411.08	239.59
411.45	240.39
411.82	241.20
412.20	242.14
412.57	243.24
412.95	244.13
413.32	245.26
413.69	246.43
414.07	247.69
414.44	249.07
414.82	250.48
415.19	252.11
415.56	253.78
415.94	255.50
416.31	257.43
416.68	259.38
417.06	261.65
417.43	263.76
417.81	266.20
418.18	268.70
418.55	271.42
418.93	274.26
419.30	277.22
419.67	280.37
420.04	283.61
420.42	287.02
420.79	290.92
421.16	294.86
421.54	298.87
421.91	303.06
422.28	307.39
422.66	312.06
423.03	316.50
423.40	321.18
423.77	326.19
424.15	331.31
424.52	336.60
424.89	342.33
425.26	348.04
425.64	353.32
426.01	359.24
426.38	365.32
426.75	371.54
427.13	377.91
427.50	384.58
427.87	391.47
428.24	398.41
428.61	405.08
428.99	412.27
429.36	420.21
429.73	427.78
430.10	435.31
430.47	443.07
430.85	451.09
431.22	459.60
431.59	468.32
431.96	476.82
432.33	486.29
432.70	495.31
433.08	506.02
433.45	516.13
433.82	526.06
434.19	537.14
434.56	548.05
434.93	558.61
435.30	569.11
435.68	581.03
436.05	592.68
436.42	604.32
436.79	614.98
437.16	626.45
437.53	638.79
437.90	651.18
438.27	663.19
438.64	676.16
439.01	688.00
439.38	698.94
439.75	709.50
440.13	721.53
440.50	732.98
440.87	742.05
441.24	751.96
441.61	762.89
441.98	770.96
442.35	780.46
442.72	790.22
443.09	799.53
443.46	805.68
443.83	810.25
444.20	814.02
444.57	819.57
444.94	822.94
445.31	826.30
445.68	829.13
446.05	831.28
446.42	830.99
446.79	830.45
447.16	829.98
447.53	829.64
447.90	826.14
448.27	822.66
448.64	817.32
449.01	813.73
449.37	806.20
449.74	799.42
450.11	790.65
450.48	780.96
450.85	771.20
451.22	762.68
451.59	754.41
451.96	747.03
452.33	736.20
452.70	726.51
453.07	714.82
453.43	703.23
453.80	691.96
454.17	681.11
454.54	671.03
454.91	659.61
455.28	648.79
455.65	638.52
456.02	627.77
456.38	619.10
456.75	607.94
457.12	598.93
457.49	589.79
457.86	581.23
458.23	573.73
458.59	565.38
458.96	556.88
459.33	549.38
459.70	541.74
460.07	535.87
460.43	528.96
460.80	522.49
461.17	516.81
461.54	510.72
461.91	505.06
462.27	499.31
462.64	494.61
463.01	489.21
463.38	483.85
463.74	479.01
464.11	474.70
464.48	470.82
464.85	466.60
465.21	463.36
465.58	459.76
465.95	455.65
466.32	452.38
466.68	449.16
467.05	445.94
467.42	442.76
467.78	439.39
468.15	436.29
468.52	434.03
468.88	431.04
469.25	428.31
469.62	426.13
469.98	423.72
470.35	421.59
470.72	419.68
471.08	417.67
471.45	416.01
471.82	414.14
472.18	412.21
472.55	410.97
472.92	409.41
473.28	408.17
473.65	406.86
474.02	405.64
474.38	404.61
474.75	403.99
475.11	403.13
475.48	402.72
475.85	402.30
476.21	402.05
476.58	401.87
476.94	402.06
477.31	402.10
477.67	402.23
478.04	402.52
478.41	402.94
478.77	403.56
479.14	403.92
479.50	404.72
479.87	405.72
480.23	406.72
480.60	407.68
480.96	408.64
481.33	410.06
481.69	411.49
482.06	412.90
482.42	414.22
482.79	415.85
483.15	417.73
483.52	419.85
483.88	421.90
484.25	424.09
484.61	426.40
484.98	428.84
485.34	431.61
485.71	434.50
486.07	437.57
486.44	440.59
486.80	443.99
487.17	447.45
487.53	451.23
487.90	455.20
488.26	459.53
488.62	464.08
488.99	468.66
489.35	473.47
489.72	478.68
490.08	484.11
490.44	489.64
490.81	495.37
491.17	501.24
491.54	507.51
491.90	513.91
492.26	520.68
492.63	527.82
492.99	535.24
493.36	542.90
493.72	551.01
494.08	559.26
494.45	567.93
494.81	576.97
495.17	586.23
495.54	596.00
495.90	606.19
496.26	616.64
496.63	627.31
496.99	638.37
497.35	649.84
497.72	661.68
498.08	673.98
498.44	686.55
498.80	699.90
499.17	713.55
499.53	727.69
499.89	742.25
500.26	756.89
500.62	771.79
500.98	787.43
501.34	803.18
501.71	819.70
502.07	836.50
502.43	853.79
502.79	871.16
503.16	888.96
503.52	906.97
503.88	925.42
504.24	944.30
504.60	963.49
504.97	983.10
505.33	1003.15
505.69	1024.20
506.05	1045.26
506.41	1066.16
506.78	1087.37
507.14	1109.40
507.50	1131.85
507.86	1154.83
508.22	1177.86
508.59	1200.72
508.95	1224.34
509.31	1248.47
509.67	1273.09
510.03	1297.57
510.39	1322.35
510.75	1347.30
511.12	1372.44
511.48	1397.48
511.84	1422.55
512.20	1447.96
512.56	1474.01
512.92	1499.79
513.28	1525.06
513.64	1550.84
514.00	1576.59
514.37	1602.63
514.73	1628.46
515.09	1653.65
515.45	1678.97
515.81	1704.31
516.17	1729.75
516.53	1754.58
516.89	1779.34
517.25	1804.23
517.61	1828.99
517.97	1853.89
518.33	1878.08
518.69	1902.11
519.05	1926.33
519.41	1950.52
519.77	1974.56
520.13	1998.09
520.49	2021.60
520.85	2045.24
521.21	2068.38
521.57	2092.10
521.93	2114.50
522.29	2137.21
522.65	2159.52
523.01	2181.79
523.37	2203.26
523.73	2224.99
524.09	2246.79
524.45	2268.41
524.81	2289.24
525.17	2309.69
525.53	2329.52
525.89	2349.87
526.25	2369.51
526.61	2388.02
526.97	2406.69
527.33	2424.99
527.68	2442.21
528.04	2458.84
528.40	2474.40
528.76	2490.49
529.12	2505.22
529.48	2520.69
529.84	2534.81
530.20	2549.80
530.56	2563.57
530.91	2577.60
531.27	2590.59
531.63	2602.52
531.99	2613.86
532.35	2624.17
532.71	2634.18
533.07	2644.58
533.42	2653.30
533.78	2662.80
534.14	2672.77
534.50	2681.26
534.86	2689.78
535.21	2696.32
535.57	2703.23
535.93	2710.55
536.29	2716.50
536.65	2722.44
537.00	2726.31
537.36	2730.63
537.72	2733.38
538.08	2735.95
538.44	2737.27
538.79	2739.21
539.15	2740.32
539.51	2741.00
539.87	2741.69
540.22	2740.81
540.58	2740.23
540.94	2739.52
541.29	2737.61
541.65	2734.12
542.01	2730.73
542.37	2726.33
542.72	2723.79
543.08	2719.58
543.44	2715.17
543.79	2709.23
544.15	2703.02
544.51	2697.68
544.87	2690.49
545.22	2682.78
545.58	2674.93
545.94	2667.73
546.29	2659.04
546.65	2650.19
547.01	2641.34
547.36	2632.14
547.72	2622.96
548.07	2612.38
548.43	2601.60
548.79	2589.88
549.14	2578.94
549.50	2567.84
549.86	2556.26
550.21	2543.13
550.57	2531.21
550.92	2517.09
551.28	2503.97
551.64	2491.50
551.99	2478.74
552.35	2465.96
552.70	2453.16
553.06	2440.79
553.41	2427.58
553.77	2413.74
554.13	2399.88
554.48	2385.50
554.84	2370.89
555.19	2356.82
555.55	2342.31
555.90	2327.75
556.26	2314.09
556.61	2299.42
556.97	2283.97
557.32	2268.94
557.68	2253.88
558.03	2238.42
558.39	2224.00
558.74	2209.70
559.10	2193.54
559.45	2177.96
559.81	2163.22
560.16	2148.22
560.52	2132.81
560.87	2118.08
561.23	2102.83
561.58	2087.98
561.94	2072.40
562.29	2056.95
562.64	2041.52
563.00	2026.41
563.35	2011.88
563.71	1996.96
564.06	1982.03
564.42	1967.52
564.77	1952.88
565.12	1938.76
565.48	1924.52
565.83	1910.45
566.19	1896.31
566.54	1882.49
566.89	1867.58
567.25	1852.27
567.60	1838.02
567.96	1823.25
568.31	1807.86
568.66	1793.25
569.02	1778.85
569.37	1764.67
569.72	1750.70
570.08	1736.76
570.43	1722.47
570.78	1707.59
571.14	1692.67
571.49	1678.22
571.84	1664.54
572.20	1649.72
572.55	1635.09
572.90	1620.09
573.26	1604.89
573.61	1589.66
573.96	1575.10
574.31	1561.01
574.67	1547.24
575.02	1532.55
575.37	1517.74
575.72	1503.16
576.08	1489.00
576.43	1474.69
576.78	1460.49
577.13	1446.33
577.49	1432.33
577.84	1418.36
578.19	1404.40
578.54	1390.62
578.90	1376.82
579.25	1362.44
579.60	1349.12
579.95	1335.90
580.30	1322.60
580.66	1309.46
581.01	1296.50
581.36	1283.28
581.71	1270.07
582.06	1256.79
582.42	1243.74
582.77	1231.13
583.12	1218.66
583.47	1206.08
583.82	1193.74
584.17	1181.31
584.53	1169.14
584.88	1157.04
585.23	1144.94
585.58	1133.16
585.93	1121.47
586.28	1110.27
586.63	1099.07
586.98	1087.72
587.34	1076.70
587.69	1065.55
588.04	1054.75
588.39	1044.03
588.74	1033.12
589.09	1022.61
589.44	1011.88
589.79	1001.68
590.14	991.58
590.49	981.58
590.84	971.79
591.19	962.05
591.54	952.35
591.89	942.25
592.25	932.42
592.60	922.52
592.95	912.89
593.30	903.20
593.65	893.46
594.00	884.04
594.35	875.32
594.70	866.07
595.05	857.54
595.40	848.79
595.75	839.75
596.10	831.34
596.45	822.81
596.80	814.51
597.15	806.27
597.50	798.09
597.85	790.18
598.19	782.26
598.54	774.29
598.89	766.54
599.24	759.22
599.59	751.93
599.94	745.14
600.29	738.14
600.64	731.30
600.99	724.34
601.34	717.59
601.69	710.30
602.04	703.61
602.39	697.00
602.74	690.51
603.08	684.28
603.43	678.05
603.78	671.88
604.13	665.89
604.48	659.83
604.83	653.92
605.18	648.10
605.53	642.37
605.87	636.65
606.22	631.11
606.57	625.50
606.92	619.79
607.27	614.19
607.62	608.87
607.96	603.64
608.31	598.76
608.66	593.77
609.01	589.00
609.36	584.32
609.70	579.50
610.05	574.71
610.40	570.04
610.75	565.37
611.10	560.99
611.44	556.47
611.79	552.15
612.14	547.85
612.49	543.47
612.83	539.28
613.18	535.26
613.53	531.30
613.88	527.37
614.22	523.68
614.57	519.87
614.92	516.10
615.27	512.40
615.61	508.75
615.96	505.16
616.31	501.59
616.65	498.06
617.00	494.64
617.35	491.32
617.70	488.05
618.04	484.87
618.39	481.68
618.74	478.70
619.08	475.60
619.43	472.57
619.78	469.63
620.12	466.73
620.47	464.02
620.82	461.26
621.16	458.57
621.51	456.00
621.85	453.48
622.20	451.01
622.55	448.55
622.89	446.14
623.24	443.83
623.59	441.53
623.93	439.33
624.28	437.22
624.62	435.31
624.97	433.37
625.32	431.30
625.66	429.21
626.01	427.15
626.35	425.24
626.70	423.31
627.04	421.53
627.39	419.67
627.73	417.82
628.08	416.12
628.43	414.47
628.77	412.72
629.12	411.10
629.46	409.46
629.81	407.94
630.15	406.32
630.50	404.74
630.84	403.26
631.19	401.83
631.53	400.43
631.88	398.80
632.22	397.30
632.57	396.09
632.91	394.86
633.26	393.72
633.60	392.52
633.95	391.36
634.29	390.10
634.64	388.96
634.98	387.68
635.32	386.50
635.67	385.40
636.01	384.36
636.36	383.31
636.70	382.41
637.05	381.34
637.39	380.39
637.73	379.45
638.08	378.57
638.42	377.65
638.77	376.65
639.11	375.61
639.45	374.60
639.80	373.55
640.14	372.59
640.49	371.59
640.83	370.61
641.17	369.67
641.52	368.74
641.86	367.83
642.20	367.10
642.55	366.19
642.89	365.30
643.23	364.41
643.58	363.63
643.92	362.67
644.26	361.80
644.61	361.02
644.95	360.19
645.29	359.29
645.64	358.39
645.98	357.55
646.32	356.84
646.66	356.10
647.01	355.32
647.35	354.58
647.69	353.81
648.04	353.11
648.38	352.36
648.72	351.66
649.06	350.98
649.41	350.23
649.75	349.52
650.09	348.89
650.43	348.22
650.78	347.49
651.12	346.83
651.46	346.18
651.80	345.52
652.14	344.87
652.49	344.28
652.83	343.63
653.17	343.00
653.51	342.38
653.85	341.81
654.20	341.21
654.54	340.55
654.88	339.92
655.22	339.29
655.56	338.59
655.90	337.93
656.25	337.26
656.59	336.60
656.93	336.04
657.27	335.48
657.61	334.86
657.95	334.32
658.29	333.74
658.64	333.21
658.98	332.58
659.32	331.97
659.66	331.39
660.00	330.84
660.34	330.32
660.68	329.74
661.02	329.10
661.36	328.53
661.70	327.99
662.05	327.45
662.39	326.95
662.73	326.54
663.07	326.12
663.41	325.63
663.75	325.10
664.09	324.56
664.43	323.94
664.77	323.44
665.11	322.82
665.45	322.27
665.79	321.71
666.13	321.18
666.47	320.65
666.81	320.07
667.15	319.47
667.49	318.93
667.83	318.48
668.17	318.00
668.51	317.50
668.85	317.05
669.19	316.68
669.53	316.15
669.87	315.63
670.21	315.13
670.55	314.64
670.89	314.29
671.23	313.82
671.57	313.40
671.91	312.98
672.25	312.59
672.58	312.23
672.92	311.75
673.26	311.34
673.60	310.92
673.94	310.54
674.28	310.17
674.62	309.77
674.96	309.29
675.30	308.88
675.64	308.44
675.97	307.96
676.31	307.42
676.65	306.93
676.99	306.54
677.33	306.03
677.67	305.58
678.01	305.02
678.34	304.57
678.68	304.11
679.02	303.61
679.36	303.13
679.70	302.61
680.04	302.18
680.37	301.74
680.71	301.30
681.05	300.86
681.39	300.39
681.73	299.90
682.06	299.41
682.40	298.96
682.74	298.56
683.08	298.21
683.42	297.75
683.75	297.36
684.09	296.82
684.43	296.36
684.77	295.88
685.10	295.45
685.44	295.06
685.78	294.63
686.12	294.21
686.45	293.76
686.79	293.29
687.13	292.86
687.46	292.39
687.80	291.94
688.14	291.43
688.48	290.98
688.81	290.52
689.15	290.16
689.49	289.69
689.82	289.19
690.16	288.64
690.50	288.19
690.83	287.72
691.17	287.26
691.51	286.81
691.84	286.43
692.18	285.98
692.52	285.47
692.85	285.01
693.19	284.62
693.52	284.18
693.86	283.75
694.20	283.30
694.53	282.86
694.87	282.38
695.21	281.91
695.54	281.48
695.88	281.02
696.21	280.51
696.55	280.06
696.88	279.62
697.22	279.17
697.56	278.76
697.89	278.26
698.23	277.85
698.56	277.40
698.90	276.96
699.23	276.51
699.57	276.10
699.90	275.67
700.24	275.18
700.58	274.78
700.91	274.40
701.25	274.15
701.58	273.82
701.92	273.50
702.25	273.16
702.59	272.76
702.92	272.37
703.26	271.99
703.59	271.59
703.93	271.34
704.26	270.97
704.60	270.57
704.93	270.19
705.26	269.78
705.60	269.44
705.93	269.01
706.27	268.68
706.60	268.34
706.94	268.01
707.27	267.62
707.61	267.24
707.94	266.84
708.27	266.31
708.61	265.85
708.94	265.42
709.28	265.04
709.61	264.65
709.94	264.31
710.28	263.99
710.61	263.69
710.95	263.20
711.28	263.00
711.61	262.68
711.95	262.40
712.28	262.07
712.61	261.71
712.95	261.49
713.28	261.23
713.61	260.88
713.95	260.52
714.28	260.22
714.61	259.91
714.95	259.60
715.28	259.28
715.61	259.00
715.95	258.73
716.28	258.42
716.61	258.16
716.95	257.83
717.28	257.52
717.61	257.21
717.94	256.93
718.28	256.52
718.61	256.22
718.94	255.91
719.27	255.65
719.61	255.41
719.94	255.11
720.27	254.76
720.60	254.51
720.94	254.26
721.27	254.01
721.60	253.79
721.93	253.53
722.27	253.34
722.60	253.12
722.93	252.85
723.26	252.63
723.59	252.37
723.93	252.17
724.26	251.96
724.59	251.73
724.92	251.52
725.25	251.36
725.59	251.15
725.92	250.97
726.25	250.75
726.58	250.54
726.91	250.30
727.24	250.11
727.57	249.88
727.91	249.63
728.24	249.45
728.57	249.23
728.90	249.06
729.23	248.81
729.56	248.69
729.89	248.51
730.22	248.30
730.55	248.12
730.89	247.93
731.22	247.73
731.55	247.53
731.88	247.35
732.21	247.12
732.54	246.92
732.87	246.73
733.20	246.56
733.53	246.38
733.86	246.21
734.19	246.02
734.52	245.89
734.85	245.87
735.18	245.67
735.51	245.55
735.84	245.40
736.17	245.29
736.50	245.03
736.83	245.09
737.16	244.93
737.49	244.78
737.82	244.60
738.15	244.47
738.48	244.32
738.81	244.15
739.14	243.99
739.47	243.82
739.80	243.65
740.13	243.52
740.46	243.35
740.79	243.19
741.12	243.04
741.45	242.85
741.78	242.60
742.11	242.50
742.44	242.30
742.77	242.17
743.10	241.99
743.43	241.85
743.75	241.51
744.08	241.64
744.41	241.50
744.74	241.35
745.07	241.19
745.40	241.10
745.73	241.05
746.06	240.93
746.39	240.83
746.71	240.70
747.04	240.54
747.37	240.41
747.70	240.31
748.03	240.18
748.36	240.10
748.68	239.98
749.01	239.82
749.34	239.70
749.67	239.58
750.00	239.49
750.33	239.50
750.65	239.41
750.98	239.04
751.31	238.93
751.64	238.84
751.97	238.83
752.29	238.69
752.62	238.50
752.95	238.38
753.28	238.25
753.60	238.14
753.93	238.10
754.26	238.00
754.59	237.84
754.91	237.72
755.24	237.60
755.57	237.56
755.90	237.45
756.22	237.35
756.55	237.21
756.88	237.07
757.20	236.85
757.53	236.70
757.86	236.61
758.19	236.53
758.51	236.42
758.84	236.23
759.17	236.13
759.49	236.05
759.82	236.05
760.15	235.98
760.47	235.89
760.80	235.76
761.13	235.71
761.45	235.64
761.78	235.57
762.11	235.50
762.43	235.33
762.76	235.26
763.08	235.20
763.41	235.15
763.74	235.09
764.06	235.02
764.39	234.96
764.71	234.88
765.04	234.79
765.37	234.71
765.69	234.65
766.02	234.58
766.34	234.50
766.67	234.36
767.00	234.31
767.32	234.34
767.65	234.38
767.97	234.29
768.30	234.24
768.62	234.18
768.95	234.10
769.27	234.03
769.60	233.99
769.92	233.90
770.25	233.82
770.57	233.72
770.90	233.67
771.22	233.60
771.55	233.56
771.87	233.52
772.20	233.45
772.52	233.55
772.85	233.70
773.17	233.66
773.50	233.60
773.82	233.51
774.15	233.36
774.47	233.20
774.80	233.14
775.12	233.08
775.45	233.03
775.77	233.00
776.09	232.98
776.42	232.93
776.74	232.95
777.07	232.91
777.39	232.87
777.72	232.81
778.04	232.80
778.36	232.75
778.69	232.71
779.01	232.68
779.33	232.50
779.66	232.25
779.98	232.20
780.31	232.18
780.63	232.24
780.95	232.25
781.28	232.21
781.60	232.17
781.92	232.14
782.25	232.11
782.57	232.07
782.89	232.01
783.22	231.97
783.54	231.89
783.86	231.86
784.19	231.83
784.51	231.86
784.83	231.79
785.16	231.76
785.48	231.73
785.80	231.71
786.12	231.69
786.45	231.66
786.77	231.65
787.09	231.61
787.42	231.50
787.74	231.47
788.06	231.46
788.38	231.42
788.71	231.37
789.03	231.34
789.35	231.33
789.67	231.28
789.99	231.25
790.32	231.22
790.64	231.21
790.96	231.35
791.28	231.26
791.61	231.22
791.93	231.21
792.25	231.17
792.57	231.27
792.89	231.22
793.21	231.20
793.54	231.14
793.86	231.10
794.18	231.09
794.50	231.04
794.82	231.01
795.14	231.03
795.47	231.04
795.79	231.03
796.11	230.97
796.43	230.95
796.75	230.94
797.07	230.92
797.39	230.88
797.71	230.71
798.04	230.70
798.36	230.70
798.68	230.67
799.00	230.66
799.32	230.55
799.64	230.56
799.96	230.54
800.28	230.56
800.60	230.54
800.92	230.53
801.24	230.49
801.56	230.50
801.89	230.46
802.21	230.45
802.53	230.40
802.85	230.43
803.17	230.50
803.49	230.45
803.81	230.43
804.13	230.39
804.45	230.36
804.77	230.36
805.09	230.34
805.41	230.30
805.73	230.25
806.05	230.18
806.37	230.16
806.69	230.13
807.01	230.10
807.33	230.09
807.65	230.01
807.97	230.09
808.28	230.06
808.60	230.05
808.92	230.01
809.24	230.11
809.56	230.06
809.88	230.00
810.20	229.99
810.52	230.01
810.84	229.99
811.16	229.95
811.48	229.94
811.80	229.98
812.12	229.98
812.43	230.02
812.75	230.01
813.07	229.99
813.39	229.98
813.71	229.94
814.03	229.92
814.35	229.92
814.67	229.83
814.98	229.79
815.30	229.77
815.62	229.74
815.94	229.61
816.26	229.61
816.58	229.56
816.89	229.56
817.21	229.52
817.53	229.52
817.85	229.54
818.17	229.52
818.48	229.43
818.80	229.45
