SpectraSuite Data File
++++++++++++++++++++++++++++++++++++
Date: Tue Oct 06 17:35:05 EDT 2015
User: lab3
Dark Spectrum Present: No
Reference Spectrum Present: No
Number of Sampled Component Spectra: 1
Spectrometers: USB2E7196
Integration Time (usec): 66000 (USB2E7196)
Spectra Averaged: 1000 (USB2E7196)
Boxcar Smoothing: 10 (USB2E7196)
Correct for Electrical Dark: No (USB2E7196)
Strobe/Lamp Enabled: No (USB2E7196)
Correct for Detector Non-linearity: No (USB2E7196)
Correct for Stray Light: No (USB2E7196)
Number of Pixels in Processed Spectrum: 2048
>>>>>Begin Processed Spectral Data<<<<<
339.09	0.00
339.48	215.04
339.86	216.74
340.24	218.08
340.63	219.34
341.01	223.73
341.39	222.31
341.78	223.91
342.16	224.91
342.54	225.18
342.93	213.72
343.31	224.52
343.69	225.06
344.07	225.53
344.46	225.97
344.84	226.39
345.22	226.58
345.60	226.84
345.99	227.04
346.37	227.19
346.75	227.31
347.13	227.40
347.52	227.48
347.90	227.60
348.28	227.64
348.66	227.71
349.05	227.70
349.43	227.77
349.81	227.85
350.19	227.92
350.57	228.00
350.96	228.09
351.34	228.18
351.72	228.29
352.10	228.41
352.48	228.47
352.87	228.51
353.25	228.58
353.63	228.64
354.01	228.69
354.39	228.76
354.77	228.84
355.15	228.95
355.54	228.99
355.92	229.01
356.30	229.09
356.68	229.27
357.06	229.35
357.44	229.38
357.82	229.44
358.20	229.65
358.58	229.70
358.97	229.76
359.35	229.85
359.73	229.93
360.11	229.98
360.49	230.05
360.87	230.09
361.25	230.16
361.63	230.26
362.01	230.31
362.39	230.33
362.77	230.37
363.15	230.39
363.53	230.43
363.91	230.46
364.29	230.49
364.67	230.35
365.05	230.37
365.43	230.40
365.81	230.44
366.19	230.38
366.57	230.46
366.95	230.46
367.33	230.42
367.71	230.41
368.09	230.43
368.47	230.42
368.85	230.42
369.23	230.45
369.61	230.37
369.99	230.42
370.37	230.43
370.75	230.56
371.13	230.53
371.51	230.49
371.89	230.47
372.27	230.45
372.65	230.43
373.03	230.39
373.41	230.34
373.78	230.29
374.16	230.16
374.54	230.07
374.92	230.02
375.30	229.99
375.68	229.92
376.06	229.89
376.44	229.84
376.82	229.79
377.19	229.74
377.57	229.68
377.95	229.58
378.33	229.53
378.71	229.31
379.09	229.26
379.47	229.24
379.84	229.17
380.22	229.12
380.60	229.06
380.98	229.02
381.36	228.96
381.73	228.90
382.11	228.89
382.49	228.86
382.87	228.80
383.25	228.75
383.62	228.92
384.00	228.84
384.38	228.81
384.76	228.81
385.13	228.83
385.51	228.81
385.89	228.75
386.27	228.72
386.64	228.72
387.02	228.67
387.40	228.62
387.78	228.61
388.15	228.59
388.53	228.55
388.91	228.52
389.29	228.51
389.66	228.51
390.04	228.47
390.42	228.47
390.79	228.46
391.17	228.45
391.55	228.25
391.92	228.25
392.30	228.27
392.68	228.22
393.05	228.21
393.43	228.21
393.81	228.23
394.18	228.22
394.56	228.23
394.94	228.29
395.31	228.30
395.69	228.36
396.06	228.41
396.44	228.46
396.82	228.48
397.19	228.60
397.57	228.62
397.95	228.70
398.32	228.70
398.70	228.76
399.07	228.86
399.45	228.93
399.82	228.99
400.20	229.04
400.58	229.14
400.95	229.15
401.33	229.27
401.70	229.51
402.08	229.65
402.45	229.77
402.83	229.93
403.20	230.09
403.58	230.23
403.95	230.43
404.33	230.64
404.71	230.86
405.08	231.18
405.46	231.42
405.83	231.70
406.21	232.00
406.58	232.32
406.96	232.64
407.33	233.01
407.70	233.43
408.08	234.01
408.45	234.51
408.83	235.06
409.20	235.55
409.58	236.01
409.95	236.62
410.33	237.29
410.70	237.94
411.08	238.70
411.45	239.50
411.82	240.31
412.20	241.24
412.57	242.33
412.95	243.20
413.32	244.35
413.69	245.52
414.07	246.77
414.44	248.13
414.82	249.51
415.19	251.14
415.56	252.80
415.94	254.53
416.31	256.47
416.68	258.42
417.06	260.68
417.43	262.79
417.81	265.23
418.18	267.71
418.55	270.40
418.93	273.22
419.30	276.18
419.67	279.31
420.04	282.54
420.42	285.89
420.79	289.77
421.16	293.67
421.54	297.64
421.91	301.80
422.28	306.13
422.66	310.78
423.03	315.21
423.40	319.83
423.77	324.80
424.15	329.89
424.52	335.15
424.89	340.86
425.26	346.53
425.64	351.79
426.01	357.70
426.38	363.73
426.75	369.95
427.13	376.30
427.50	382.95
427.87	389.85
428.24	396.81
428.61	403.51
428.99	410.71
429.36	418.61
429.73	426.14
430.10	433.66
430.47	441.36
430.85	449.32
431.22	457.82
431.59	466.52
431.96	475.01
432.33	484.46
432.70	493.44
433.08	504.06
433.45	514.10
433.82	524.02
434.19	535.13
434.56	546.04
434.93	556.65
435.30	567.17
435.68	579.11
436.05	590.79
436.42	602.46
436.79	613.17
437.16	624.76
437.53	637.16
437.90	649.59
438.27	661.77
438.64	674.92
439.01	686.85
439.38	697.82
439.75	708.43
440.13	720.49
440.50	731.99
440.87	741.20
441.24	751.27
441.61	762.31
441.98	770.48
442.35	780.19
442.72	790.07
443.09	799.42
443.46	805.52
443.83	810.14
444.20	813.98
444.57	819.52
444.94	822.82
445.31	826.20
445.68	829.11
446.05	831.25
446.42	830.91
446.79	830.32
447.16	829.83
447.53	829.43
447.90	825.81
448.27	822.36
448.64	816.98
449.01	813.23
449.37	805.52
449.74	798.53
450.11	789.50
450.48	779.58
450.85	769.68
451.22	761.13
451.59	752.73
451.96	745.11
452.33	734.11
452.70	724.33
453.07	712.50
453.43	700.66
453.80	689.15
454.17	678.12
454.54	667.93
454.91	656.42
455.28	645.54
455.65	635.32
456.02	624.48
456.38	615.74
456.75	604.59
457.12	595.62
457.49	586.55
457.86	577.97
458.23	570.42
458.59	562.08
458.96	553.54
459.33	546.02
459.70	538.38
460.07	532.54
460.43	525.64
460.80	519.22
461.17	513.64
461.54	507.62
461.91	501.96
462.27	496.23
462.64	491.53
463.01	486.16
463.38	480.74
463.74	475.85
464.11	471.52
464.48	467.62
464.85	463.40
465.21	460.16
465.58	456.58
465.95	452.49
466.32	449.25
466.68	446.08
467.05	442.87
467.42	439.77
467.78	436.45
468.15	433.40
468.52	431.14
468.88	428.16
469.25	425.43
469.62	423.28
469.98	420.93
470.35	418.82
470.72	416.93
471.08	415.03
471.45	413.43
471.82	411.63
472.18	409.75
472.55	408.54
472.92	407.03
473.28	405.85
473.65	404.58
474.02	403.37
474.38	402.34
474.75	401.76
475.11	400.93
475.48	400.53
475.85	400.11
476.21	399.87
476.58	399.70
476.94	399.88
477.31	399.94
477.67	400.02
478.04	400.35
478.41	400.79
478.77	401.41
479.14	401.80
479.50	402.60
479.87	403.62
480.23	404.59
480.60	405.55
480.96	406.50
481.33	407.95
481.69	409.37
482.06	410.78
482.42	412.07
482.79	413.68
483.15	415.54
483.52	417.65
483.88	419.65
484.25	421.80
484.61	424.04
484.98	426.47
485.34	429.19
485.71	432.03
486.07	435.07
486.44	438.08
486.80	441.47
487.17	444.93
487.53	448.66
487.90	452.58
488.26	456.88
488.62	461.39
488.99	465.93
489.35	470.65
489.72	475.73
490.08	481.09
490.44	486.54
490.81	492.24
491.17	498.10
491.54	504.37
491.90	510.77
492.26	517.63
492.63	524.82
492.99	532.31
493.36	539.96
493.72	548.01
494.08	556.25
494.45	564.86
494.81	573.86
495.17	583.11
495.54	592.89
495.90	603.08
496.26	613.45
496.63	624.10
496.99	635.16
497.35	646.74
497.72	658.59
498.08	670.76
498.44	683.25
498.80	696.45
499.17	709.90
499.53	723.79
499.89	738.14
500.26	752.62
500.62	767.52
500.98	783.21
501.34	798.92
501.71	815.44
502.07	832.23
502.43	849.50
502.79	866.97
503.16	884.88
503.52	902.97
503.88	921.50
504.24	940.44
504.60	959.66
504.97	979.44
505.33	999.65
505.69	1020.91
506.05	1042.39
506.41	1063.69
506.78	1085.15
507.14	1107.21
507.50	1129.70
507.86	1152.57
508.22	1175.65
508.59	1198.57
508.95	1222.50
509.31	1246.89
509.67	1271.87
510.03	1296.75
510.39	1321.53
510.75	1346.39
511.12	1371.62
511.48	1396.98
511.84	1422.26
512.20	1447.84
512.56	1474.47
512.92	1500.92
513.28	1526.71
513.64	1552.81
514.00	1579.30
514.37	1606.06
514.73	1632.77
515.09	1658.79
515.45	1685.10
515.81	1711.54
516.17	1737.68
516.53	1763.16
516.89	1788.40
517.25	1813.98
517.61	1839.30
517.97	1865.24
518.33	1890.48
518.69	1915.63
519.05	1941.08
519.41	1966.77
519.77	1992.35
520.13	2016.43
520.49	2040.54
520.85	2065.01
521.21	2088.92
521.57	2113.10
521.93	2136.23
522.29	2159.88
522.65	2183.31
523.01	2206.46
523.37	2228.89
523.73	2252.04
524.09	2274.91
524.45	2297.43
524.81	2319.16
525.17	2340.77
525.53	2361.56
525.89	2382.78
526.25	2403.58
526.61	2422.83
526.97	2442.01
527.33	2461.04
527.68	2479.78
528.04	2498.16
528.40	2515.21
528.76	2532.48
529.12	2549.25
529.48	2566.58
529.84	2581.26
530.20	2596.31
530.56	2610.52
530.91	2624.87
531.27	2638.63
531.63	2651.44
531.99	2663.92
532.35	2676.18
532.71	2687.92
533.07	2700.08
533.42	2710.39
533.78	2720.81
534.14	2732.17
534.50	2742.42
534.86	2753.18
535.21	2761.94
535.57	2770.40
535.93	2778.85
536.29	2785.45
536.65	2791.90
537.00	2796.94
537.36	2803.27
537.72	2808.65
538.08	2813.48
538.44	2817.26
538.79	2820.77
539.15	2822.94
539.51	2824.48
539.87	2824.85
540.22	2823.77
540.58	2822.81
540.94	2822.70
541.29	2821.45
541.65	2818.97
542.01	2816.07
542.37	2811.58
542.72	2808.53
543.08	2804.02
543.44	2799.64
543.79	2794.86
544.15	2789.40
544.51	2784.08
544.87	2777.74
545.22	2770.58
545.58	2763.31
545.94	2756.17
546.29	2747.68
546.65	2739.46
547.01	2731.35
547.36	2723.62
547.72	2716.09
548.07	2706.93
548.43	2696.66
548.79	2686.25
549.14	2676.07
549.50	2666.08
549.86	2655.21
550.21	2642.91
550.57	2631.64
550.92	2618.65
551.28	2606.18
551.64	2593.95
551.99	2581.41
552.35	2568.58
552.70	2555.62
553.06	2543.06
553.41	2530.12
553.77	2516.87
554.13	2503.70
554.48	2489.53
554.84	2474.62
555.19	2460.18
555.55	2445.67
555.90	2431.62
556.26	2417.84
556.61	2403.08
556.97	2387.31
557.32	2372.02
557.68	2357.02
558.03	2341.72
558.39	2327.44
558.74	2313.72
559.10	2298.21
559.45	2283.05
559.81	2268.47
560.16	2253.59
560.52	2238.51
560.87	2223.63
561.23	2208.51
561.58	2193.86
561.94	2178.79
562.29	2163.33
562.64	2148.01
563.00	2132.84
563.35	2117.78
563.71	2102.43
564.06	2087.15
564.42	2072.52
564.77	2057.94
565.12	2043.00
565.48	2027.93
565.83	2013.08
566.19	1998.19
566.54	1983.61
566.89	1968.49
567.25	1953.32
567.60	1938.92
567.96	1923.88
568.31	1907.72
568.66	1892.44
569.02	1877.67
569.37	1863.42
569.72	1849.74
570.08	1835.61
570.43	1820.95
570.78	1806.20
571.14	1791.20
571.49	1776.35
571.84	1761.72
572.20	1746.03
572.55	1731.20
572.90	1716.42
573.26	1701.58
573.61	1686.22
573.96	1671.35
574.31	1656.34
574.67	1641.21
575.02	1625.82
575.37	1610.49
575.72	1595.84
576.08	1580.91
576.43	1565.46
576.78	1550.19
577.13	1535.16
577.49	1520.38
577.84	1506.02
578.19	1491.16
578.54	1476.47
578.90	1461.67
579.25	1446.76
579.60	1432.91
579.95	1418.86
580.30	1404.75
580.66	1390.43
581.01	1376.16
581.36	1362.05
581.71	1348.64
582.06	1335.21
582.42	1321.66
582.77	1308.56
583.12	1295.69
583.47	1282.77
583.82	1270.01
584.17	1256.88
584.53	1243.79
584.88	1230.99
585.23	1218.09
585.58	1205.56
585.93	1192.94
586.28	1181.25
586.63	1169.40
586.98	1157.25
587.34	1145.43
587.69	1133.44
588.04	1121.80
588.39	1110.43
588.74	1098.66
589.09	1087.06
589.44	1075.24
589.79	1063.93
590.14	1052.67
590.49	1041.49
590.84	1030.54
591.19	1019.87
591.54	1009.29
591.89	998.33
592.25	987.69
592.60	976.97
592.95	966.40
593.30	956.20
593.65	945.73
594.00	935.52
594.35	926.17
594.70	916.15
595.05	906.73
595.40	897.07
595.75	887.32
596.10	878.15
596.45	869.00
596.80	860.16
597.15	851.33
597.50	842.52
597.85	833.91
598.19	825.32
598.54	816.69
598.89	808.58
599.24	800.85
599.59	792.95
599.94	785.64
600.29	778.35
600.64	770.88
600.99	763.29
601.34	755.96
601.69	748.16
602.04	741.19
602.39	734.11
602.74	727.26
603.08	720.54
603.43	713.81
603.78	707.02
604.13	700.31
604.48	693.64
604.83	687.19
605.18	680.84
605.53	674.62
605.87	668.38
606.22	662.21
606.57	655.98
606.92	649.70
607.27	643.42
607.62	637.33
607.96	631.50
608.31	626.07
608.66	620.61
609.01	615.35
609.36	610.08
609.70	604.75
610.05	599.47
610.40	594.32
610.75	589.16
611.10	584.23
611.44	579.31
611.79	574.50
612.14	569.61
612.49	564.78
612.83	560.21
613.18	555.67
613.53	551.13
613.88	546.75
614.22	542.68
614.57	538.53
614.92	534.48
615.27	530.54
615.61	526.51
615.96	522.50
616.31	518.51
616.65	514.67
617.00	510.93
617.35	507.21
617.70	503.51
618.04	499.96
618.39	496.47
618.74	493.21
619.08	489.90
619.43	486.72
619.78	483.46
620.12	480.18
620.47	477.15
620.82	474.17
621.16	471.19
621.51	468.27
621.85	465.37
622.20	462.51
622.55	459.63
622.89	456.81
623.24	454.17
623.59	451.56
623.93	449.00
624.28	446.59
624.62	444.39
624.97	442.21
625.32	439.92
625.66	437.57
626.01	435.19
626.35	432.98
626.70	430.68
627.04	428.59
627.39	426.48
627.73	424.42
628.08	422.43
628.43	420.42
628.77	418.34
629.12	416.38
629.46	414.53
629.81	412.80
630.15	410.98
630.50	409.16
630.84	407.41
631.19	405.70
631.53	404.05
631.88	402.21
632.22	400.49
632.57	399.01
632.91	397.52
633.26	396.10
633.60	394.68
633.95	393.35
634.29	391.88
634.64	390.49
634.98	388.95
635.32	387.58
635.67	386.39
636.01	385.16
636.36	383.98
636.70	382.87
637.05	381.60
637.39	380.47
637.73	379.33
638.08	378.25
638.42	377.21
638.77	376.05
639.11	374.87
639.45	373.69
639.80	372.47
640.14	371.33
640.49	370.19
640.83	369.04
641.17	367.93
641.52	366.87
641.86	365.82
642.20	364.95
642.55	363.87
642.89	362.81
643.23	361.83
643.58	360.95
643.92	359.91
644.26	358.96
644.61	358.05
644.95	357.11
645.29	356.11
645.64	355.06
645.98	354.12
646.32	353.31
646.66	352.44
647.01	351.60
647.35	350.86
647.69	350.05
648.04	349.33
648.38	348.54
648.72	347.78
649.06	347.00
649.41	346.18
649.75	345.41
650.09	344.68
650.43	343.91
650.78	343.13
651.12	342.40
651.46	341.67
651.80	340.94
652.14	340.27
652.49	339.65
652.83	338.98
653.17	338.27
653.51	337.58
653.85	336.99
654.20	336.35
654.54	335.60
654.88	334.89
655.22	334.26
655.56	333.58
655.90	332.94
656.25	332.31
656.59	331.70
656.93	331.14
657.27	330.60
657.61	329.99
657.95	329.43
658.29	328.85
658.64	328.30
658.98	327.68
659.32	327.07
659.66	326.52
660.00	325.99
660.34	325.46
660.68	324.89
661.02	324.25
661.36	323.65
661.70	323.11
662.05	322.60
662.39	322.06
662.73	321.61
663.07	321.19
663.41	320.74
663.75	320.22
664.09	319.72
664.43	319.09
664.77	318.59
665.11	318.01
665.45	317.49
665.79	316.98
666.13	316.46
666.47	315.93
666.81	315.38
667.15	314.80
667.49	314.34
667.83	313.93
668.17	313.48
668.51	313.08
668.85	312.68
669.19	312.31
669.53	311.78
669.87	311.24
670.21	310.68
670.55	310.16
670.89	309.77
671.23	309.32
671.57	308.93
671.91	308.58
672.25	308.25
672.58	307.93
672.92	307.48
673.26	307.15
673.60	306.79
673.94	306.40
674.28	306.07
674.62	305.69
674.96	305.24
675.30	304.87
675.64	304.44
675.97	303.99
676.31	303.52
676.65	303.10
676.99	302.79
677.33	302.38
677.67	302.01
678.01	301.53
678.34	301.12
678.68	300.75
679.02	300.29
679.36	299.83
679.70	299.37
680.04	299.01
680.37	298.59
680.71	298.21
681.05	297.86
681.39	297.44
681.73	296.99
682.06	296.58
682.40	296.18
682.74	295.82
683.08	295.52
683.42	295.14
683.75	294.81
684.09	294.32
684.43	293.93
684.77	293.51
685.10	293.13
685.44	292.73
685.78	292.32
686.12	291.92
686.45	291.52
686.79	291.09
687.13	290.67
687.46	290.24
687.80	289.83
688.14	289.36
688.48	288.94
688.81	288.52
689.15	288.18
689.49	287.74
689.82	287.31
690.16	286.78
690.50	286.34
690.83	285.90
691.17	285.46
691.51	285.04
691.84	284.67
692.18	284.23
692.52	283.79
692.85	283.37
693.19	283.01
693.52	282.60
693.86	282.17
694.20	281.76
694.53	281.35
694.87	280.90
695.21	280.49
695.54	280.07
695.88	279.62
696.21	279.14
696.55	278.71
696.88	278.27
697.22	277.86
697.56	277.47
697.89	277.03
698.23	276.64
698.56	276.22
698.90	275.82
699.23	275.39
699.57	275.00
699.90	274.60
700.24	274.15
700.58	273.77
700.91	273.44
701.25	273.21
701.58	272.91
701.92	272.58
702.25	272.21
702.59	271.82
702.92	271.46
703.26	271.08
703.59	270.70
703.93	270.48
704.26	270.14
704.60	269.76
704.93	269.39
705.26	269.00
705.60	268.68
705.93	268.27
706.27	267.99
706.60	267.67
706.94	267.38
707.27	266.99
707.61	266.62
707.94	266.22
708.27	265.69
708.61	265.25
708.94	264.85
709.28	264.49
709.61	264.13
709.94	263.81
710.28	263.50
710.61	263.19
710.95	262.70
711.28	262.47
711.61	262.12
711.95	261.84
712.28	261.50
712.61	261.15
712.95	260.92
713.28	260.65
713.61	260.29
713.95	259.92
714.28	259.63
714.61	259.30
714.95	259.00
715.28	258.70
715.61	258.42
715.95	258.14
716.28	257.84
716.61	257.59
716.95	257.28
717.28	256.98
717.61	256.70
717.94	256.45
718.28	256.05
718.61	255.78
718.94	255.49
719.27	255.24
719.61	255.00
719.94	254.70
720.27	254.35
720.60	254.10
720.94	253.84
721.27	253.61
721.60	253.39
721.93	253.14
722.27	252.93
722.60	252.70
722.93	252.44
723.26	252.22
723.59	251.95
723.93	251.73
724.26	251.53
724.59	251.28
724.92	251.06
725.25	250.90
725.59	250.68
725.92	250.47
726.25	250.24
726.58	250.03
726.91	249.80
727.24	249.61
727.57	249.39
727.91	249.15
728.24	248.97
728.57	248.74
728.90	248.55
729.23	248.29
729.56	248.18
729.89	247.98
730.22	247.77
730.55	247.57
730.89	247.39
731.22	247.18
731.55	247.00
731.88	246.81
732.21	246.58
732.54	246.38
732.87	246.20
733.20	246.04
733.53	245.85
733.86	245.69
734.19	245.50
734.52	245.36
734.85	245.32
735.18	245.13
735.51	245.01
735.84	244.86
736.17	244.76
736.50	244.50
736.83	244.55
737.16	244.39
737.49	244.24
737.82	244.06
738.15	243.91
738.48	243.76
738.81	243.59
739.14	243.42
739.47	243.25
739.80	243.08
740.13	242.95
740.46	242.77
740.79	242.59
741.12	242.42
741.45	242.24
741.78	241.99
742.11	241.89
742.44	241.69
742.77	241.56
743.10	241.38
743.43	241.23
743.75	240.91
744.08	241.05
744.41	240.89
744.74	240.75
745.07	240.59
745.40	240.49
745.73	240.43
746.06	240.31
746.39	240.21
746.71	240.07
747.04	239.91
747.37	239.79
747.70	239.69
748.03	239.59
748.36	239.49
748.68	239.36
749.01	239.19
749.34	239.09
749.67	238.96
750.00	238.87
750.33	238.89
750.65	238.79
750.98	238.40
751.31	238.30
751.64	238.21
751.97	238.21
752.29	238.08
752.62	237.89
752.95	237.78
753.28	237.64
753.60	237.54
753.93	237.47
754.26	237.38
754.59	237.22
754.91	237.11
755.24	236.98
755.57	236.89
755.90	236.78
756.22	236.65
756.55	236.53
756.88	236.39
757.20	236.18
757.53	236.02
757.86	235.92
758.19	235.84
758.51	235.73
758.84	235.52
759.17	235.41
759.49	235.33
759.82	235.34
760.15	235.27
760.47	235.17
760.80	235.04
761.13	234.97
761.45	234.90
761.78	234.82
762.11	234.73
762.43	234.63
762.76	234.54
763.08	234.49
763.41	234.42
763.74	234.36
764.06	234.28
764.39	234.21
764.71	234.13
765.04	234.03
765.37	233.95
765.69	233.89
766.02	233.82
766.34	233.73
766.67	233.58
767.00	233.54
767.32	233.58
767.65	233.63
767.97	233.55
768.30	233.50
768.62	233.42
768.95	233.34
769.27	233.28
769.60	233.25
769.92	233.16
770.25	233.07
770.57	232.98
770.90	232.93
771.22	232.86
771.55	232.82
771.87	232.78
772.20	232.72
772.52	232.82
772.85	232.98
773.17	232.94
773.50	232.88
773.82	232.80
774.15	232.66
774.47	232.49
774.80	232.43
775.12	232.38
775.45	232.33
775.77	232.29
776.09	232.26
776.42	232.21
776.74	232.22
777.07	232.16
777.39	232.13
777.72	232.07
778.04	232.05
778.36	231.99
778.69	231.95
779.01	231.93
779.33	231.74
779.66	231.49
779.98	231.44
780.31	231.42
780.63	231.46
780.95	231.46
781.28	231.43
781.60	231.36
781.92	231.32
782.25	231.30
782.57	231.27
782.89	231.23
783.22	231.19
783.54	231.12
783.86	231.10
784.19	231.06
784.51	231.08
784.83	231.03
785.16	230.99
785.48	230.97
785.80	230.93
786.12	230.91
786.45	230.88
786.77	230.86
787.09	230.81
787.42	230.71
787.74	230.67
788.06	230.65
788.38	230.64
788.71	230.60
789.03	230.57
789.35	230.56
789.67	230.51
789.99	230.49
790.32	230.44
790.64	230.44
790.96	230.58
791.28	230.50
791.61	230.45
791.93	230.44
792.25	230.40
792.57	230.50
792.89	230.45
793.21	230.44
793.54	230.41
793.86	230.37
794.18	230.36
794.50	230.30
794.82	230.28
795.14	230.27
795.47	230.29
795.79	230.26
796.11	230.20
796.43	230.17
796.75	230.16
797.07	230.15
797.39	230.11
797.71	229.94
798.04	229.93
798.36	229.94
798.68	229.91
799.00	229.90
799.32	229.78
799.64	229.79
799.96	229.77
800.28	229.79
800.60	229.77
800.92	229.75
801.24	229.73
801.56	229.73
801.89	229.70
802.21	229.68
802.53	229.62
802.85	229.65
803.17	229.71
803.49	229.65
803.81	229.61
804.13	229.59
804.45	229.55
804.77	229.54
805.09	229.51
805.41	229.48
805.73	229.43
806.05	229.37
806.37	229.34
806.69	229.30
807.01	229.26
807.33	229.25
807.65	229.16
807.97	229.22
808.28	229.17
808.60	229.15
808.92	229.11
809.24	229.22
809.56	229.16
809.88	229.09
810.20	229.09
810.52	229.12
810.84	229.08
811.16	229.05
811.48	229.01
811.80	229.07
812.12	229.06
812.43	229.08
812.75	229.07
813.07	229.04
813.39	229.04
813.71	229.00
814.03	228.97
814.35	228.98
814.67	228.88
814.98	228.86
815.30	228.84
815.62	228.80
815.94	228.67
816.26	228.69
816.58	228.64
816.89	228.64
817.21	228.58
817.53	228.59
817.85	228.59
818.17	228.59
818.48	228.50
818.80	228.52
