SpectraSuite Data File
++++++++++++++++++++++++++++++++++++
Date: Tue Oct 06 11:43:05 EDT 2015
User: lab3
Dark Spectrum Present: No
Reference Spectrum Present: No
Number of Sampled Component Spectra: 1
Spectrometers: USB2E7196
Integration Time (usec): 66000 (USB2E7196)
Spectra Averaged: 1000 (USB2E7196)
Boxcar Smoothing: 10 (USB2E7196)
Correct for Electrical Dark: No (USB2E7196)
Strobe/Lamp Enabled: No (USB2E7196)
Correct for Detector Non-linearity: No (USB2E7196)
Correct for Stray Light: No (USB2E7196)
Number of Pixels in Processed Spectrum: 2048
>>>>>Begin Processed Spectral Data<<<<<
339.09	0.00
339.48	216.64
339.86	217.69
340.24	219.48
340.63	220.75
341.01	224.89
341.39	223.49
341.78	225.05
342.16	226.23
342.54	226.46
342.93	214.97
343.31	225.83
343.69	226.36
344.07	226.83
344.46	227.27
344.84	227.67
345.22	227.87
345.60	228.14
345.99	228.34
346.37	228.48
346.75	228.60
347.13	228.69
347.52	228.79
347.90	228.92
348.28	228.96
348.66	229.05
349.05	229.03
349.43	229.09
349.81	229.17
350.19	229.23
350.57	229.31
350.96	229.41
351.34	229.51
351.72	229.62
352.10	229.74
352.48	229.82
352.87	229.85
353.25	229.92
353.63	229.97
354.01	230.03
354.39	230.10
354.77	230.18
355.15	230.29
355.54	230.31
355.92	230.32
356.30	230.39
356.68	230.56
357.06	230.65
357.44	230.69
357.82	230.73
358.20	230.95
358.58	231.01
358.97	231.08
359.35	231.17
359.73	231.27
360.11	231.31
360.49	231.37
360.87	231.43
361.25	231.49
361.63	231.61
362.01	231.66
362.39	231.70
362.77	231.75
363.15	231.78
363.53	231.81
363.91	231.85
364.29	231.88
364.67	231.73
365.05	231.75
365.43	231.80
365.81	231.84
366.19	231.79
366.57	231.86
366.95	231.85
367.33	231.81
367.71	231.79
368.09	231.82
368.47	231.81
368.85	231.80
369.23	231.83
369.61	231.75
369.99	231.79
370.37	231.79
370.75	231.91
371.13	231.86
371.51	231.81
371.89	231.80
372.27	231.78
372.65	231.77
373.03	231.72
373.41	231.68
373.78	231.63
374.16	231.49
374.54	231.40
374.92	231.35
375.30	231.31
375.68	231.24
376.06	231.20
376.44	231.15
376.82	231.12
377.19	231.06
377.57	231.01
377.95	230.90
378.33	230.84
378.71	230.64
379.09	230.59
379.47	230.57
379.84	230.50
380.22	230.42
380.60	230.34
380.98	230.31
381.36	230.26
381.73	230.19
382.11	230.20
382.49	230.16
382.87	230.10
383.25	230.06
383.62	230.22
384.00	230.13
384.38	230.12
384.76	230.11
385.13	230.12
385.51	230.09
385.89	230.05
386.27	230.02
386.64	230.01
387.02	229.97
387.40	229.92
387.78	229.91
388.15	229.91
388.53	229.88
388.91	229.84
389.29	229.81
389.66	229.82
390.04	229.77
390.42	229.77
390.79	229.78
391.17	229.76
391.55	229.56
391.92	229.57
392.30	229.57
392.68	229.53
393.05	229.52
393.43	229.54
393.81	229.55
394.18	229.53
394.56	229.56
394.94	229.60
395.31	229.61
395.69	229.68
396.06	229.73
396.44	229.78
396.82	229.80
397.19	229.93
397.57	229.95
397.95	230.02
398.32	230.02
398.70	230.08
399.07	230.18
399.45	230.24
399.82	230.31
400.20	230.37
400.58	230.46
400.95	230.47
401.33	230.59
401.70	230.80
402.08	230.95
402.45	231.07
402.83	231.26
403.20	231.43
403.58	231.56
403.95	231.77
404.33	231.98
404.71	232.21
405.08	232.51
405.46	232.75
405.83	233.03
406.21	233.32
406.58	233.66
406.96	233.97
407.33	234.34
407.70	234.78
408.08	235.35
408.45	235.87
408.83	236.41
409.20	236.91
409.58	237.36
409.95	238.00
410.33	238.68
410.70	239.32
411.08	240.06
411.45	240.87
411.82	241.68
412.20	242.61
412.57	243.71
412.95	244.59
413.32	245.75
413.69	246.94
414.07	248.21
414.44	249.58
414.82	250.99
415.19	252.64
415.56	254.30
415.94	256.03
416.31	257.96
416.68	259.93
417.06	262.19
417.43	264.33
417.81	266.77
418.18	269.27
418.55	272.00
418.93	274.84
419.30	277.82
419.67	280.96
420.04	284.23
420.42	287.62
420.79	291.54
421.16	295.51
421.54	299.52
421.91	303.71
422.28	308.06
422.66	312.78
423.03	317.23
423.40	321.94
423.77	326.97
424.15	332.11
424.52	337.43
424.89	343.20
425.26	348.91
425.64	354.24
426.01	360.20
426.38	366.29
426.75	372.58
427.13	378.97
427.50	385.69
427.87	392.63
428.24	399.62
428.61	406.33
428.99	413.53
429.36	421.51
429.73	429.15
430.10	436.74
430.47	444.50
430.85	452.58
431.22	461.14
431.59	469.91
431.96	478.48
432.33	488.03
432.70	497.09
433.08	507.92
433.45	518.06
433.82	528.04
434.19	539.21
434.56	550.16
434.93	560.79
435.30	571.36
435.68	583.37
436.05	595.10
436.42	606.85
436.79	617.59
437.16	629.14
437.53	641.56
437.90	654.04
438.27	666.18
438.64	679.23
439.01	691.15
439.38	702.17
439.75	712.78
440.13	724.83
440.50	736.37
440.87	745.46
441.24	755.44
441.61	766.46
441.98	774.53
442.35	784.11
442.72	793.91
443.09	803.26
443.46	809.39
443.83	813.98
444.20	817.73
444.57	823.29
444.94	826.65
445.31	829.98
445.68	832.77
446.05	834.85
446.42	834.49
446.79	833.88
447.16	833.34
447.53	832.94
447.90	829.38
448.27	825.82
448.64	820.34
449.01	816.70
449.37	809.03
449.74	802.19
450.11	793.29
450.48	783.50
450.85	773.61
451.22	765.01
451.59	756.63
451.96	749.13
452.33	738.23
452.70	728.47
453.07	716.66
453.43	704.95
453.80	693.58
454.17	682.67
454.54	672.53
454.91	661.04
455.28	650.15
455.65	639.82
456.02	629.04
456.38	620.34
456.75	609.12
457.12	600.06
457.49	590.88
457.86	582.29
458.23	574.71
458.59	566.37
458.96	557.83
459.33	550.35
459.70	542.68
460.07	536.78
460.43	529.86
460.80	523.37
461.17	517.69
461.54	511.60
461.91	505.92
462.27	500.14
462.64	495.43
463.01	490.04
463.38	484.68
463.74	479.80
464.11	475.50
464.48	471.59
464.85	467.37
465.21	464.12
465.58	460.51
465.95	456.42
466.32	453.11
466.68	449.87
467.05	446.62
467.42	443.46
467.78	440.08
468.15	436.98
468.52	434.70
468.88	431.70
469.25	428.96
469.62	426.76
469.98	424.39
470.35	422.24
470.72	420.32
471.08	418.31
471.45	416.63
471.82	414.75
472.18	412.83
472.55	411.58
472.92	410.03
473.28	408.80
473.65	407.48
474.02	406.28
474.38	405.24
474.75	404.61
475.11	403.75
475.48	403.33
475.85	402.87
476.21	402.64
476.58	402.49
476.94	402.69
477.31	402.74
477.67	402.86
478.04	403.16
478.41	403.60
478.77	404.20
479.14	404.59
479.50	405.38
479.87	406.37
480.23	407.38
480.60	408.36
480.96	409.33
481.33	410.77
481.69	412.21
482.06	413.62
482.42	414.94
482.79	416.57
483.15	418.48
483.52	420.61
483.88	422.66
484.25	424.86
484.61	427.16
484.98	429.61
485.34	432.39
485.71	435.28
486.07	438.35
486.44	441.41
486.80	444.80
487.17	448.28
487.53	452.10
487.90	456.06
488.26	460.40
488.62	464.97
488.99	469.57
489.35	474.42
489.72	479.65
490.08	485.12
490.44	490.66
490.81	496.40
491.17	502.31
491.54	508.62
491.90	515.06
492.26	521.90
492.63	529.08
492.99	536.51
493.36	544.24
493.72	552.36
494.08	560.65
494.45	569.36
494.81	578.46
495.17	587.76
495.54	597.58
495.90	607.81
496.26	618.30
496.63	629.03
496.99	640.15
497.35	651.67
497.72	663.57
498.08	675.90
498.44	688.54
498.80	701.95
499.17	715.67
499.53	729.87
499.89	744.51
500.26	759.18
500.62	774.17
500.98	789.84
501.34	805.70
501.71	822.29
502.07	839.18
502.43	856.49
502.79	873.92
503.16	891.81
503.52	909.91
503.88	928.43
504.24	947.36
504.60	966.60
504.97	986.29
505.33	1006.43
505.69	1027.56
506.05	1048.70
506.41	1069.67
506.78	1090.95
507.14	1113.04
507.50	1135.55
507.86	1158.63
508.22	1181.76
508.59	1204.71
508.95	1228.41
509.31	1252.62
509.67	1277.34
510.03	1301.94
510.39	1326.78
510.75	1351.79
511.12	1377.01
511.48	1402.07
511.84	1427.26
512.20	1452.75
512.56	1478.85
512.92	1504.73
513.28	1530.08
513.64	1555.92
514.00	1581.73
514.37	1607.85
514.73	1633.79
515.09	1659.08
515.45	1684.48
515.81	1709.88
516.17	1735.40
516.53	1760.23
516.89	1785.05
517.25	1809.99
517.61	1834.82
517.97	1859.82
518.33	1884.10
518.69	1908.17
519.05	1932.51
519.41	1956.71
519.77	1980.81
520.13	2004.40
520.49	2027.95
520.85	2051.71
521.21	2074.87
521.57	2098.66
521.93	2121.07
522.29	2143.80
522.65	2166.15
523.01	2188.46
523.37	2210.00
523.73	2231.83
524.09	2253.75
524.45	2275.44
524.81	2296.31
525.17	2316.79
525.53	2336.70
525.89	2357.10
526.25	2376.75
526.61	2395.33
526.97	2414.08
527.33	2432.42
527.68	2449.65
528.04	2466.28
528.40	2481.77
528.76	2497.84
529.12	2512.60
529.48	2528.12
529.84	2542.29
530.20	2557.19
530.56	2570.92
530.91	2584.91
531.27	2597.88
531.63	2609.82
531.99	2621.12
532.35	2631.41
532.71	2641.38
533.07	2651.71
533.42	2660.38
533.78	2669.93
534.14	2679.83
534.50	2688.28
534.86	2696.80
535.21	2703.32
535.57	2710.27
535.93	2717.55
536.29	2723.54
536.65	2729.39
537.00	2733.21
537.36	2737.47
537.72	2740.25
538.08	2742.79
538.44	2744.12
538.79	2745.99
539.15	2747.02
539.51	2747.62
539.87	2748.20
540.22	2747.23
540.58	2746.63
540.94	2745.89
541.29	2743.89
541.65	2740.36
542.01	2736.89
542.37	2732.44
542.72	2729.86
543.08	2725.53
543.44	2721.12
543.79	2715.11
544.15	2708.91
544.51	2703.53
544.87	2696.26
545.22	2688.45
545.58	2680.60
545.94	2673.30
546.29	2664.48
546.65	2655.58
547.01	2646.75
547.36	2637.58
547.72	2628.39
548.07	2617.67
548.43	2606.79
548.79	2594.99
549.14	2584.05
549.50	2572.90
549.86	2561.24
550.21	2548.08
550.57	2536.05
550.92	2521.85
551.28	2508.80
551.64	2496.24
551.99	2483.47
552.35	2470.61
552.70	2457.82
553.06	2445.35
553.41	2432.07
553.77	2418.20
554.13	2404.30
554.48	2389.85
554.84	2375.17
555.19	2361.09
555.55	2346.60
555.90	2332.02
556.26	2318.31
556.61	2303.58
556.97	2288.07
557.32	2273.01
557.68	2257.91
558.03	2242.45
558.39	2227.99
558.74	2213.51
559.10	2197.31
559.45	2181.64
559.81	2166.96
560.16	2151.88
560.52	2136.52
560.87	2121.79
561.23	2106.56
561.58	2091.66
561.94	2076.05
562.29	2060.60
562.64	2045.11
563.00	2029.89
563.35	2015.36
563.71	2000.40
564.06	1985.42
564.42	1970.90
564.77	1956.22
565.12	1942.07
565.48	1927.80
565.83	1913.74
566.19	1899.64
566.54	1885.80
566.89	1870.87
567.25	1855.49
567.60	1841.17
567.96	1826.30
568.31	1810.83
568.66	1796.17
569.02	1781.74
569.37	1767.55
569.72	1753.50
570.08	1739.55
570.43	1725.32
570.78	1710.34
571.14	1695.40
571.49	1680.92
571.84	1667.20
572.20	1652.32
572.55	1637.66
572.90	1622.63
573.26	1607.45
573.61	1592.21
573.96	1577.62
574.31	1563.54
574.67	1549.70
575.02	1535.04
575.37	1520.26
575.72	1505.67
576.08	1491.52
576.43	1477.14
576.78	1462.84
577.13	1448.71
577.49	1434.72
577.84	1420.75
578.19	1406.80
578.54	1393.02
578.90	1379.23
579.25	1364.86
579.60	1351.51
579.95	1338.28
580.30	1324.92
580.66	1311.68
581.01	1298.62
581.36	1285.34
581.71	1272.08
582.06	1258.79
582.42	1245.67
582.77	1233.02
583.12	1220.52
583.47	1207.94
583.82	1195.59
584.17	1183.17
584.53	1170.96
584.88	1158.82
585.23	1146.64
585.58	1134.84
585.93	1123.12
586.28	1111.89
586.63	1100.65
586.98	1089.31
587.34	1078.24
587.69	1067.10
588.04	1056.30
588.39	1045.63
588.74	1034.69
589.09	1024.14
589.44	1013.40
589.79	1003.19
590.14	993.01
590.49	982.99
590.84	973.17
591.19	963.39
591.54	953.67
591.89	943.55
592.25	933.66
592.60	923.78
592.95	914.11
593.30	904.42
593.65	894.65
594.00	885.21
594.35	876.50
594.70	867.27
595.05	858.72
595.40	849.90
595.75	840.83
596.10	832.45
596.45	823.90
596.80	815.59
597.15	807.34
597.50	799.22
597.85	791.30
598.19	783.33
598.54	775.36
598.89	767.57
599.24	760.20
599.59	752.92
599.94	746.10
600.29	739.10
600.64	732.20
600.99	725.24
601.34	718.45
601.69	711.17
602.04	704.46
602.39	697.81
602.74	691.35
603.08	685.11
603.43	678.83
603.78	672.67
604.13	666.67
604.48	660.62
604.83	654.67
605.18	648.87
605.53	643.15
605.87	637.41
606.22	631.89
606.57	626.28
606.92	620.57
607.27	614.95
607.62	609.59
607.96	604.35
608.31	599.43
608.66	594.45
609.01	589.64
609.36	584.97
609.70	580.19
610.05	575.42
610.40	570.76
610.75	566.11
611.10	561.69
611.44	557.19
611.79	552.86
612.14	548.59
612.49	544.19
612.83	540.01
613.18	535.98
613.53	532.03
613.88	528.12
614.22	524.41
614.57	520.58
614.92	516.84
615.27	513.15
615.61	509.52
615.96	505.93
616.31	502.33
616.65	498.77
617.00	495.34
617.35	492.00
617.70	488.71
618.04	485.52
618.39	482.36
618.74	479.36
619.08	476.24
619.43	473.18
619.78	470.23
620.12	467.33
620.47	464.62
620.82	461.84
621.16	459.16
621.51	456.61
621.85	454.13
622.20	451.67
622.55	449.21
622.89	446.78
623.24	444.49
623.59	442.21
623.93	440.01
624.28	437.90
624.62	435.99
624.97	434.05
625.32	431.97
625.66	429.86
626.01	427.80
626.35	425.92
626.70	423.98
627.04	422.18
627.39	420.32
627.73	418.50
628.08	416.78
628.43	415.09
628.77	413.33
629.12	411.67
629.46	410.03
629.81	408.52
630.15	406.89
630.50	405.28
630.84	403.80
631.19	402.36
631.53	400.93
631.88	399.30
632.22	397.77
632.57	396.54
632.91	395.32
633.26	394.15
633.60	392.90
633.95	391.75
634.29	390.51
634.64	389.36
634.98	388.07
635.32	386.88
635.67	385.79
636.01	384.73
636.36	383.68
636.70	382.77
637.05	381.67
637.39	380.74
637.73	379.81
638.08	378.90
638.42	377.98
638.77	376.99
639.11	375.96
639.45	374.97
639.80	373.94
640.14	372.97
640.49	371.98
640.83	371.02
641.17	370.07
641.52	369.13
641.86	368.24
642.20	367.50
642.55	366.59
642.89	365.70
643.23	364.80
643.58	364.02
643.92	363.07
644.26	362.22
644.61	361.43
644.95	360.61
645.29	359.72
645.64	358.82
645.98	357.98
646.32	357.26
646.66	356.48
647.01	355.69
647.35	354.95
647.69	354.16
648.04	353.46
648.38	352.71
648.72	352.02
649.06	351.32
649.41	350.55
649.75	349.86
650.09	349.21
650.43	348.54
650.78	347.81
651.12	347.15
651.46	346.50
651.80	345.83
652.14	345.16
652.49	344.54
652.83	343.90
653.17	343.28
653.51	342.66
653.85	342.11
654.20	341.51
654.54	340.85
654.88	340.24
655.22	339.61
655.56	338.92
655.90	338.25
656.25	337.58
656.59	336.93
656.93	336.34
657.27	335.82
657.61	335.22
657.95	334.68
658.29	334.11
658.64	333.57
658.98	332.96
659.32	332.34
659.66	331.76
660.00	331.22
660.34	330.68
660.68	330.10
661.02	329.47
661.36	328.87
661.70	328.32
662.05	327.77
662.39	327.27
662.73	326.85
663.07	326.44
663.41	325.95
663.75	325.42
664.09	324.89
664.43	324.26
664.77	323.74
665.11	323.11
665.45	322.54
665.79	321.99
666.13	321.46
666.47	320.94
666.81	320.37
667.15	319.76
667.49	319.25
667.83	318.79
668.17	318.29
668.51	317.85
668.85	317.39
669.19	317.03
669.53	316.51
669.87	315.98
670.21	315.47
670.55	314.99
670.89	314.63
671.23	314.18
671.57	313.76
671.91	313.36
672.25	312.98
672.58	312.62
672.92	312.16
673.26	311.76
673.60	311.35
673.94	310.94
674.28	310.59
674.62	310.20
674.96	309.72
675.30	309.31
675.64	308.85
675.97	308.38
676.31	307.83
676.65	307.36
676.99	306.98
677.33	306.49
677.67	306.03
678.01	305.46
678.34	305.00
678.68	304.54
679.02	304.05
679.36	303.58
679.70	303.07
680.04	302.63
680.37	302.18
680.71	301.73
681.05	301.30
681.39	300.83
681.73	300.33
682.06	299.84
682.40	299.40
682.74	299.02
683.08	298.68
683.42	298.24
683.75	297.82
684.09	297.29
684.43	296.82
684.77	296.35
685.10	295.93
685.44	295.53
685.78	295.09
686.12	294.66
686.45	294.22
686.79	293.76
687.13	293.33
687.46	292.84
687.80	292.38
688.14	291.86
688.48	291.42
688.81	290.96
689.15	290.60
689.49	290.14
689.82	289.65
690.16	289.09
690.50	288.61
690.83	288.15
691.17	287.68
691.51	287.24
691.84	286.85
692.18	286.42
692.52	285.92
692.85	285.46
693.19	285.07
693.52	284.65
693.86	284.21
694.20	283.76
694.53	283.32
694.87	282.84
695.21	282.39
695.54	281.95
695.88	281.50
696.21	280.99
696.55	280.54
696.88	280.08
697.22	279.65
697.56	279.23
697.89	278.75
698.23	278.35
698.56	277.89
698.90	277.46
699.23	276.99
699.57	276.58
699.90	276.14
700.24	275.64
700.58	275.22
700.91	274.85
701.25	274.59
701.58	274.28
701.92	273.96
702.25	273.61
702.59	273.20
702.92	272.81
703.26	272.42
703.59	272.04
703.93	271.80
704.26	271.44
704.60	271.04
704.93	270.65
705.26	270.24
705.60	269.90
705.93	269.47
706.27	269.17
706.60	268.83
706.94	268.51
707.27	268.12
707.61	267.73
707.94	267.33
708.27	266.81
708.61	266.36
708.94	265.94
709.28	265.58
709.61	265.22
709.94	264.88
710.28	264.56
710.61	264.26
710.95	263.79
711.28	263.59
711.61	263.26
711.95	262.99
712.28	262.67
712.61	262.32
712.95	262.09
713.28	261.82
713.61	261.47
713.95	261.13
714.28	260.85
714.61	260.54
714.95	260.24
715.28	259.92
715.61	259.63
715.95	259.36
716.28	259.05
716.61	258.78
716.95	258.46
717.28	258.15
717.61	257.82
717.94	257.53
718.28	257.11
718.61	256.82
718.94	256.50
719.27	256.24
719.61	256.00
719.94	255.70
720.27	255.35
720.60	255.08
720.94	254.82
721.27	254.56
721.60	254.34
721.93	254.07
722.27	253.86
722.60	253.64
722.93	253.38
723.26	253.15
723.59	252.89
723.93	252.68
724.26	252.47
724.59	252.24
724.92	252.03
725.25	251.87
725.59	251.66
725.92	251.48
726.25	251.26
726.58	251.04
726.91	250.81
727.24	250.61
727.57	250.39
727.91	250.15
728.24	249.97
728.57	249.74
728.90	249.57
729.23	249.32
729.56	249.21
729.89	249.01
730.22	248.81
730.55	248.62
730.89	248.42
731.22	248.21
731.55	248.01
731.88	247.82
732.21	247.61
732.54	247.41
732.87	247.22
733.20	247.04
733.53	246.86
733.86	246.70
734.19	246.51
734.52	246.37
734.85	246.33
735.18	246.14
735.51	246.04
735.84	245.87
736.17	245.75
736.50	245.48
736.83	245.53
737.16	245.37
737.49	245.22
737.82	245.05
738.15	244.92
738.48	244.77
738.81	244.60
739.14	244.42
739.47	244.25
739.80	244.09
740.13	243.95
740.46	243.78
740.79	243.61
741.12	243.45
741.45	243.28
741.78	243.04
742.11	242.95
742.44	242.75
742.77	242.61
743.10	242.45
743.43	242.31
743.75	241.98
744.08	242.11
744.41	241.96
744.74	241.80
745.07	241.63
745.40	241.55
745.73	241.49
746.06	241.38
746.39	241.29
746.71	241.15
747.04	241.01
747.37	240.88
747.70	240.78
748.03	240.67
748.36	240.56
748.68	240.44
749.01	240.27
749.34	240.16
749.67	240.06
750.00	239.97
750.33	239.99
750.65	239.90
750.98	239.54
751.31	239.43
751.64	239.34
751.97	239.33
752.29	239.19
752.62	238.99
752.95	238.86
753.28	238.72
753.60	238.61
753.93	238.55
754.26	238.47
754.59	238.30
754.91	238.17
755.24	238.05
755.57	238.03
755.90	237.92
756.22	237.81
756.55	237.68
756.88	237.53
757.20	237.32
757.53	237.17
757.86	237.06
758.19	236.98
758.51	236.88
758.84	236.71
759.17	236.60
759.49	236.54
759.82	236.55
760.15	236.49
760.47	236.41
760.80	236.28
761.13	236.21
761.45	236.14
761.78	236.08
762.11	236.01
762.43	235.83
762.76	235.75
763.08	235.69
763.41	235.63
763.74	235.56
764.06	235.48
764.39	235.41
764.71	235.33
765.04	235.23
765.37	235.14
765.69	235.07
766.02	234.99
766.34	234.91
766.67	234.76
767.00	234.72
767.32	234.74
767.65	234.78
767.97	234.69
768.30	234.64
768.62	234.58
768.95	234.48
769.27	234.42
769.60	234.38
769.92	234.28
770.25	234.20
770.57	234.11
770.90	234.05
771.22	233.98
771.55	233.93
771.87	233.90
772.20	233.86
772.52	233.94
772.85	234.11
773.17	234.07
773.50	234.01
773.82	233.94
774.15	233.80
774.47	233.65
774.80	233.59
775.12	233.54
775.45	233.49
775.77	233.46
776.09	233.42
776.42	233.39
776.74	233.41
777.07	233.36
777.39	233.34
777.72	233.28
778.04	233.26
778.36	233.21
778.69	233.17
779.01	233.15
779.33	232.96
779.66	232.72
779.98	232.66
780.31	232.63
780.63	232.66
780.95	232.65
781.28	232.61
781.60	232.57
781.92	232.53
782.25	232.50
782.57	232.46
782.89	232.42
783.22	232.36
783.54	232.29
783.86	232.28
784.19	232.23
784.51	232.26
784.83	232.22
785.16	232.19
785.48	232.16
785.80	232.12
786.12	232.10
786.45	232.08
786.77	232.07
787.09	232.03
787.42	231.93
787.74	231.90
788.06	231.88
788.38	231.85
788.71	231.82
789.03	231.80
789.35	231.79
789.67	231.75
789.99	231.74
790.32	231.69
790.64	231.68
790.96	231.82
791.28	231.72
791.61	231.70
791.93	231.68
792.25	231.65
792.57	231.75
792.89	231.70
793.21	231.69
793.54	231.65
793.86	231.60
794.18	231.59
794.50	231.53
794.82	231.51
795.14	231.52
795.47	231.52
795.79	231.49
796.11	231.43
796.43	231.41
796.75	231.38
797.07	231.38
797.39	231.34
797.71	231.18
798.04	231.18
798.36	231.16
798.68	231.14
799.00	231.12
799.32	231.01
799.64	231.02
799.96	231.00
800.28	231.01
800.60	230.99
800.92	230.99
801.24	230.98
801.56	230.97
801.89	230.93
802.21	230.92
802.53	230.88
802.85	230.91
803.17	230.97
803.49	230.92
803.81	230.88
804.13	230.86
804.45	230.82
804.77	230.81
805.09	230.80
805.41	230.78
805.73	230.72
806.05	230.66
806.37	230.63
806.69	230.59
807.01	230.57
807.33	230.56
807.65	230.48
807.97	230.53
808.28	230.50
808.60	230.49
808.92	230.44
809.24	230.53
809.56	230.48
809.88	230.39
810.20	230.40
810.52	230.42
810.84	230.39
811.16	230.36
811.48	230.33
811.80	230.38
812.12	230.35
812.43	230.39
812.75	230.39
813.07	230.36
813.39	230.37
813.71	230.33
814.03	230.31
814.35	230.31
814.67	230.22
814.98	230.20
815.30	230.18
815.62	230.15
815.94	230.02
816.26	230.02
816.58	229.98
816.89	229.97
817.21	229.92
817.53	229.92
817.85	229.93
818.17	229.91
818.48	229.82
818.80	229.86
