SpectraSuite Data File
++++++++++++++++++++++++++++++++++++
Date: Wed Oct 07 08:41:46 EDT 2015
User: lab3
Dark Spectrum Present: No
Reference Spectrum Present: No
Number of Sampled Component Spectra: 1
Spectrometers: USB2E7196
Integration Time (usec): 66000 (USB2E7196)
Spectra Averaged: 10000 (USB2E7196)
Boxcar Smoothing: 10 (USB2E7196)
Correct for Electrical Dark: No (USB2E7196)
Strobe/Lamp Enabled: No (USB2E7196)
Correct for Detector Non-linearity: No (USB2E7196)
Correct for Stray Light: No (USB2E7196)
Number of Pixels in Processed Spectrum: 2048
>>>>>Begin Processed Spectral Data<<<<<
339.09	0.00
339.48	212.34
339.86	213.74
340.24	215.13
340.63	216.58
341.01	220.75
341.39	219.29
341.78	220.82
342.16	222.11
342.54	222.33
342.93	210.95
343.31	221.61
343.69	222.15
344.07	222.61
344.46	223.06
344.84	223.47
345.22	223.67
345.60	223.94
345.99	224.15
346.37	224.30
346.75	224.42
347.13	224.51
347.52	224.61
347.90	224.74
348.28	224.79
348.66	224.89
349.05	224.88
349.43	224.95
349.81	225.03
350.19	225.10
350.57	225.18
350.96	225.28
351.34	225.40
351.72	225.51
352.10	225.63
352.48	225.70
352.87	225.75
353.25	225.82
353.63	225.88
354.01	225.93
354.39	226.01
354.77	226.10
355.15	226.22
355.54	226.26
355.92	226.26
356.30	226.34
356.68	226.52
357.06	226.60
357.44	226.64
357.82	226.70
358.20	226.92
358.58	226.98
358.97	227.05
359.35	227.14
359.73	227.24
360.11	227.29
360.49	227.36
360.87	227.41
361.25	227.49
361.63	227.59
362.01	227.65
362.39	227.68
362.77	227.73
363.15	227.75
363.53	227.79
363.91	227.83
364.29	227.86
364.67	227.71
365.05	227.74
365.43	227.78
365.81	227.82
366.19	227.77
366.57	227.86
366.95	227.86
367.33	227.82
367.71	227.81
368.09	227.84
368.47	227.84
368.85	227.83
369.23	227.85
369.61	227.77
369.99	227.82
370.37	227.82
370.75	227.94
371.13	227.91
371.51	227.86
371.89	227.85
372.27	227.84
372.65	227.82
373.03	227.78
373.41	227.73
373.78	227.68
374.16	227.55
374.54	227.45
374.92	227.40
375.30	227.37
375.68	227.29
376.06	227.25
376.44	227.19
376.82	227.15
377.19	227.10
377.57	227.05
377.95	226.94
378.33	226.88
378.71	226.67
379.09	226.64
379.47	226.62
379.84	226.55
380.22	226.48
380.60	226.41
380.98	226.36
381.36	226.31
381.73	226.24
382.11	226.24
382.49	226.21
382.87	226.15
383.25	226.10
383.62	226.29
384.00	226.21
384.38	226.18
384.76	226.19
385.13	226.20
385.51	226.17
385.89	226.12
386.27	226.10
386.64	226.09
387.02	226.04
387.40	226.00
387.78	225.98
388.15	225.97
388.53	225.94
388.91	225.92
389.29	225.89
389.66	225.90
390.04	225.85
390.42	225.86
390.79	225.86
391.17	225.85
391.55	225.63
391.92	225.63
392.30	225.64
392.68	225.60
393.05	225.58
393.43	225.59
393.81	225.61
394.18	225.60
394.56	225.61
394.94	225.67
395.31	225.67
395.69	225.75
396.06	225.80
396.44	225.85
396.82	225.87
397.19	226.01
397.57	226.04
397.95	226.11
398.32	226.11
398.70	226.18
399.07	226.29
399.45	226.35
399.82	226.43
400.20	226.49
400.58	226.58
400.95	226.60
401.33	226.73
401.70	226.97
402.08	227.12
402.45	227.26
402.83	227.44
403.20	227.62
403.58	227.76
403.95	227.97
404.33	228.21
404.71	228.43
405.08	228.75
405.46	229.02
405.83	229.31
406.21	229.62
406.58	229.96
406.96	230.30
407.33	230.70
407.70	231.14
408.08	231.74
408.45	232.27
408.83	232.85
409.20	233.38
409.58	233.86
409.95	234.52
410.33	235.24
410.70	235.92
411.08	236.71
411.45	237.56
411.82	238.43
412.20	239.40
412.57	240.57
412.95	241.50
413.32	242.70
413.69	243.94
414.07	245.26
414.44	246.69
414.82	248.15
415.19	249.86
415.56	251.61
415.94	253.43
416.31	255.46
416.68	257.50
417.06	259.86
417.43	262.07
417.81	264.62
418.18	267.21
418.55	270.04
418.93	272.99
419.30	276.06
419.67	279.32
420.04	282.68
420.42	286.19
420.79	290.23
421.16	294.32
421.54	298.44
421.91	302.77
422.28	307.26
422.66	312.09
423.03	316.68
423.40	321.50
423.77	326.64
424.15	331.92
424.52	337.39
424.89	343.32
425.26	349.20
425.64	354.66
426.01	360.78
426.38	367.04
426.75	373.48
427.13	380.07
427.50	386.97
427.87	394.13
428.24	401.34
428.61	408.25
428.99	415.71
429.36	423.92
429.73	431.75
430.10	439.58
430.47	447.58
430.85	455.87
431.22	464.66
431.59	473.70
431.96	482.55
432.33	492.37
432.70	501.72
433.08	512.78
433.45	523.21
433.82	533.54
434.19	545.13
434.56	556.54
434.93	567.59
435.30	578.57
435.68	591.01
436.05	603.21
436.42	615.43
436.79	626.60
437.16	638.76
437.53	651.71
437.90	664.67
438.27	677.40
438.64	691.20
439.01	703.75
439.38	715.27
439.75	726.40
440.13	739.11
440.50	751.18
440.87	760.87
441.24	771.53
441.61	783.20
441.98	791.87
442.35	802.14
442.72	812.61
443.09	822.58
443.46	829.12
443.83	834.11
444.20	838.30
444.57	844.24
444.94	847.84
445.31	851.58
445.68	854.83
446.05	857.34
446.42	857.20
446.79	856.78
447.16	856.46
447.53	856.21
447.90	852.60
448.27	849.23
448.64	843.80
449.01	840.11
449.37	832.19
449.74	825.00
450.11	815.70
450.48	805.46
450.85	795.15
451.22	786.34
451.59	777.63
451.96	769.73
452.33	758.31
452.70	748.10
453.07	735.74
453.43	723.38
453.80	711.30
454.17	699.71
454.54	689.04
454.91	676.99
455.28	665.59
455.65	654.83
456.02	643.39
456.38	634.18
456.75	622.41
457.12	612.94
457.49	603.38
457.86	594.31
458.23	586.32
458.59	577.53
458.96	568.50
459.33	560.58
459.70	552.51
460.07	546.36
460.43	539.13
460.80	532.36
461.17	526.48
461.54	520.14
461.91	514.17
462.27	508.10
462.64	503.15
463.01	497.52
463.38	491.84
463.74	486.72
464.11	482.16
464.48	478.04
464.85	473.59
465.21	470.20
465.58	466.42
465.95	462.14
466.32	458.76
466.68	455.45
467.05	452.11
467.42	448.85
467.78	445.37
468.15	442.15
468.52	439.80
468.88	436.65
469.25	433.78
469.62	431.51
469.98	429.06
470.35	426.87
470.72	424.87
471.08	422.86
471.45	421.18
471.82	419.29
472.18	417.32
472.55	416.04
472.92	414.45
473.28	413.20
473.65	411.85
474.02	410.55
474.38	409.44
474.75	408.77
475.11	407.86
475.48	407.43
475.85	406.94
476.21	406.63
476.58	406.41
476.94	406.54
477.31	406.54
477.67	406.56
478.04	406.82
478.41	407.21
478.77	407.78
479.14	408.11
479.50	408.86
479.87	409.86
480.23	410.83
480.60	411.73
480.96	412.64
481.33	414.08
481.69	415.48
482.06	416.86
482.42	418.11
482.79	419.68
483.15	421.54
483.52	423.67
483.88	425.67
484.25	427.81
484.61	430.06
484.98	432.49
485.34	435.23
485.71	438.06
486.07	441.14
486.44	444.16
486.80	447.56
487.17	451.04
487.53	454.81
487.90	458.76
488.26	463.09
488.62	467.66
488.99	472.22
489.35	477.01
489.72	482.18
490.08	487.61
490.44	493.15
490.81	498.90
491.17	504.83
491.54	511.21
491.90	517.71
492.26	524.68
492.63	532.00
492.99	539.66
493.36	547.49
493.72	555.70
494.08	564.14
494.45	573.01
494.81	582.28
495.17	591.78
495.54	601.83
495.90	612.32
496.26	623.00
496.63	634.01
496.99	645.40
497.35	657.34
497.72	669.60
498.08	682.18
498.44	695.15
498.80	708.80
499.17	722.74
499.53	737.15
499.89	752.00
500.26	767.12
500.62	782.59
500.98	799.00
501.34	815.44
501.71	832.61
502.07	850.15
502.43	868.16
502.79	886.48
503.16	905.26
503.52	924.26
503.88	943.69
504.24	963.61
504.60	983.81
504.97	1004.61
505.33	1025.97
505.69	1048.45
506.05	1071.14
506.41	1093.87
506.78	1116.76
507.14	1140.15
507.50	1164.08
507.86	1188.38
508.22	1212.92
508.59	1237.31
508.95	1262.77
509.31	1288.82
509.67	1315.54
510.03	1342.29
510.39	1368.84
510.75	1395.48
511.12	1422.39
511.48	1449.74
511.84	1477.02
512.20	1504.60
512.56	1533.35
512.92	1561.96
513.28	1589.82
513.64	1618.13
514.00	1646.84
514.37	1675.83
514.73	1704.92
515.09	1733.33
515.45	1761.91
515.81	1790.91
516.17	1819.62
516.53	1847.63
516.89	1875.29
517.25	1903.20
517.61	1930.93
517.97	1959.32
518.33	1987.27
518.69	2015.15
519.05	2043.27
519.41	2071.55
519.77	2100.09
520.13	2126.98
520.49	2153.73
520.85	2180.96
521.21	2207.59
521.57	2234.52
521.93	2260.23
522.29	2286.70
522.65	2312.96
523.01	2338.98
523.37	2364.12
523.73	2390.12
524.09	2415.75
524.45	2441.23
524.81	2466.14
525.17	2490.89
525.53	2514.55
525.89	2538.73
526.25	2562.65
526.61	2584.79
526.97	2606.96
527.33	2628.67
527.68	2650.48
528.04	2671.87
528.40	2692.21
528.76	2712.42
529.12	2732.06
529.48	2752.62
529.84	2770.36
530.20	2788.32
530.56	2805.67
530.91	2822.98
531.27	2839.56
531.63	2855.31
531.99	2870.49
532.35	2885.48
532.71	2900.14
533.07	2915.39
533.42	2928.56
533.78	2941.72
534.14	2956.07
534.50	2969.38
534.86	2983.33
535.21	2994.69
535.57	3006.01
535.93	3016.74
536.29	3025.95
536.65	3034.92
537.00	3042.62
537.36	3051.36
537.72	3059.32
538.08	3066.90
538.44	3073.08
538.79	3079.16
539.15	3084.01
539.51	3088.13
539.87	3090.88
540.22	3091.78
540.58	3092.98
540.94	3094.73
541.29	3095.66
541.65	3095.01
542.01	3093.94
542.37	3091.02
542.72	3090.05
543.08	3087.22
543.44	3084.56
543.79	3081.75
544.15	3078.17
544.51	3074.30
544.87	3069.63
545.22	3063.90
545.58	3057.53
545.94	3051.71
546.29	3044.43
546.65	3037.15
547.01	3030.04
547.36	3023.59
547.72	3017.34
548.07	3009.27
548.43	3000.05
548.79	2990.31
549.14	2980.94
549.50	2971.65
549.86	2961.64
550.21	2949.64
550.57	2939.06
550.92	2926.92
551.28	2914.78
551.64	2902.96
551.99	2891.03
552.35	2878.63
552.70	2866.17
553.06	2854.28
553.41	2841.92
553.77	2829.05
554.13	2816.33
554.48	2802.54
554.84	2787.29
555.19	2772.42
555.55	2757.69
555.90	2743.47
556.26	2729.59
556.61	2714.61
556.97	2698.47
557.32	2682.65
557.68	2667.33
558.03	2651.52
558.39	2636.54
558.74	2622.40
559.10	2606.44
559.45	2590.33
559.81	2574.81
560.16	2558.85
560.52	2542.58
560.87	2526.71
561.23	2510.38
561.58	2494.61
561.94	2478.47
562.29	2462.00
562.64	2445.77
563.00	2429.47
563.35	2413.47
563.71	2396.96
564.06	2380.64
564.42	2364.86
564.77	2349.24
565.12	2333.27
565.48	2316.89
565.83	2300.54
566.19	2284.11
566.54	2267.83
566.89	2251.18
567.25	2234.67
567.60	2219.13
567.96	2203.04
568.31	2185.27
568.66	2168.16
569.02	2151.82
569.37	2136.02
569.72	2120.77
570.08	2105.13
570.43	2088.76
570.78	2072.13
571.14	2055.55
571.49	2038.90
571.84	2022.44
572.20	2004.75
572.55	1987.72
572.90	1970.90
573.26	1954.41
573.61	1937.19
573.96	1920.51
574.31	1903.72
574.67	1886.49
575.02	1868.82
575.37	1851.14
575.72	1834.42
576.08	1817.67
576.43	1799.85
576.78	1782.35
577.13	1765.11
577.49	1748.02
577.84	1731.58
578.19	1714.68
578.54	1697.66
578.90	1680.57
579.25	1663.29
579.60	1647.35
579.95	1631.09
580.30	1614.82
580.66	1598.22
581.01	1581.74
581.36	1565.25
581.71	1549.70
582.06	1534.26
582.42	1518.67
582.77	1503.42
583.12	1488.43
583.47	1473.53
583.82	1458.80
584.17	1443.46
584.53	1428.28
584.88	1413.43
585.23	1398.40
585.58	1383.80
585.93	1369.03
586.28	1355.28
586.63	1341.49
586.98	1327.13
587.34	1313.27
587.69	1299.22
588.04	1285.42
588.39	1271.90
588.74	1258.07
589.09	1244.34
589.44	1230.23
589.79	1216.86
590.14	1203.50
590.49	1190.15
590.84	1177.01
591.19	1164.31
591.54	1151.79
591.89	1138.90
592.25	1126.30
592.60	1113.58
592.95	1101.00
593.30	1088.94
593.65	1076.55
594.00	1064.48
594.35	1053.34
594.70	1041.47
595.05	1030.20
595.40	1018.87
595.75	1007.37
596.10	996.54
596.45	985.57
596.80	975.17
597.15	964.66
597.50	954.11
597.85	944.01
598.19	933.86
598.54	923.69
598.89	913.99
599.24	904.73
599.59	895.18
599.94	886.37
600.29	877.66
600.64	868.71
600.99	859.63
601.34	850.95
601.69	841.70
602.04	833.44
602.39	825.08
602.74	816.95
603.08	808.93
603.43	800.91
603.78	792.96
604.13	784.96
604.48	776.97
604.83	769.36
605.18	761.67
605.53	754.23
605.87	746.78
606.22	739.47
606.57	732.05
606.92	724.63
607.27	717.23
607.62	709.95
607.96	702.94
608.31	696.49
608.66	689.84
609.01	683.51
609.36	677.15
609.70	670.78
610.05	664.38
610.40	658.17
610.75	651.91
611.10	645.92
611.44	639.90
611.79	634.09
612.14	628.12
612.49	622.26
612.83	616.70
613.18	611.23
613.53	605.75
613.88	600.39
614.22	595.43
614.57	590.39
614.92	585.50
615.27	580.70
615.61	575.77
615.96	570.95
616.31	566.09
616.65	561.37
617.00	556.77
617.35	552.27
617.70	547.79
618.04	543.44
618.39	539.16
618.74	535.18
619.08	531.13
619.43	527.22
619.78	523.30
620.12	519.29
620.47	515.50
620.82	511.80
621.16	508.16
621.51	504.57
621.85	500.96
622.20	497.39
622.55	493.87
622.89	490.37
623.24	487.05
623.59	483.80
623.93	480.63
624.28	477.57
624.62	474.73
624.97	471.92
625.32	469.02
625.66	466.12
626.01	463.15
626.35	460.37
626.70	457.55
627.04	454.92
627.39	452.27
627.73	449.69
628.08	447.15
628.43	444.62
628.77	442.04
629.12	439.54
629.46	437.17
629.81	434.95
630.15	432.64
630.50	430.36
630.84	428.13
631.19	425.95
631.53	423.88
631.88	421.62
632.22	419.42
632.57	417.54
632.91	415.62
633.26	413.77
633.60	411.92
633.95	410.17
634.29	408.31
634.64	406.49
634.98	404.57
635.32	402.83
635.67	401.27
636.01	399.69
636.36	398.17
636.70	396.72
637.05	395.10
637.39	393.65
637.73	392.19
638.08	390.80
638.42	389.46
638.77	387.98
639.11	386.47
639.45	385.02
639.80	383.54
640.14	382.11
640.49	380.69
640.83	379.27
641.17	377.93
641.52	376.60
641.86	375.31
642.20	374.18
642.55	372.86
642.89	371.55
643.23	370.32
643.58	369.24
643.92	367.98
644.26	366.82
644.61	365.72
644.95	364.56
645.29	363.37
645.64	362.15
645.98	361.04
646.32	360.07
646.66	359.02
647.01	357.99
647.35	357.07
647.69	356.09
648.04	355.20
648.38	354.22
648.72	353.31
649.06	352.39
649.41	351.45
649.75	350.57
650.09	349.71
650.43	348.83
650.78	347.88
651.12	347.04
651.46	346.21
651.80	345.38
652.14	344.60
652.49	343.89
652.83	343.11
653.17	342.31
653.51	341.51
653.85	340.85
654.20	340.13
654.54	339.32
654.88	338.56
655.22	337.86
655.56	337.12
655.90	336.44
656.25	335.76
656.59	335.09
656.93	334.46
657.27	333.89
657.61	333.24
657.95	332.66
658.29	332.03
658.64	331.43
658.98	330.77
659.32	330.13
659.66	329.52
660.00	328.97
660.34	328.42
660.68	327.81
661.02	327.13
661.36	326.50
661.70	325.92
662.05	325.35
662.39	324.78
662.73	324.34
663.07	323.92
663.41	323.44
663.75	322.93
664.09	322.43
664.43	321.81
664.77	321.28
665.11	320.70
665.45	320.19
665.79	319.68
666.13	319.17
666.47	318.65
666.81	318.09
667.15	317.48
667.49	317.01
667.83	316.61
668.17	316.16
668.51	315.76
668.85	315.38
669.19	315.05
669.53	314.55
669.87	314.00
670.21	313.45
670.55	312.95
670.89	312.54
671.23	312.08
671.57	311.68
671.91	311.34
672.25	311.02
672.58	310.70
672.92	310.27
673.26	309.93
673.60	309.60
673.94	309.23
674.28	308.91
674.62	308.55
674.96	308.12
675.30	307.77
675.64	307.35
675.97	306.91
676.31	306.42
676.65	306.03
676.99	305.71
677.33	305.28
677.67	304.89
678.01	304.42
678.34	304.04
678.68	303.66
679.02	303.21
679.36	302.77
679.70	302.31
680.04	301.92
680.37	301.51
680.71	301.12
681.05	300.77
681.39	300.37
681.73	299.92
682.06	299.51
682.40	299.12
682.74	298.77
683.08	298.46
683.42	298.08
683.75	297.74
684.09	297.28
684.43	296.91
684.77	296.51
685.10	296.14
685.44	295.74
685.78	295.32
686.12	294.94
686.45	294.52
686.79	294.09
687.13	293.70
687.46	293.25
687.80	292.84
688.14	292.37
688.48	291.95
688.81	291.53
689.15	291.16
689.49	290.72
689.82	290.28
690.16	289.73
690.50	289.29
690.83	288.84
691.17	288.38
691.51	287.95
691.84	287.55
692.18	287.10
692.52	286.64
692.85	286.21
693.19	285.83
693.52	285.40
693.86	284.96
694.20	284.52
694.53	284.10
694.87	283.63
695.21	283.17
695.54	282.72
695.88	282.25
696.21	281.75
696.55	281.32
696.88	280.86
697.22	280.44
697.56	280.04
697.89	279.56
698.23	279.14
698.56	278.69
698.90	278.28
699.23	277.82
699.57	277.42
699.90	276.98
700.24	276.51
700.58	276.10
700.91	275.73
701.25	275.47
701.58	275.15
701.92	274.81
702.25	274.42
702.59	274.00
702.92	273.62
703.26	273.20
703.59	272.78
703.93	272.51
704.26	272.11
704.60	271.68
704.93	271.27
705.26	270.85
705.60	270.49
705.93	270.02
706.27	269.70
706.60	269.35
706.94	269.03
707.27	268.60
707.61	268.19
707.94	267.77
708.27	267.20
708.61	266.72
708.94	266.29
709.28	265.89
709.61	265.51
709.94	265.15
710.28	264.79
710.61	264.46
710.95	263.94
711.28	263.69
711.61	263.33
711.95	263.02
712.28	262.64
712.61	262.26
712.95	262.00
713.28	261.71
713.61	261.31
713.95	260.91
714.28	260.59
714.61	260.22
714.95	259.88
715.28	259.53
715.61	259.21
715.95	258.90
716.28	258.57
716.61	258.28
716.95	257.95
717.28	257.63
717.61	257.30
717.94	257.00
718.28	256.58
718.61	256.27
718.94	255.93
719.27	255.64
719.61	255.37
719.94	255.04
720.27	254.66
720.60	254.38
720.94	254.09
721.27	253.81
721.60	253.57
721.93	253.29
722.27	253.07
722.60	252.80
722.93	252.49
723.26	252.24
723.59	251.94
723.93	251.69
724.26	251.45
724.59	251.19
724.92	250.95
725.25	250.75
725.59	250.50
725.92	250.29
726.25	250.04
726.58	249.80
726.91	249.54
727.24	249.33
727.57	249.08
727.91	248.81
728.24	248.59
728.57	248.35
728.90	248.14
729.23	247.85
729.56	247.71
729.89	247.50
730.22	247.26
730.55	247.05
730.89	246.82
731.22	246.60
731.55	246.38
731.88	246.17
732.21	245.93
732.54	245.70
732.87	245.49
733.20	245.31
733.53	245.11
733.86	244.93
734.19	244.71
734.52	244.56
734.85	244.51
735.18	244.29
735.51	244.16
735.84	243.98
736.17	243.86
736.50	243.57
736.83	243.61
737.16	243.43
737.49	243.26
737.82	243.07
738.15	242.92
738.48	242.73
738.81	242.54
739.14	242.35
739.47	242.16
739.80	241.98
740.13	241.82
740.46	241.61
740.79	241.41
741.12	241.24
741.45	241.03
741.78	240.75
742.11	240.62
742.44	240.41
742.77	240.26
743.10	240.06
743.43	239.89
743.75	239.54
744.08	239.66
744.41	239.49
744.74	239.32
745.07	239.13
745.40	239.02
745.73	238.96
746.06	238.82
746.39	238.71
746.71	238.56
747.04	238.39
747.37	238.25
747.70	238.14
748.03	238.00
748.36	237.90
748.68	237.76
749.01	237.58
749.34	237.45
749.67	237.32
750.00	237.22
750.33	237.23
750.65	237.12
750.98	236.72
751.31	236.61
751.64	236.51
751.97	236.49
752.29	236.34
752.62	236.13
752.95	236.00
753.28	235.85
753.60	235.72
753.93	235.64
754.26	235.55
754.59	235.37
754.91	235.24
755.24	235.10
755.57	235.00
755.90	234.88
756.22	234.74
756.55	234.59
756.88	234.44
757.20	234.21
757.53	234.05
757.86	233.93
758.19	233.83
758.51	233.72
758.84	233.52
759.17	233.40
759.49	233.32
759.82	233.30
760.15	233.22
760.47	233.13
760.80	232.97
761.13	232.89
761.45	232.81
761.78	232.72
762.11	232.64
762.43	232.52
762.76	232.42
763.08	232.36
763.41	232.29
763.74	232.22
764.06	232.14
764.39	232.07
764.71	231.98
765.04	231.88
765.37	231.78
765.69	231.70
766.02	231.62
766.34	231.53
766.67	231.38
767.00	231.34
767.32	231.37
767.65	231.42
767.97	231.33
768.30	231.26
768.62	231.20
768.95	231.11
769.27	231.04
769.60	231.00
769.92	230.90
770.25	230.79
770.57	230.69
770.90	230.62
771.22	230.54
771.55	230.48
771.87	230.44
772.20	230.38
772.52	230.47
772.85	230.64
773.17	230.59
773.50	230.52
773.82	230.42
774.15	230.27
774.47	230.10
774.80	230.02
775.12	229.96
775.45	229.91
775.77	229.86
776.09	229.83
776.42	229.77
776.74	229.78
777.07	229.73
777.39	229.70
777.72	229.63
778.04	229.61
778.36	229.55
778.69	229.50
779.01	229.47
779.33	229.27
779.66	229.01
779.98	228.96
780.31	228.93
780.63	228.97
780.95	228.96
781.28	228.92
781.60	228.87
781.92	228.83
782.25	228.79
782.57	228.76
782.89	228.71
783.22	228.66
783.54	228.58
783.86	228.56
784.19	228.52
784.51	228.55
784.83	228.49
785.16	228.45
785.48	228.42
785.80	228.38
786.12	228.36
786.45	228.33
786.77	228.31
787.09	228.27
787.42	228.17
787.74	228.14
788.06	228.12
788.38	228.08
788.71	228.04
789.03	228.02
789.35	228.01
789.67	227.96
789.99	227.95
790.32	227.90
790.64	227.89
790.96	228.04
791.28	227.94
791.61	227.91
791.93	227.90
792.25	227.86
792.57	227.96
792.89	227.90
793.21	227.89
793.54	227.84
793.86	227.80
794.18	227.78
794.50	227.72
794.82	227.70
795.14	227.70
795.47	227.71
795.79	227.69
796.11	227.62
796.43	227.60
796.75	227.57
797.07	227.55
797.39	227.51
797.71	227.33
798.04	227.32
798.36	227.31
798.68	227.29
799.00	227.28
799.32	227.17
799.64	227.17
799.96	227.15
800.28	227.16
800.60	227.14
800.92	227.13
801.24	227.10
801.56	227.10
801.89	227.05
802.21	227.04
802.53	226.99
802.85	227.02
803.17	227.09
803.49	227.03
803.81	226.99
804.13	226.96
804.45	226.92
804.77	226.91
805.09	226.89
805.41	226.85
805.73	226.79
806.05	226.73
806.37	226.70
806.69	226.66
807.01	226.62
807.33	226.62
807.65	226.53
807.97	226.60
808.28	226.55
808.60	226.53
808.92	226.48
809.24	226.58
809.56	226.52
809.88	226.44
810.20	226.44
810.52	226.46
810.84	226.42
811.16	226.39
811.48	226.36
811.80	226.41
812.12	226.40
812.43	226.42
812.75	226.42
813.07	226.39
813.39	226.38
813.71	226.34
814.03	226.31
814.35	226.31
814.67	226.22
814.98	226.20
815.30	226.19
815.62	226.15
815.94	226.01
816.26	226.02
816.58	225.97
816.89	225.97
817.21	225.91
817.53	225.92
817.85	225.92
818.17	225.91
