SpectraSuite Data File
++++++++++++++++++++++++++++++++++++
Date: Tue Oct 06 11:46:28 EDT 2015
User: lab3
Dark Spectrum Present: No
Reference Spectrum Present: No
Number of Sampled Component Spectra: 1
Spectrometers: USB2E7196
Integration Time (usec): 66000 (USB2E7196)
Spectra Averaged: 1000 (USB2E7196)
Boxcar Smoothing: 10 (USB2E7196)
Correct for Electrical Dark: No (USB2E7196)
Strobe/Lamp Enabled: No (USB2E7196)
Correct for Detector Non-linearity: No (USB2E7196)
Correct for Stray Light: No (USB2E7196)
Number of Pixels in Processed Spectrum: 2048
>>>>>Begin Processed Spectral Data<<<<<
339.09	0.00
339.48	216.49
339.86	217.89
340.24	219.27
340.63	220.77
341.01	224.75
341.39	223.30
341.78	224.94
342.16	226.11
342.54	226.48
342.93	214.87
343.31	225.72
343.69	226.26
344.07	226.72
344.46	227.17
344.84	227.57
345.22	227.76
345.60	228.05
345.99	228.25
346.37	228.39
346.75	228.51
347.13	228.60
347.52	228.69
347.90	228.81
348.28	228.86
348.66	228.95
349.05	228.95
349.43	229.02
349.81	229.08
350.19	229.16
350.57	229.23
350.96	229.33
351.34	229.44
351.72	229.54
352.10	229.67
352.48	229.74
352.87	229.78
353.25	229.85
353.63	229.90
354.01	229.97
354.39	230.05
354.77	230.12
355.15	230.24
355.54	230.28
355.92	230.29
356.30	230.37
356.68	230.54
357.06	230.62
357.44	230.65
357.82	230.71
358.20	230.92
358.58	230.98
358.97	231.03
359.35	231.14
359.73	231.24
360.11	231.29
360.49	231.36
360.87	231.42
361.25	231.50
361.63	231.60
362.01	231.66
362.39	231.69
362.77	231.75
363.15	231.77
363.53	231.80
363.91	231.84
364.29	231.87
364.67	231.73
365.05	231.76
365.43	231.79
365.81	231.83
366.19	231.79
366.57	231.88
366.95	231.87
367.33	231.82
367.71	231.80
368.09	231.83
368.47	231.82
368.85	231.79
369.23	231.81
369.61	231.74
369.99	231.77
370.37	231.78
370.75	231.90
371.13	231.87
371.51	231.83
371.89	231.81
372.27	231.78
372.65	231.76
373.03	231.72
373.41	231.68
373.78	231.62
374.16	231.49
374.54	231.39
374.92	231.36
375.30	231.31
375.68	231.24
376.06	231.19
376.44	231.13
376.82	231.11
377.19	231.06
377.57	231.00
377.95	230.90
378.33	230.82
378.71	230.60
379.09	230.55
379.47	230.54
379.84	230.48
380.22	230.41
380.60	230.33
380.98	230.29
381.36	230.24
381.73	230.17
382.11	230.15
382.49	230.11
382.87	230.05
383.25	230.01
383.62	230.17
384.00	230.10
384.38	230.08
384.76	230.08
385.13	230.09
385.51	230.05
385.89	230.00
386.27	229.98
386.64	229.98
387.02	229.93
387.40	229.87
387.78	229.86
388.15	229.83
388.53	229.81
388.91	229.78
389.29	229.75
389.66	229.75
390.04	229.72
390.42	229.73
390.79	229.72
391.17	229.72
391.55	229.51
391.92	229.50
392.30	229.51
392.68	229.47
393.05	229.45
393.43	229.46
393.81	229.47
394.18	229.46
394.56	229.47
394.94	229.53
395.31	229.54
395.69	229.60
396.06	229.66
396.44	229.70
396.82	229.72
397.19	229.85
397.57	229.87
397.95	229.94
398.32	229.94
398.70	230.02
399.07	230.12
399.45	230.18
399.82	230.25
400.20	230.31
400.58	230.39
400.95	230.43
401.33	230.55
401.70	230.77
402.08	230.92
402.45	231.05
402.83	231.22
403.20	231.39
403.58	231.54
403.95	231.75
404.33	231.96
404.71	232.18
405.08	232.48
405.46	232.73
405.83	233.00
406.21	233.28
406.58	233.61
406.96	233.93
407.33	234.31
407.70	234.74
408.08	235.31
408.45	235.82
408.83	236.36
409.20	236.86
409.58	237.33
409.95	237.95
410.33	238.63
410.70	239.28
411.08	240.03
411.45	240.84
411.82	241.66
412.20	242.58
412.57	243.69
412.95	244.58
413.32	245.74
413.69	246.92
414.07	248.20
414.44	249.57
414.82	250.96
415.19	252.61
415.56	254.28
415.94	256.03
416.31	257.98
416.68	259.94
417.06	262.22
417.43	264.34
417.81	266.79
418.18	269.29
418.55	272.02
418.93	274.88
419.30	277.85
419.67	281.01
420.04	284.27
420.42	287.69
420.79	291.61
421.16	295.57
421.54	299.59
421.91	303.79
422.28	308.14
422.66	312.85
423.03	317.30
423.40	322.00
423.77	327.00
424.15	332.14
424.52	337.44
424.89	343.21
425.26	348.93
425.64	354.25
426.01	360.21
426.38	366.32
426.75	372.59
427.13	378.97
427.50	385.67
427.87	392.61
428.24	399.59
428.61	406.29
428.99	413.51
429.36	421.50
429.73	429.14
430.10	436.75
430.47	444.51
430.85	452.60
431.22	461.16
431.59	469.96
431.96	478.52
432.33	488.12
432.70	497.19
433.08	507.99
433.45	518.15
433.82	528.12
434.19	539.29
434.56	550.26
434.93	560.91
435.30	571.47
435.68	583.49
436.05	595.20
436.42	606.95
436.79	617.67
437.16	629.23
437.53	641.64
437.90	654.10
438.27	666.24
438.64	679.29
439.01	691.23
439.38	702.25
439.75	712.88
440.13	724.93
440.50	736.44
440.87	745.54
441.24	755.50
441.61	766.53
441.98	774.59
442.35	784.17
442.72	793.96
443.09	803.35
443.46	809.49
443.83	814.09
444.20	817.84
444.57	823.40
444.94	826.77
445.31	830.12
445.68	832.93
446.05	835.05
446.42	834.69
446.79	834.07
447.16	833.51
447.53	833.10
447.90	829.52
448.27	825.98
448.64	820.55
449.01	816.91
449.37	809.25
449.74	802.41
450.11	793.51
450.48	783.73
450.85	773.82
451.22	765.21
451.59	756.85
451.96	749.37
452.33	738.44
452.70	728.65
453.07	716.86
453.43	705.15
453.80	693.76
454.17	682.86
454.54	672.73
454.91	661.24
455.28	650.36
455.65	640.02
456.02	629.22
456.38	620.50
456.75	609.27
457.12	600.23
457.49	591.03
457.86	582.44
458.23	574.86
458.59	566.51
458.96	557.95
459.33	550.45
459.70	542.78
460.07	536.88
460.43	529.95
460.80	523.45
461.17	517.78
461.54	511.68
461.91	505.99
462.27	500.19
462.64	495.49
463.01	490.08
463.38	484.70
463.74	479.86
464.11	475.55
464.48	471.67
464.85	467.43
465.21	464.19
465.58	460.58
465.95	456.48
466.32	453.18
466.68	449.97
467.05	446.70
467.42	443.54
467.78	440.16
468.15	437.05
468.52	434.77
468.88	431.75
469.25	429.02
469.62	426.83
469.98	424.45
470.35	422.28
470.72	420.38
471.08	418.37
471.45	416.66
471.82	414.79
472.18	412.83
472.55	411.59
472.92	410.02
473.28	408.78
473.65	407.47
474.02	406.28
474.38	405.24
474.75	404.62
475.11	403.76
475.48	403.35
475.85	402.94
476.21	402.70
476.58	402.55
476.94	402.74
477.31	402.79
477.67	402.92
478.04	403.24
478.41	403.64
478.77	404.28
479.14	404.65
479.50	405.45
479.87	406.46
480.23	407.45
480.60	408.43
480.96	409.39
481.33	410.83
481.69	412.24
482.06	413.67
482.42	415.00
482.79	416.63
483.15	418.53
483.52	420.65
483.88	422.70
484.25	424.89
484.61	427.20
484.98	429.66
485.34	432.43
485.71	435.32
486.07	438.41
486.44	441.43
486.80	444.85
487.17	448.34
487.53	452.17
487.90	456.14
488.26	460.46
488.62	465.04
488.99	469.67
489.35	474.54
489.72	479.76
490.08	485.21
490.44	490.76
490.81	496.52
491.17	502.42
491.54	508.73
491.90	515.19
492.26	522.01
492.63	529.18
492.99	536.63
493.36	544.35
493.72	552.48
494.08	560.79
494.45	569.49
494.81	578.57
495.17	587.88
495.54	597.72
495.90	607.99
496.26	618.49
496.63	629.20
496.99	640.28
497.35	651.83
497.72	663.76
498.08	676.12
498.44	688.76
498.80	702.16
499.17	715.90
499.53	730.06
499.89	744.67
500.26	759.34
500.62	774.33
500.98	790.02
501.34	805.87
501.71	822.45
502.07	839.31
502.43	856.65
502.79	874.08
503.16	891.96
503.52	910.03
503.88	928.57
504.24	947.53
504.60	966.81
504.97	986.47
505.33	1006.60
505.69	1027.73
506.05	1048.89
506.41	1069.87
506.78	1091.17
507.14	1113.31
507.50	1135.87
507.86	1158.94
508.22	1182.05
508.59	1205.01
508.95	1228.76
509.31	1252.99
509.67	1277.73
510.03	1302.33
510.39	1327.15
510.75	1352.17
511.12	1377.40
511.48	1402.47
511.84	1427.65
512.20	1453.17
512.56	1479.31
512.92	1505.23
513.28	1530.59
513.64	1556.41
514.00	1582.25
514.37	1608.35
514.73	1634.25
515.09	1659.52
515.45	1684.97
515.81	1710.40
516.17	1735.94
516.53	1760.76
516.89	1785.59
517.25	1810.57
517.61	1835.41
517.97	1860.48
518.33	1884.80
518.69	1908.87
519.05	1933.25
519.41	1957.47
519.77	1981.53
520.13	2005.14
520.49	2028.68
520.85	2052.39
521.21	2075.61
521.57	2099.40
521.93	2121.87
522.29	2144.63
522.65	2167.02
523.01	2189.31
523.37	2210.83
523.73	2232.65
524.09	2254.58
524.45	2276.28
524.81	2297.10
525.17	2317.59
525.53	2337.49
525.89	2357.87
526.25	2377.54
526.61	2396.01
526.97	2414.69
527.33	2433.02
527.68	2450.22
528.04	2466.88
528.40	2482.43
528.76	2498.51
529.12	2513.24
529.48	2528.69
529.84	2542.87
530.20	2557.78
530.56	2571.56
530.91	2585.57
531.27	2598.57
531.63	2610.48
531.99	2621.78
532.35	2632.07
532.71	2642.02
533.07	2652.34
533.42	2661.03
533.78	2670.58
534.14	2680.64
534.50	2689.14
534.86	2697.60
535.21	2704.10
535.57	2711.05
535.93	2718.29
536.29	2724.22
536.65	2730.10
537.00	2733.89
537.36	2738.09
537.72	2740.84
538.08	2743.34
538.44	2744.66
538.79	2746.50
539.15	2747.56
539.51	2748.17
539.87	2748.77
540.22	2747.83
540.58	2747.22
540.94	2746.46
541.29	2744.50
541.65	2740.89
542.01	2737.44
542.37	2733.03
542.72	2730.47
543.08	2726.12
543.44	2721.69
543.79	2715.65
544.15	2709.46
544.51	2704.11
544.87	2696.86
545.22	2689.06
545.58	2681.21
545.94	2673.90
546.29	2665.03
546.65	2656.13
547.01	2647.28
547.36	2638.07
547.72	2628.93
548.07	2618.19
548.43	2607.33
548.79	2595.50
549.14	2584.53
549.50	2573.36
549.86	2561.75
550.21	2548.57
550.57	2536.53
550.92	2522.29
551.28	2509.21
551.64	2496.63
551.99	2483.86
552.35	2471.04
552.70	2458.26
553.06	2445.82
553.41	2432.55
553.77	2418.73
554.13	2404.81
554.48	2390.30
554.84	2375.67
555.19	2361.54
555.55	2347.07
555.90	2332.45
556.26	2318.73
556.61	2303.97
556.97	2288.48
557.32	2273.40
557.68	2258.31
558.03	2242.85
558.39	2228.42
558.74	2213.96
559.10	2197.79
559.45	2182.16
559.81	2167.43
560.16	2152.37
560.52	2136.96
560.87	2122.17
561.23	2106.94
561.58	2092.05
561.94	2076.49
562.29	2061.01
562.64	2045.50
563.00	2030.27
563.35	2015.74
563.71	2000.72
564.06	1985.71
564.42	1971.18
564.77	1956.51
565.12	1942.34
565.48	1928.11
565.83	1914.07
566.19	1899.96
566.54	1886.12
566.89	1871.14
567.25	1855.77
567.60	1841.48
567.96	1826.62
568.31	1811.22
568.66	1796.52
569.02	1782.08
569.37	1767.88
569.72	1753.85
570.08	1739.88
570.43	1725.62
570.78	1710.67
571.14	1695.79
571.49	1681.33
571.84	1667.59
572.20	1652.72
572.55	1638.07
572.90	1623.00
573.26	1607.80
573.61	1592.56
573.96	1577.96
574.31	1563.85
574.67	1550.04
575.02	1535.28
575.37	1520.52
575.72	1505.91
576.08	1491.73
576.43	1477.36
576.78	1463.08
577.13	1448.89
577.49	1434.84
577.84	1420.84
578.19	1406.88
578.54	1393.09
578.90	1379.33
579.25	1364.97
579.60	1351.58
579.95	1338.35
580.30	1324.93
580.66	1311.71
581.01	1298.71
581.36	1285.43
581.71	1272.20
582.06	1258.90
582.42	1245.77
582.77	1233.09
583.12	1220.58
583.47	1208.00
583.82	1195.66
584.17	1183.21
584.53	1171.01
584.88	1158.89
585.23	1146.75
585.58	1134.95
585.93	1123.22
586.28	1111.98
586.63	1100.72
586.98	1089.38
587.34	1078.30
587.69	1067.23
588.04	1056.41
588.39	1045.69
588.74	1034.75
589.09	1024.19
589.44	1013.43
589.79	1003.22
590.14	993.06
590.49	983.05
590.84	973.23
591.19	963.44
591.54	953.73
591.89	943.57
592.25	933.73
592.60	923.82
592.95	914.16
593.30	904.45
593.65	894.68
594.00	885.24
594.35	876.54
594.70	867.29
595.05	858.70
595.40	849.90
595.75	840.84
596.10	832.44
596.45	823.90
596.80	815.61
597.15	807.38
597.50	799.21
597.85	791.30
598.19	783.37
598.54	775.41
598.89	767.67
599.24	760.35
599.59	753.05
599.94	746.24
600.29	739.22
600.64	732.33
600.99	725.38
601.34	718.59
601.69	711.28
602.04	704.57
602.39	697.94
602.74	691.47
603.08	685.23
603.43	678.97
603.78	672.80
604.13	666.77
604.48	660.72
604.83	654.81
605.18	648.95
605.53	643.21
605.87	637.46
606.22	631.89
606.57	626.25
606.92	620.52
607.27	614.92
607.62	609.60
607.96	604.37
608.31	599.44
608.66	594.45
609.01	589.66
609.36	584.98
609.70	580.17
610.05	575.39
610.40	570.73
610.75	566.07
611.10	561.65
611.44	557.16
611.79	552.81
612.14	548.51
612.49	544.15
612.83	539.94
613.18	535.90
613.53	531.96
613.88	528.05
614.22	524.35
614.57	520.52
614.92	516.74
615.27	513.07
615.61	509.44
615.96	505.85
616.31	502.24
616.65	498.68
617.00	495.26
617.35	491.91
617.70	488.61
618.04	485.43
618.39	482.27
618.74	479.26
619.08	476.16
619.43	473.11
619.78	470.16
620.12	467.32
620.47	464.61
620.82	461.87
621.16	459.19
621.51	456.63
621.85	454.12
622.20	451.66
622.55	449.19
622.89	446.75
623.24	444.45
623.59	442.19
623.93	440.00
624.28	437.88
624.62	435.97
624.97	434.03
625.32	431.95
625.66	429.85
626.01	427.79
626.35	425.88
626.70	423.95
627.04	422.18
627.39	420.28
627.73	418.45
628.08	416.72
628.43	415.05
628.77	413.29
629.12	411.63
629.46	409.98
629.81	408.48
630.15	406.83
630.50	405.24
630.84	403.74
631.19	402.29
631.53	400.88
631.88	399.24
632.22	397.73
632.57	396.51
632.91	395.27
633.26	394.11
633.60	392.88
633.95	391.70
634.29	390.42
634.64	389.26
634.98	387.97
635.32	386.79
635.67	385.68
636.01	384.63
636.36	383.60
636.70	382.71
637.05	381.59
637.39	380.66
637.73	379.72
638.08	378.82
638.42	377.88
638.77	376.88
639.11	375.86
639.45	374.85
639.80	373.81
640.14	372.85
640.49	371.85
640.83	370.86
641.17	369.93
641.52	369.02
641.86	368.14
642.20	367.41
642.55	366.49
642.89	365.60
643.23	364.70
643.58	363.91
643.92	362.94
644.26	362.08
644.61	361.30
644.95	360.49
645.29	359.60
645.64	358.71
645.98	357.88
646.32	357.16
646.66	356.40
647.01	355.61
647.35	354.87
647.69	354.10
648.04	353.42
648.38	352.66
648.72	351.96
649.06	351.26
649.41	350.48
649.75	349.78
650.09	349.12
650.43	348.45
650.78	347.70
651.12	347.05
651.46	346.40
651.80	345.72
652.14	345.05
652.49	344.43
652.83	343.79
653.17	343.16
653.51	342.54
653.85	341.99
654.20	341.39
654.54	340.71
654.88	340.07
655.22	339.46
655.56	338.77
655.90	338.09
656.25	337.42
656.59	336.78
656.93	336.22
657.27	335.70
657.61	335.09
657.95	334.57
658.29	333.99
658.64	333.45
658.98	332.83
659.32	332.23
659.66	331.66
660.00	331.11
660.34	330.58
660.68	329.99
661.02	329.36
661.36	328.78
661.70	328.22
662.05	327.68
662.39	327.18
662.73	326.74
663.07	326.35
663.41	325.86
663.75	325.33
664.09	324.77
664.43	324.14
664.77	323.62
665.11	323.00
665.45	322.45
665.79	321.91
666.13	321.37
666.47	320.84
666.81	320.27
667.15	319.66
667.49	319.15
667.83	318.69
668.17	318.19
668.51	317.72
668.85	317.29
669.19	316.93
669.53	316.40
669.87	315.89
670.21	315.36
670.55	314.88
670.89	314.52
671.23	314.06
671.57	313.64
671.91	313.24
672.25	312.85
672.58	312.47
672.92	312.00
673.26	311.59
673.60	311.17
673.94	310.76
674.28	310.40
674.62	310.00
674.96	309.50
675.30	309.09
675.64	308.64
675.97	308.17
676.31	307.63
676.65	307.15
676.99	306.77
677.33	306.28
677.67	305.81
678.01	305.25
678.34	304.80
678.68	304.33
679.02	303.84
679.36	303.37
679.70	302.89
680.04	302.46
680.37	302.02
680.71	301.58
681.05	301.16
681.39	300.69
681.73	300.21
682.06	299.73
682.40	299.29
682.74	298.92
683.08	298.57
683.42	298.11
683.75	297.70
684.09	297.16
684.43	296.69
684.77	296.23
685.10	295.82
685.44	295.42
685.78	294.99
686.12	294.55
686.45	294.10
686.79	293.61
687.13	293.19
687.46	292.70
687.80	292.24
688.14	291.73
688.48	291.28
688.81	290.83
689.15	290.47
689.49	290.01
689.82	289.52
690.16	288.97
690.50	288.51
690.83	288.05
691.17	287.60
691.51	287.17
691.84	286.78
692.18	286.33
692.52	285.85
692.85	285.38
693.19	285.00
693.52	284.56
693.86	284.14
694.20	283.68
694.53	283.27
694.87	282.80
695.21	282.34
695.54	281.91
695.88	281.47
696.21	280.95
696.55	280.49
696.88	280.03
697.22	279.59
697.56	279.18
697.89	278.69
698.23	278.27
698.56	277.83
698.90	277.40
699.23	276.94
699.57	276.51
699.90	276.07
700.24	275.58
700.58	275.17
700.91	274.80
701.25	274.54
701.58	274.22
701.92	273.89
702.25	273.54
702.59	273.13
702.92	272.73
703.26	272.35
703.59	271.96
703.93	271.72
704.26	271.35
704.60	270.94
704.93	270.55
705.26	270.14
705.60	269.77
705.93	269.34
706.27	269.02
706.60	268.69
706.94	268.40
707.27	268.01
707.61	267.64
707.94	267.22
708.27	266.70
708.61	266.24
708.94	265.83
709.28	265.45
709.61	265.08
709.94	264.74
710.28	264.41
710.61	264.12
710.95	263.65
711.28	263.43
711.61	263.12
711.95	262.85
712.28	262.53
712.61	262.19
712.95	261.96
713.28	261.71
713.61	261.35
713.95	260.97
714.28	260.68
714.61	260.35
714.95	260.05
715.28	259.74
715.61	259.46
715.95	259.18
716.28	258.87
716.61	258.61
716.95	258.27
717.28	257.98
717.61	257.65
717.94	257.36
718.28	256.96
718.61	256.67
718.94	256.35
719.27	256.09
719.61	255.85
719.94	255.55
720.27	255.20
720.60	254.94
720.94	254.69
721.27	254.45
721.60	254.25
721.93	253.97
722.27	253.78
722.60	253.55
722.93	253.29
723.26	253.07
723.59	252.83
723.93	252.65
724.26	252.44
724.59	252.21
724.92	252.01
725.25	251.84
725.59	251.62
725.92	251.44
726.25	251.22
726.58	251.01
726.91	250.78
727.24	250.57
727.57	250.35
727.91	250.11
728.24	249.91
728.57	249.69
728.90	249.53
729.23	249.27
729.56	249.15
729.89	248.96
730.22	248.75
730.55	248.56
730.89	248.36
731.22	248.15
731.55	247.95
731.88	247.76
732.21	247.53
732.54	247.34
732.87	247.15
733.20	246.98
733.53	246.80
733.86	246.63
734.19	246.45
734.52	246.31
734.85	246.28
735.18	246.09
735.51	245.98
735.84	245.82
736.17	245.71
736.50	245.45
736.83	245.49
737.16	245.34
737.49	245.19
737.82	245.01
738.15	244.89
738.48	244.75
738.81	244.58
739.14	244.41
739.47	244.25
739.80	244.09
740.13	243.96
740.46	243.78
740.79	243.61
741.12	243.47
741.45	243.30
741.78	243.06
742.11	242.95
742.44	242.77
742.77	242.64
743.10	242.47
743.43	242.33
743.75	242.00
744.08	242.12
744.41	241.96
744.74	241.82
745.07	241.65
745.40	241.55
745.73	241.49
746.06	241.38
746.39	241.28
746.71	241.14
747.04	240.99
747.37	240.87
747.70	240.77
748.03	240.66
748.36	240.57
748.68	240.45
749.01	240.29
749.34	240.17
749.67	240.04
750.00	239.95
750.33	239.98
750.65	239.88
750.98	239.51
751.31	239.42
751.64	239.33
751.97	239.31
752.29	239.18
752.62	238.99
752.95	238.86
753.28	238.72
753.60	238.61
753.93	238.56
754.26	238.49
754.59	238.32
754.91	238.19
755.24	238.08
755.57	238.05
755.90	237.95
756.22	237.83
756.55	237.70
756.88	237.56
757.20	237.34
757.53	237.20
757.86	237.09
758.19	237.00
758.51	236.90
758.84	236.71
759.17	236.60
759.49	236.53
759.82	236.54
760.15	236.48
760.47	236.40
760.80	236.25
761.13	236.18
761.45	236.12
761.78	236.05
762.11	235.96
762.43	235.79
762.76	235.72
763.08	235.67
763.41	235.60
763.74	235.53
764.06	235.45
764.39	235.39
764.71	235.31
765.04	235.22
765.37	235.14
765.69	235.08
766.02	235.02
766.34	234.93
766.67	234.79
767.00	234.74
767.32	234.77
767.65	234.82
767.97	234.73
768.30	234.68
768.62	234.59
768.95	234.51
769.27	234.43
769.60	234.40
769.92	234.31
770.25	234.21
770.57	234.13
770.90	234.07
771.22	234.00
771.55	233.95
771.87	233.91
772.20	233.86
772.52	233.95
772.85	234.11
773.17	234.06
773.50	234.00
773.82	233.91
774.15	233.77
774.47	233.61
774.80	233.55
775.12	233.49
775.45	233.44
775.77	233.42
776.09	233.40
776.42	233.35
776.74	233.37
777.07	233.34
777.39	233.30
777.72	233.24
778.04	233.23
778.36	233.17
778.69	233.13
779.01	233.10
779.33	232.92
779.66	232.68
779.98	232.63
780.31	232.60
780.63	232.64
780.95	232.64
781.28	232.60
781.60	232.55
781.92	232.52
782.25	232.49
782.57	232.45
782.89	232.40
783.22	232.35
783.54	232.28
783.86	232.25
784.19	232.21
784.51	232.23
784.83	232.18
785.16	232.15
785.48	232.12
785.80	232.09
786.12	232.06
786.45	232.03
786.77	232.01
787.09	231.98
787.42	231.88
787.74	231.85
788.06	231.84
788.38	231.81
788.71	231.77
789.03	231.74
789.35	231.73
789.67	231.67
789.99	231.64
790.32	231.59
790.64	231.58
790.96	231.73
791.28	231.65
791.61	231.61
791.93	231.59
792.25	231.55
792.57	231.65
792.89	231.61
793.21	231.60
793.54	231.56
793.86	231.52
794.18	231.51
794.50	231.46
794.82	231.43
795.14	231.43
795.47	231.45
795.79	231.43
796.11	231.39
796.43	231.37
796.75	231.35
797.07	231.35
797.39	231.32
797.71	231.15
798.04	231.14
798.36	231.13
798.68	231.09
799.00	231.10
799.32	230.97
799.64	230.98
799.96	230.95
800.28	230.96
800.60	230.92
800.92	230.91
801.24	230.89
801.56	230.88
801.89	230.85
802.21	230.84
802.53	230.79
802.85	230.80
803.17	230.87
803.49	230.82
803.81	230.78
804.13	230.75
804.45	230.71
804.77	230.71
805.09	230.70
805.41	230.67
805.73	230.63
806.05	230.58
806.37	230.55
806.69	230.52
807.01	230.49
807.33	230.50
807.65	230.42
807.97	230.49
808.28	230.46
808.60	230.45
808.92	230.40
809.24	230.50
809.56	230.45
809.88	230.37
810.20	230.36
810.52	230.39
810.84	230.36
811.16	230.34
811.48	230.32
811.80	230.36
812.12	230.36
812.43	230.38
812.75	230.38
813.07	230.36
813.39	230.36
813.71	230.33
814.03	230.29
814.35	230.29
814.67	230.21
814.98	230.19
815.30	230.16
815.62	230.12
815.94	230.01
816.26	230.01
816.58	229.99
816.89	230.01
817.21	229.95
817.53	229.94
817.85	229.93
818.17	229.92
818.48	229.84
818.80	229.85
