SpectraSuite Data File
++++++++++++++++++++++++++++++++++++
Date: Tue Oct 06 11:39:43 EDT 2015
User: lab3
Dark Spectrum Present: No
Reference Spectrum Present: No
Number of Sampled Component Spectra: 1
Spectrometers: USB2E7196
Integration Time (usec): 66000 (USB2E7196)
Spectra Averaged: 1000 (USB2E7196)
Boxcar Smoothing: 10 (USB2E7196)
Correct for Electrical Dark: No (USB2E7196)
Strobe/Lamp Enabled: No (USB2E7196)
Correct for Detector Non-linearity: No (USB2E7196)
Correct for Stray Light: No (USB2E7196)
Number of Pixels in Processed Spectrum: 2048
>>>>>Begin Processed Spectral Data<<<<<
339.09	0.00
339.48	216.28
339.86	217.89
340.24	219.02
340.63	220.41
341.01	224.56
341.39	223.21
341.78	224.86
342.16	226.10
342.54	226.28
342.93	214.74
343.31	225.59
343.69	226.14
344.07	226.60
344.46	227.06
344.84	227.47
345.22	227.66
345.60	227.94
345.99	228.14
346.37	228.28
346.75	228.40
347.13	228.49
347.52	228.58
347.90	228.70
348.28	228.75
348.66	228.83
349.05	228.81
349.43	228.88
349.81	228.96
350.19	229.04
350.57	229.11
350.96	229.21
351.34	229.31
351.72	229.41
352.10	229.52
352.48	229.59
352.87	229.64
353.25	229.72
353.63	229.78
354.01	229.85
354.39	229.94
354.77	230.02
355.15	230.14
355.54	230.18
355.92	230.20
356.30	230.27
356.68	230.46
357.06	230.55
357.44	230.58
357.82	230.63
358.20	230.84
358.58	230.91
358.97	230.98
359.35	231.07
359.73	231.17
360.11	231.23
360.49	231.28
360.87	231.34
361.25	231.41
361.63	231.52
362.01	231.57
362.39	231.59
362.77	231.65
363.15	231.66
363.53	231.69
363.91	231.73
364.29	231.76
364.67	231.61
365.05	231.63
365.43	231.68
365.81	231.72
366.19	231.67
366.57	231.74
366.95	231.75
367.33	231.71
367.71	231.71
368.09	231.73
368.47	231.73
368.85	231.71
369.23	231.73
369.61	231.65
369.99	231.69
370.37	231.69
370.75	231.80
371.13	231.77
371.51	231.72
371.89	231.71
372.27	231.69
372.65	231.68
373.03	231.64
373.41	231.60
373.78	231.55
374.16	231.42
374.54	231.32
374.92	231.27
375.30	231.23
375.68	231.15
376.06	231.12
376.44	231.07
376.82	231.03
377.19	230.98
377.57	230.93
377.95	230.83
378.33	230.78
378.71	230.57
379.09	230.53
379.47	230.51
379.84	230.45
380.22	230.39
380.60	230.31
380.98	230.26
381.36	230.20
381.73	230.13
382.11	230.13
382.49	230.09
382.87	230.03
383.25	229.99
383.62	230.15
384.00	230.07
384.38	230.03
384.76	230.03
385.13	230.04
385.51	230.01
385.89	229.96
386.27	229.92
386.64	229.92
387.02	229.86
387.40	229.81
387.78	229.78
388.15	229.77
388.53	229.74
388.91	229.70
389.29	229.67
389.66	229.68
390.04	229.64
390.42	229.64
390.79	229.63
391.17	229.61
391.55	229.40
391.92	229.40
392.30	229.41
392.68	229.37
393.05	229.35
393.43	229.34
393.81	229.35
394.18	229.35
394.56	229.37
394.94	229.43
395.31	229.44
395.69	229.51
396.06	229.56
396.44	229.61
396.82	229.64
397.19	229.78
397.57	229.80
397.95	229.87
398.32	229.88
398.70	229.97
399.07	230.07
399.45	230.14
399.82	230.20
400.20	230.26
400.58	230.35
400.95	230.38
401.33	230.52
401.70	230.74
402.08	230.87
402.45	231.00
402.83	231.17
403.20	231.35
403.58	231.49
403.95	231.71
404.33	231.91
404.71	232.13
405.08	232.42
405.46	232.66
405.83	232.94
406.21	233.23
406.58	233.55
406.96	233.87
407.33	234.24
407.70	234.67
408.08	235.25
408.45	235.76
408.83	236.31
409.20	236.81
409.58	237.27
409.95	237.90
410.33	238.58
410.70	239.21
411.08	239.97
411.45	240.76
411.82	241.57
412.20	242.51
412.57	243.62
412.95	244.50
413.32	245.65
413.69	246.82
414.07	248.07
414.44	249.44
414.82	250.84
415.19	252.49
415.56	254.16
415.94	255.90
416.31	257.84
416.68	259.79
417.06	262.07
417.43	264.20
417.81	266.64
418.18	269.13
418.55	271.87
418.93	274.70
419.30	277.69
419.67	280.84
420.04	284.10
420.42	287.50
420.79	291.42
421.16	295.39
421.54	299.40
421.91	303.61
422.28	307.96
422.66	312.64
423.03	317.09
423.40	321.80
423.77	326.82
424.15	331.95
424.52	337.26
424.89	343.01
425.26	348.74
425.64	354.06
426.01	360.02
426.38	366.11
426.75	372.38
427.13	378.77
427.50	385.47
427.87	392.39
428.24	399.38
428.61	406.10
428.99	413.32
429.36	421.30
429.73	428.94
430.10	436.53
430.47	444.33
430.85	452.41
431.22	460.97
431.59	469.76
431.96	478.34
432.33	487.87
432.70	496.96
433.08	507.74
433.45	517.91
433.82	527.90
434.19	539.06
434.56	550.02
434.93	560.67
435.30	571.24
435.68	583.26
436.05	594.99
436.42	606.72
436.79	617.43
437.16	629.02
437.53	641.44
437.90	653.90
438.27	666.05
438.64	679.08
439.01	690.99
439.38	702.00
439.75	712.61
440.13	724.69
440.50	736.21
440.87	745.32
441.24	755.29
441.61	766.27
441.98	774.38
442.35	783.95
442.72	793.75
443.09	803.11
443.46	809.28
443.83	813.85
444.20	817.60
444.57	823.14
444.94	826.47
445.31	829.81
445.68	832.60
446.05	834.66
446.42	834.31
446.79	833.70
447.16	833.18
447.53	832.78
447.90	829.23
448.27	825.67
448.64	820.22
449.01	816.58
449.37	808.92
449.74	802.04
450.11	793.15
450.48	783.35
450.85	773.45
451.22	764.80
451.59	756.43
451.96	748.94
452.33	738.04
452.70	728.27
453.07	716.48
453.43	704.78
453.80	693.38
454.17	682.48
454.54	672.33
454.91	660.82
455.28	649.91
455.65	639.55
456.02	628.75
456.38	620.04
456.75	608.82
457.12	599.78
457.49	590.59
457.86	581.99
458.23	574.40
458.59	566.05
458.96	557.52
459.33	550.01
459.70	542.34
460.07	536.42
460.43	529.49
460.80	523.01
461.17	517.32
461.54	511.25
461.91	505.56
462.27	499.79
462.64	495.07
463.01	489.68
463.38	484.31
463.74	479.44
464.11	475.14
464.48	471.23
464.85	467.00
465.21	463.78
465.58	460.17
465.95	456.07
466.32	452.78
466.68	449.55
467.05	446.31
467.42	443.14
467.78	439.80
468.15	436.70
468.52	434.41
468.88	431.43
469.25	428.72
469.62	426.55
469.98	424.15
470.35	422.00
470.72	420.08
471.08	418.10
471.45	416.42
471.82	414.54
472.18	412.60
472.55	411.36
472.92	409.82
473.28	408.59
473.65	407.30
474.02	406.11
474.38	405.08
474.75	404.45
475.11	403.58
475.48	403.16
475.85	402.75
476.21	402.49
476.58	402.31
476.94	402.50
477.31	402.56
477.67	402.68
478.04	402.99
478.41	403.41
478.77	404.01
479.14	404.38
479.50	405.18
479.87	406.19
480.23	407.19
480.60	408.13
480.96	409.11
481.33	410.53
481.69	411.96
482.06	413.38
482.42	414.71
482.79	416.34
483.15	418.23
483.52	420.36
483.88	422.43
484.25	424.64
484.61	426.94
484.98	429.38
485.34	432.14
485.71	435.04
486.07	438.13
486.44	441.18
486.80	444.60
487.17	448.09
487.53	451.90
487.90	455.87
488.26	460.23
488.62	464.80
488.99	469.41
489.35	474.26
489.72	479.48
490.08	484.94
490.44	490.51
490.81	496.28
491.17	502.19
491.54	508.46
491.90	514.88
492.26	521.72
492.63	528.89
492.99	536.35
493.36	544.08
493.72	552.20
494.08	560.49
494.45	569.20
494.81	578.27
495.17	587.56
495.54	597.36
495.90	607.60
496.26	618.08
496.63	628.79
496.99	639.88
497.35	651.42
497.72	663.33
498.08	675.68
498.44	688.28
498.80	701.67
499.17	715.45
499.53	729.63
499.89	744.24
500.26	758.92
500.62	773.90
500.98	789.60
501.34	805.47
501.71	822.07
502.07	838.94
502.43	856.30
502.79	873.75
503.16	891.65
503.52	909.72
503.88	928.25
504.24	947.20
504.60	966.44
504.97	986.10
505.33	1006.20
505.69	1027.31
506.05	1048.48
506.41	1069.44
506.78	1090.69
507.14	1112.80
507.50	1135.32
507.86	1158.38
508.22	1181.48
508.59	1204.40
508.95	1228.10
509.31	1252.27
509.67	1276.97
510.03	1301.56
510.39	1326.44
510.75	1351.43
511.12	1376.68
511.48	1401.79
511.84	1426.98
512.20	1452.52
512.56	1478.64
512.92	1504.55
513.28	1529.92
513.64	1555.75
514.00	1581.64
514.37	1607.80
514.73	1633.77
515.09	1659.05
515.45	1684.49
515.81	1709.96
516.17	1735.43
516.53	1760.27
516.89	1785.14
517.25	1810.13
517.61	1834.91
517.97	1859.87
518.33	1884.13
518.69	1908.21
519.05	1932.49
519.41	1956.74
519.77	1980.87
520.13	2004.48
520.49	2028.05
520.85	2051.78
521.21	2074.95
521.57	2098.65
521.93	2121.04
522.29	2143.78
522.65	2166.13
523.01	2188.42
523.37	2209.92
523.73	2231.79
524.09	2253.73
524.45	2275.36
524.81	2296.22
525.17	2316.76
525.53	2336.63
525.89	2357.04
526.25	2376.68
526.61	2395.19
526.97	2413.85
527.33	2432.10
527.68	2449.30
528.04	2465.92
528.40	2481.47
528.76	2497.60
529.12	2512.38
529.48	2527.87
529.84	2542.01
530.20	2557.02
530.56	2570.79
530.91	2584.84
531.27	2597.83
531.63	2609.76
531.99	2621.12
532.35	2631.35
532.71	2641.32
533.07	2651.69
533.42	2660.43
533.78	2669.96
534.14	2680.03
534.50	2688.55
534.86	2697.13
535.21	2703.74
535.57	2710.65
535.93	2717.88
536.29	2723.81
536.65	2729.77
537.00	2733.66
537.36	2737.92
537.72	2740.63
538.08	2743.17
538.44	2744.46
538.79	2746.39
539.15	2747.45
539.51	2748.08
539.87	2748.76
540.22	2747.81
540.58	2747.21
540.94	2746.48
541.29	2744.50
541.65	2740.89
542.01	2737.43
542.37	2732.91
542.72	2730.24
543.08	2725.99
543.44	2721.54
543.79	2715.61
544.15	2709.32
544.51	2703.91
544.87	2696.69
545.22	2688.87
545.58	2680.96
545.94	2673.67
546.29	2664.80
546.65	2655.83
547.01	2646.97
547.36	2637.78
547.72	2628.60
548.07	2617.95
548.43	2607.07
548.79	2595.30
549.14	2584.34
549.50	2573.20
549.86	2561.60
550.21	2548.47
550.57	2536.47
550.92	2522.33
551.28	2509.15
551.64	2496.59
551.99	2483.77
552.35	2470.95
552.70	2458.19
553.06	2445.78
553.41	2432.52
553.77	2418.69
554.13	2404.81
554.48	2390.38
554.84	2375.69
555.19	2361.61
555.55	2347.12
555.90	2332.55
556.26	2318.86
556.61	2304.15
556.97	2288.66
557.32	2273.56
557.68	2258.50
558.03	2243.04
558.39	2228.57
558.74	2214.21
559.10	2198.02
559.45	2182.42
559.81	2167.65
560.16	2152.59
560.52	2137.17
560.87	2122.40
561.23	2107.16
561.58	2092.30
561.94	2076.63
562.29	2061.17
562.64	2045.63
563.00	2030.37
563.35	2015.80
563.71	2000.83
564.06	1985.79
564.42	1971.24
564.77	1956.57
565.12	1942.39
565.48	1928.13
565.83	1914.09
566.19	1899.91
566.54	1886.09
566.89	1871.13
567.25	1855.74
567.60	1841.45
567.96	1826.60
568.31	1811.19
568.66	1796.51
569.02	1782.07
569.37	1767.94
569.72	1753.91
570.08	1739.97
570.43	1725.70
570.78	1710.75
571.14	1695.86
571.49	1681.42
571.84	1667.73
572.20	1652.92
572.55	1638.28
572.90	1623.24
573.26	1607.97
573.61	1592.74
573.96	1578.14
574.31	1564.07
574.67	1550.32
575.02	1535.56
575.37	1520.77
575.72	1506.16
576.08	1491.95
576.43	1477.57
576.78	1463.28
577.13	1449.08
577.49	1435.09
577.84	1421.08
578.19	1407.15
578.54	1393.30
578.90	1379.50
579.25	1365.11
579.60	1351.74
579.95	1338.47
580.30	1325.10
580.66	1311.91
581.01	1298.87
581.36	1285.60
581.71	1272.29
582.06	1258.95
582.42	1245.87
582.77	1233.20
583.12	1220.70
583.47	1208.12
583.82	1195.76
584.17	1183.31
584.53	1171.09
584.88	1158.94
585.23	1146.82
585.58	1134.99
585.93	1123.29
586.28	1112.08
586.63	1100.83
586.98	1089.47
587.34	1078.41
587.69	1067.28
588.04	1056.46
588.39	1045.74
588.74	1034.82
589.09	1024.27
589.44	1013.53
589.79	1003.30
590.14	993.17
590.49	983.15
590.84	973.35
591.19	963.57
591.54	953.87
591.89	943.76
592.25	933.90
592.60	923.99
592.95	914.32
593.30	904.63
593.65	894.82
594.00	885.35
594.35	876.64
594.70	867.36
595.05	858.79
595.40	850.00
595.75	840.95
596.10	832.53
596.45	824.01
596.80	815.73
597.15	807.49
597.50	799.30
597.85	791.38
598.19	783.44
598.54	775.48
598.89	767.75
599.24	760.37
599.59	753.08
599.94	746.28
600.29	739.25
600.64	732.37
600.99	725.42
601.34	718.63
601.69	711.31
602.04	704.61
602.39	697.97
602.74	691.48
603.08	685.22
603.43	678.95
603.78	672.80
604.13	666.74
604.48	660.68
604.83	654.78
605.18	648.95
605.53	643.22
605.87	637.46
606.22	631.88
606.57	626.29
606.92	620.57
607.27	614.95
607.62	609.64
607.96	604.39
608.31	599.48
608.66	594.49
609.01	589.71
609.36	585.06
609.70	580.25
610.05	575.49
610.40	570.82
610.75	566.14
611.10	561.73
611.44	557.22
611.79	552.90
612.14	548.60
612.49	544.22
612.83	540.02
613.18	536.00
613.53	532.05
613.88	528.12
614.22	524.41
614.57	520.58
614.92	516.78
615.27	513.09
615.61	509.45
615.96	505.87
616.31	502.27
616.65	498.71
617.00	495.29
617.35	491.95
617.70	488.69
618.04	485.50
618.39	482.33
618.74	479.33
619.08	476.22
619.43	473.16
619.78	470.22
620.12	467.32
620.47	464.60
620.82	461.85
621.16	459.16
621.51	456.60
621.85	454.10
622.20	451.64
622.55	449.17
622.89	446.73
623.24	444.43
623.59	442.13
623.93	439.94
624.28	437.83
624.62	435.91
624.97	433.97
625.32	431.91
625.66	429.81
626.01	427.76
626.35	425.88
626.70	423.96
627.04	422.20
627.39	420.33
627.73	418.50
628.08	416.77
628.43	415.11
628.77	413.35
629.12	411.72
629.46	410.08
629.81	408.57
630.15	406.93
630.50	405.33
630.84	403.87
631.19	402.40
631.53	400.99
631.88	399.36
632.22	397.82
632.57	396.61
632.91	395.37
633.26	394.20
633.60	392.96
633.95	391.78
634.29	390.49
634.64	389.34
634.98	388.04
635.32	386.88
635.67	385.79
636.01	384.73
636.36	383.71
636.70	382.79
637.05	381.69
637.39	380.76
637.73	379.84
638.08	378.92
638.42	377.99
638.77	376.99
639.11	375.96
639.45	374.98
639.80	373.94
640.14	372.97
640.49	371.97
640.83	371.00
641.17	370.07
641.52	369.14
641.86	368.24
642.20	367.51
642.55	366.60
642.89	365.69
643.23	364.81
643.58	364.02
643.92	363.06
644.26	362.19
644.61	361.40
644.95	360.58
645.29	359.71
645.64	358.81
645.98	357.97
646.32	357.25
646.66	356.49
647.01	355.70
647.35	354.96
647.69	354.19
648.04	353.48
648.38	352.71
648.72	352.02
649.06	351.32
649.41	350.57
649.75	349.86
650.09	349.22
650.43	348.53
650.78	347.80
651.12	347.13
651.46	346.49
651.80	345.83
652.14	345.17
652.49	344.54
652.83	343.90
653.17	343.26
653.51	342.63
653.85	342.07
654.20	341.46
654.54	340.78
654.88	340.16
655.22	339.54
655.56	338.85
655.90	338.18
656.25	337.49
656.59	336.83
656.93	336.27
657.27	335.73
657.61	335.11
657.95	334.56
658.29	333.99
658.64	333.46
658.98	332.82
659.32	332.20
659.66	331.62
660.00	331.06
660.34	330.53
660.68	329.94
661.02	329.30
661.36	328.71
661.70	328.17
662.05	327.64
662.39	327.13
662.73	326.72
663.07	326.30
663.41	325.81
663.75	325.27
664.09	324.72
664.43	324.09
664.77	323.58
665.11	322.97
665.45	322.41
665.79	321.84
666.13	321.30
666.47	320.78
666.81	320.21
667.15	319.62
667.49	319.11
667.83	318.66
668.17	318.16
668.51	317.69
668.85	317.25
669.19	316.86
669.53	316.35
669.87	315.82
670.21	315.31
670.55	314.86
670.89	314.52
671.23	314.05
671.57	313.62
671.91	313.21
672.25	312.82
672.58	312.46
672.92	311.99
673.26	311.58
673.60	311.18
673.94	310.78
674.28	310.41
674.62	310.01
674.96	309.53
675.30	309.12
675.64	308.69
675.97	308.19
676.31	307.66
676.65	307.17
676.99	306.78
677.33	306.29
677.67	305.83
678.01	305.24
678.34	304.79
678.68	304.33
679.02	303.84
679.36	303.38
679.70	302.88
680.04	302.44
680.37	302.01
680.71	301.56
681.05	301.13
681.39	300.67
681.73	300.16
682.06	299.68
682.40	299.23
682.74	298.81
683.08	298.48
683.42	298.03
683.75	297.62
684.09	297.10
684.43	296.64
684.77	296.16
685.10	295.76
685.44	295.34
685.78	294.91
686.12	294.49
686.45	294.03
686.79	293.55
687.13	293.14
687.46	292.66
687.80	292.19
688.14	291.69
688.48	291.25
688.81	290.81
689.15	290.44
689.49	289.99
689.82	289.51
690.16	288.95
690.50	288.49
690.83	288.03
691.17	287.57
691.51	287.12
691.84	286.73
692.18	286.28
692.52	285.80
692.85	285.36
693.19	284.95
693.52	284.53
693.86	284.09
694.20	283.64
694.53	283.20
694.87	282.72
695.21	282.25
695.54	281.82
695.88	281.37
696.21	280.86
696.55	280.39
696.88	279.95
697.22	279.50
697.56	279.08
697.89	278.58
698.23	278.16
698.56	277.71
698.90	277.28
699.23	276.82
699.57	276.41
699.90	275.97
700.24	275.50
700.58	275.09
700.91	274.74
701.25	274.49
701.58	274.17
701.92	273.84
702.25	273.50
702.59	273.09
702.92	272.70
703.26	272.32
703.59	271.93
703.93	271.70
704.26	271.34
704.60	270.94
704.93	270.57
705.26	270.15
705.60	269.81
705.93	269.38
706.27	269.05
706.60	268.71
706.94	268.40
707.27	268.01
707.61	267.63
707.94	267.20
708.27	266.67
708.61	266.22
708.94	265.81
709.28	265.43
709.61	265.06
709.94	264.73
710.28	264.41
710.61	264.10
710.95	263.62
711.28	263.41
711.61	263.10
711.95	262.82
712.28	262.50
712.61	262.16
712.95	261.93
713.28	261.69
713.61	261.32
713.95	260.94
714.28	260.65
714.61	260.32
714.95	260.03
715.28	259.72
715.61	259.43
715.95	259.15
716.28	258.85
716.61	258.59
716.95	258.26
717.28	257.94
717.61	257.62
717.94	257.32
718.28	256.92
718.61	256.63
718.94	256.33
719.27	256.06
719.61	255.82
719.94	255.52
720.27	255.16
720.60	254.92
720.94	254.67
721.27	254.44
721.60	254.22
721.93	253.97
722.27	253.77
722.60	253.55
722.93	253.29
723.26	253.07
723.59	252.82
723.93	252.62
724.26	252.42
724.59	252.19
724.92	251.99
725.25	251.81
725.59	251.59
725.92	251.41
726.25	251.18
726.58	250.96
726.91	250.73
727.24	250.53
727.57	250.31
727.91	250.07
728.24	249.87
728.57	249.64
728.90	249.47
729.23	249.22
729.56	249.09
729.89	248.90
730.22	248.68
730.55	248.49
730.89	248.29
731.22	248.07
731.55	247.88
731.88	247.69
732.21	247.46
732.54	247.26
732.87	247.07
733.20	246.91
733.53	246.73
733.86	246.57
734.19	246.37
734.52	246.22
734.85	246.18
735.18	246.00
735.51	245.88
735.84	245.72
736.17	245.60
736.50	245.33
736.83	245.37
737.16	245.22
737.49	245.07
737.82	244.90
738.15	244.77
738.48	244.61
738.81	244.45
739.14	244.29
739.47	244.13
739.80	243.96
740.13	243.83
740.46	243.65
740.79	243.48
741.12	243.35
741.45	243.18
741.78	242.94
742.11	242.83
742.44	242.65
742.77	242.52
743.10	242.35
743.43	242.23
743.75	241.90
744.08	242.03
744.41	241.88
744.74	241.73
745.07	241.56
745.40	241.48
745.73	241.44
746.06	241.32
746.39	241.22
746.71	241.08
747.04	240.92
747.37	240.80
747.70	240.70
748.03	240.57
748.36	240.47
748.68	240.35
749.01	240.19
749.34	240.08
749.67	239.95
750.00	239.86
750.33	239.86
750.65	239.78
750.98	239.41
751.31	239.31
751.64	239.23
751.97	239.21
752.29	239.09
752.62	238.89
752.95	238.78
753.28	238.65
753.60	238.54
753.93	238.49
754.26	238.40
754.59	238.24
754.91	238.12
755.24	238.01
755.57	237.98
755.90	237.87
756.22	237.76
756.55	237.64
756.88	237.49
757.20	237.29
757.53	237.14
757.86	237.04
758.19	236.96
758.51	236.85
758.84	236.68
759.17	236.58
759.49	236.50
759.82	236.50
760.15	236.43
760.47	236.36
760.80	236.22
761.13	236.17
761.45	236.10
761.78	236.03
762.11	235.95
762.43	235.79
762.76	235.72
763.08	235.66
763.41	235.60
763.74	235.54
764.06	235.45
764.39	235.39
764.71	235.31
765.04	235.21
765.37	235.13
765.69	235.06
766.02	234.98
766.34	234.90
766.67	234.77
767.00	234.73
767.32	234.75
767.65	234.80
767.97	234.71
768.30	234.65
768.62	234.58
768.95	234.50
769.27	234.42
769.60	234.38
769.92	234.29
770.25	234.20
770.57	234.12
770.90	234.07
771.22	234.00
771.55	233.94
771.87	233.89
772.20	233.84
772.52	233.92
772.85	234.08
773.17	234.04
773.50	233.96
773.82	233.88
774.15	233.74
774.47	233.57
774.80	233.52
775.12	233.46
775.45	233.41
775.77	233.38
776.09	233.36
776.42	233.31
776.74	233.32
777.07	233.28
777.39	233.25
777.72	233.19
778.04	233.17
778.36	233.13
778.69	233.10
779.01	233.07
779.33	232.88
779.66	232.64
779.98	232.59
780.31	232.56
780.63	232.60
780.95	232.59
781.28	232.55
781.60	232.50
781.92	232.46
782.25	232.43
782.57	232.39
782.89	232.33
783.22	232.29
783.54	232.22
783.86	232.19
784.19	232.14
784.51	232.17
784.83	232.12
785.16	232.07
785.48	232.04
785.80	232.01
786.12	231.98
786.45	231.94
786.77	231.92
787.09	231.89
787.42	231.79
787.74	231.77
788.06	231.75
788.38	231.72
788.71	231.67
789.03	231.65
789.35	231.64
789.67	231.59
789.99	231.57
790.32	231.52
790.64	231.51
790.96	231.65
791.28	231.56
791.61	231.52
791.93	231.51
792.25	231.47
792.57	231.57
792.89	231.52
793.21	231.51
793.54	231.47
793.86	231.43
794.18	231.42
794.50	231.36
794.82	231.33
795.14	231.32
795.47	231.34
795.79	231.32
796.11	231.25
796.43	231.23
796.75	231.21
797.07	231.21
797.39	231.18
797.71	231.02
798.04	231.02
798.36	231.00
798.68	230.99
799.00	230.98
799.32	230.87
799.64	230.90
799.96	230.88
800.28	230.89
800.60	230.87
800.92	230.85
801.24	230.83
801.56	230.84
801.89	230.81
802.21	230.81
802.53	230.75
802.85	230.78
803.17	230.85
803.49	230.79
803.81	230.76
804.13	230.73
804.45	230.68
804.77	230.67
805.09	230.65
805.41	230.61
805.73	230.57
806.05	230.50
806.37	230.46
806.69	230.43
807.01	230.40
807.33	230.39
807.65	230.32
807.97	230.38
808.28	230.34
808.60	230.32
808.92	230.27
809.24	230.38
809.56	230.33
809.88	230.24
810.20	230.25
810.52	230.27
810.84	230.24
811.16	230.22
811.48	230.19
811.80	230.24
812.12	230.23
812.43	230.26
812.75	230.27
813.07	230.24
813.39	230.24
813.71	230.20
814.03	230.18
814.35	230.18
814.67	230.10
814.98	230.08
815.30	230.07
815.62	230.03
815.94	229.91
816.26	229.92
816.58	229.88
816.89	229.89
817.21	229.83
817.53	229.84
817.85	229.83
818.17	229.83
818.48	229.74
818.80	229.76
