SpectraSuite Data File
++++++++++++++++++++++++++++++++++++
Date: Tue Oct 06 16:09:28 EDT 2015
User: lab3
Dark Spectrum Present: No
Reference Spectrum Present: No
Number of Sampled Component Spectra: 1
Spectrometers: USB2E7196
Integration Time (usec): 66000 (USB2E7196)
Spectra Averaged: 1000 (USB2E7196)
Boxcar Smoothing: 10 (USB2E7196)
Correct for Electrical Dark: No (USB2E7196)
Strobe/Lamp Enabled: No (USB2E7196)
Correct for Detector Non-linearity: No (USB2E7196)
Correct for Stray Light: No (USB2E7196)
Number of Pixels in Processed Spectrum: 2048
>>>>>Begin Processed Spectral Data<<<<<
339.09	0.00
339.48	215.94
339.86	217.47
340.24	218.74
340.63	220.23
341.01	224.15
341.39	222.80
341.78	224.39
342.16	225.63
342.54	226.06
342.93	214.36
343.31	225.19
343.69	225.73
344.07	226.19
344.46	226.64
344.84	227.04
345.22	227.24
345.60	227.53
345.99	227.73
346.37	227.88
346.75	227.99
347.13	228.08
347.52	228.17
347.90	228.29
348.28	228.34
348.66	228.43
349.05	228.42
349.43	228.50
349.81	228.57
350.19	228.63
350.57	228.71
350.96	228.81
351.34	228.92
351.72	229.03
352.10	229.15
352.48	229.22
352.87	229.27
353.25	229.34
353.63	229.38
354.01	229.44
354.39	229.52
354.77	229.61
355.15	229.74
355.54	229.78
355.92	229.78
356.30	229.86
356.68	230.04
357.06	230.12
357.44	230.16
357.82	230.22
358.20	230.44
358.58	230.49
358.97	230.56
359.35	230.65
359.73	230.74
360.11	230.79
360.49	230.86
360.87	230.91
361.25	230.99
361.63	231.10
362.01	231.17
362.39	231.19
362.77	231.24
363.15	231.25
363.53	231.30
363.91	231.34
364.29	231.36
364.67	231.21
365.05	231.23
365.43	231.27
365.81	231.32
366.19	231.27
366.57	231.36
366.95	231.35
367.33	231.30
367.71	231.29
368.09	231.32
368.47	231.31
368.85	231.30
369.23	231.31
369.61	231.23
369.99	231.26
370.37	231.26
370.75	231.38
371.13	231.34
371.51	231.30
371.89	231.28
372.27	231.28
372.65	231.26
373.03	231.22
373.41	231.17
373.78	231.10
374.16	230.98
374.54	230.87
374.92	230.82
375.30	230.79
375.68	230.73
376.06	230.68
376.44	230.63
376.82	230.59
377.19	230.53
377.57	230.49
377.95	230.39
378.33	230.32
378.71	230.12
379.09	230.08
379.47	230.06
379.84	229.99
380.22	229.92
380.60	229.85
380.98	229.81
381.36	229.75
381.73	229.69
382.11	229.67
382.49	229.64
382.87	229.58
383.25	229.53
383.62	229.69
384.00	229.61
384.38	229.56
384.76	229.56
385.13	229.59
385.51	229.55
385.89	229.49
386.27	229.46
386.64	229.47
387.02	229.42
387.40	229.38
387.78	229.36
388.15	229.35
388.53	229.32
388.91	229.30
389.29	229.27
389.66	229.28
390.04	229.23
390.42	229.25
390.79	229.25
391.17	229.24
391.55	229.03
391.92	229.03
392.30	229.05
392.68	229.00
393.05	228.97
393.43	228.97
393.81	228.99
394.18	228.98
394.56	228.99
394.94	229.04
395.31	229.03
395.69	229.11
396.06	229.16
396.44	229.20
396.82	229.22
397.19	229.34
397.57	229.36
397.95	229.45
398.32	229.45
398.70	229.51
399.07	229.62
399.45	229.68
399.82	229.74
400.20	229.81
400.58	229.89
400.95	229.93
401.33	230.06
401.70	230.29
402.08	230.43
402.45	230.56
402.83	230.73
403.20	230.90
403.58	231.04
403.95	231.25
404.33	231.47
404.71	231.69
405.08	232.01
405.46	232.27
405.83	232.54
406.21	232.84
406.58	233.16
406.96	233.49
407.33	233.86
407.70	234.30
408.08	234.88
408.45	235.39
408.83	235.93
409.20	236.44
409.58	236.91
409.95	237.53
410.33	238.22
410.70	238.87
411.08	239.63
411.45	240.44
411.82	241.26
412.20	242.20
412.57	243.30
412.95	244.20
413.32	245.34
413.69	246.53
414.07	247.79
414.44	249.16
414.82	250.56
415.19	252.20
415.56	253.87
415.94	255.61
416.31	257.56
416.68	259.53
417.06	261.80
417.43	263.93
417.81	266.38
418.18	268.87
418.55	271.60
418.93	274.43
419.30	277.40
419.67	280.54
420.04	283.77
420.42	287.16
420.79	291.04
421.16	294.98
421.54	298.94
421.91	303.10
422.28	307.44
422.66	312.10
423.03	316.54
423.40	321.20
423.77	326.18
424.15	331.28
424.52	336.55
424.89	342.24
425.26	347.91
425.64	353.18
426.01	359.06
426.38	365.08
426.75	371.28
427.13	377.64
427.50	384.28
427.87	391.19
428.24	398.12
428.61	404.78
428.99	411.95
429.36	419.84
429.73	427.36
430.10	434.85
430.47	442.51
430.85	450.45
431.22	458.90
431.59	467.55
431.96	475.99
432.33	485.38
432.70	494.33
433.08	504.90
433.45	514.86
433.82	524.70
434.19	535.73
434.56	546.57
434.93	557.09
435.30	567.54
435.68	579.39
436.05	590.96
436.42	602.52
436.79	613.11
437.16	624.58
437.53	636.89
437.90	649.20
438.27	661.31
438.64	674.35
439.01	686.19
439.38	697.08
439.75	707.58
440.13	719.59
440.50	730.98
440.87	740.11
441.24	750.15
441.61	761.16
441.98	769.29
442.35	778.99
442.72	788.85
443.09	798.20
443.46	804.30
443.83	808.99
444.20	812.93
444.57	818.59
444.94	821.99
445.31	825.48
445.68	828.50
446.05	830.82
446.42	830.62
446.79	830.20
447.16	829.89
447.53	829.66
447.90	826.26
448.27	823.00
448.64	817.76
449.01	814.25
449.37	806.74
449.74	799.96
450.11	791.14
450.48	781.41
450.85	771.70
451.22	763.35
451.59	755.13
451.96	747.66
452.33	736.77
452.70	727.13
453.07	715.41
453.43	703.71
453.80	692.25
454.17	681.33
454.54	671.21
454.91	659.76
455.28	648.97
455.65	638.76
456.02	628.00
456.38	619.35
456.75	608.22
457.12	599.25
457.49	590.18
457.86	581.60
458.23	574.04
458.59	565.71
458.96	557.16
459.33	549.65
459.70	542.01
460.07	536.18
460.43	529.29
460.80	522.85
461.17	517.24
461.54	511.19
461.91	505.51
462.27	499.74
462.64	495.03
463.01	489.65
463.38	484.21
463.74	479.30
464.11	474.93
464.48	470.99
464.85	466.76
465.21	463.51
465.58	459.89
465.95	455.78
466.32	452.51
466.68	449.31
467.05	446.04
467.42	442.91
467.78	439.54
468.15	436.46
468.52	434.18
468.88	431.17
469.25	428.45
469.62	426.26
469.98	423.89
470.35	421.77
470.72	419.85
471.08	417.92
471.45	416.30
471.82	414.50
472.18	412.61
472.55	411.37
472.92	409.82
473.28	408.63
473.65	407.35
474.02	406.14
474.38	405.10
474.75	404.50
475.11	403.65
475.48	403.24
475.85	402.81
476.21	402.57
476.58	402.38
476.94	402.55
477.31	402.63
477.67	402.71
478.04	403.02
478.41	403.47
478.77	404.08
479.14	404.46
479.50	405.25
479.87	406.26
480.23	407.22
480.60	408.20
480.96	409.16
481.33	410.59
481.69	412.00
482.06	413.42
482.42	414.73
482.79	416.36
483.15	418.24
483.52	420.37
483.88	422.38
484.25	424.53
484.61	426.78
484.98	429.19
485.34	431.91
485.71	434.75
486.07	437.79
486.44	440.80
486.80	444.18
487.17	447.66
487.53	451.43
487.90	455.39
488.26	459.67
488.62	464.19
488.99	468.71
489.35	473.46
489.72	478.53
490.08	483.88
490.44	489.34
490.81	495.07
491.17	500.90
491.54	507.19
491.90	513.64
492.26	520.49
492.63	527.68
492.99	535.19
493.36	542.86
493.72	550.92
494.08	559.15
494.45	567.77
494.81	576.77
495.17	586.02
495.54	595.77
495.90	605.96
496.26	616.33
496.63	626.98
496.99	638.02
497.35	649.54
497.72	661.35
498.08	673.51
498.44	685.93
498.80	699.11
499.17	712.53
499.53	726.41
499.89	740.72
500.26	755.24
500.62	770.07
500.98	785.70
501.34	801.36
501.71	817.87
502.07	834.63
502.43	851.84
502.79	869.23
503.16	887.12
503.52	905.21
503.88	923.68
504.24	942.59
504.60	961.76
504.97	981.56
505.33	1001.79
505.69	1023.03
506.05	1044.45
506.41	1065.69
506.78	1087.10
507.14	1109.12
507.50	1131.52
507.86	1154.28
508.22	1177.23
508.59	1200.06
508.95	1223.92
509.31	1248.18
509.67	1273.05
510.03	1297.83
510.39	1322.55
510.75	1347.31
511.12	1372.44
511.48	1397.58
511.84	1422.76
512.20	1448.23
512.56	1474.68
512.92	1500.90
513.28	1526.55
513.64	1552.56
514.00	1578.82
514.37	1605.38
514.73	1631.88
515.09	1657.71
515.45	1683.82
515.81	1710.05
516.17	1735.95
516.53	1761.26
516.89	1786.51
517.25	1811.92
517.61	1837.07
517.97	1862.78
518.33	1887.88
518.69	1912.79
519.05	1938.18
519.41	1963.62
519.77	1989.01
520.13	2012.93
520.49	2037.00
520.85	2061.32
521.21	2085.01
521.57	2109.03
521.93	2132.07
522.29	2155.63
522.65	2179.02
523.01	2202.10
523.37	2224.43
523.73	2247.49
524.09	2270.21
524.45	2292.36
524.81	2313.98
525.17	2335.30
525.53	2356.04
525.89	2377.03
526.25	2397.65
526.61	2416.81
526.97	2435.92
527.33	2454.84
527.68	2473.36
528.04	2491.43
528.40	2508.20
528.76	2525.32
529.12	2542.00
529.48	2559.03
529.84	2573.45
530.20	2588.32
530.56	2602.25
530.91	2616.50
531.27	2630.07
531.63	2642.66
531.99	2655.09
532.35	2667.04
532.71	2678.64
533.07	2690.51
533.42	2700.50
533.78	2710.79
534.14	2721.88
534.50	2731.84
534.86	2742.23
535.21	2750.75
535.57	2759.06
535.93	2767.22
536.29	2773.66
536.65	2779.88
537.00	2784.68
537.36	2790.83
537.72	2795.91
538.08	2800.42
538.44	2803.92
538.79	2807.19
539.15	2809.12
539.51	2810.41
539.87	2810.68
540.22	2809.39
540.58	2808.29
540.94	2808.23
541.29	2806.76
541.65	2804.00
542.01	2800.93
542.37	2796.43
542.72	2793.35
543.08	2788.73
543.44	2784.31
543.79	2779.35
544.15	2773.68
544.51	2768.39
544.87	2761.89
545.22	2754.62
545.58	2747.37
545.94	2740.25
546.29	2731.64
546.65	2723.33
547.01	2715.06
547.36	2707.05
547.72	2699.34
548.07	2689.92
548.43	2679.53
548.79	2668.92
549.14	2658.72
549.50	2648.56
549.86	2637.57
550.21	2625.00
550.57	2613.40
550.92	2600.23
551.28	2587.68
551.64	2575.35
551.99	2562.62
552.35	2549.65
552.70	2536.51
553.06	2523.80
553.41	2510.59
553.77	2497.23
554.13	2484.00
554.48	2469.73
554.84	2454.94
555.19	2440.64
555.55	2426.19
555.90	2412.08
556.26	2398.37
556.61	2383.46
556.97	2367.72
557.32	2352.38
557.68	2337.41
558.03	2322.25
558.39	2307.97
558.74	2294.13
559.10	2278.60
559.45	2263.45
559.81	2248.97
560.16	2234.18
560.52	2219.23
560.87	2204.38
561.23	2189.24
561.58	2174.54
561.94	2159.45
562.29	2143.90
562.64	2128.46
563.00	2113.29
563.35	2098.17
563.71	2082.78
564.06	2067.56
564.42	2052.88
564.77	2038.16
565.12	2023.29
565.48	2008.25
565.83	1993.51
566.19	1978.76
566.54	1964.25
566.89	1949.17
567.25	1933.87
567.60	1919.47
567.96	1904.19
568.31	1888.05
568.66	1872.87
569.02	1858.12
569.37	1843.97
569.72	1830.34
570.08	1816.30
570.43	1801.69
570.78	1786.96
571.14	1772.03
571.49	1757.27
571.84	1742.76
572.20	1727.29
572.55	1712.54
572.90	1697.86
573.26	1682.98
573.61	1667.60
573.96	1652.77
574.31	1637.77
574.67	1622.81
575.02	1607.52
575.37	1592.40
575.72	1577.85
576.08	1563.11
576.43	1547.82
576.78	1532.63
577.13	1517.65
577.49	1502.98
577.84	1488.68
578.19	1473.94
578.54	1459.33
578.90	1444.65
579.25	1429.91
579.60	1416.15
579.95	1402.24
580.30	1388.22
580.66	1374.02
581.01	1359.91
581.36	1345.95
581.71	1332.71
582.06	1319.36
582.42	1305.91
582.77	1292.96
583.12	1280.18
583.47	1267.33
583.82	1254.70
584.17	1241.73
584.53	1228.83
584.88	1216.10
585.23	1203.33
585.58	1190.94
585.93	1178.51
586.28	1166.95
586.63	1155.25
586.98	1143.27
587.34	1131.55
587.69	1119.72
588.04	1108.37
588.39	1097.14
588.74	1085.57
589.09	1074.18
589.44	1062.52
589.79	1051.41
590.14	1040.32
590.49	1029.36
590.84	1018.58
591.19	1008.05
591.54	997.61
591.89	986.82
592.25	976.45
592.60	965.90
592.95	955.55
593.30	945.47
593.65	935.14
594.00	925.06
594.35	915.84
594.70	905.97
595.05	896.69
595.40	887.16
595.75	877.56
596.10	868.56
596.45	859.50
596.80	850.79
597.15	842.12
597.50	833.47
597.85	824.94
598.19	816.49
598.54	808.04
598.89	800.07
599.24	792.47
599.59	784.68
599.94	777.47
600.29	770.25
600.64	762.91
600.99	755.51
601.34	748.27
601.69	740.58
602.04	733.69
602.39	726.69
602.74	719.90
603.08	713.28
603.43	706.59
603.78	699.90
604.13	693.33
604.48	686.77
604.83	680.42
605.18	674.17
605.53	668.05
605.87	661.90
606.22	655.83
606.57	649.71
606.92	643.48
607.27	637.32
607.62	631.37
607.96	625.65
608.31	620.29
608.66	614.93
609.01	609.77
609.36	604.64
609.70	599.41
610.05	594.24
610.40	589.19
610.75	584.16
611.10	579.33
611.44	574.52
611.79	569.79
612.14	564.99
612.49	560.30
612.83	555.80
613.18	551.35
613.53	546.91
613.88	542.63
614.22	538.66
614.57	534.61
614.92	530.60
615.27	526.72
615.61	522.76
615.96	518.84
616.31	514.95
616.65	511.16
617.00	507.51
617.35	503.86
617.70	500.25
618.04	496.74
618.39	493.34
618.74	490.13
619.08	486.91
619.43	483.76
619.78	480.57
620.12	477.42
620.47	474.49
620.82	471.55
621.16	468.65
621.51	465.79
621.85	462.93
622.20	460.19
622.55	457.39
622.89	454.66
623.24	452.08
623.59	449.52
623.93	447.04
624.28	444.69
624.62	442.57
624.97	440.43
625.32	438.18
625.66	435.89
626.01	433.60
626.35	431.44
626.70	429.23
627.04	427.19
627.39	425.09
627.73	423.07
628.08	421.13
628.43	419.19
628.77	417.17
629.12	415.30
629.46	413.48
629.81	411.80
630.15	410.02
630.50	408.28
630.84	406.57
631.19	404.92
631.53	403.32
631.88	401.54
632.22	399.88
632.57	398.48
632.91	397.03
633.26	395.63
633.60	394.25
633.95	392.96
634.29	391.56
634.64	390.20
634.98	388.70
635.32	387.40
635.67	386.19
636.01	385.00
636.36	383.82
636.70	382.78
637.05	381.55
637.39	380.46
637.73	379.35
638.08	378.31
638.42	377.31
638.77	376.17
639.11	375.01
639.45	373.86
639.80	372.67
640.14	371.57
640.49	370.47
640.83	369.37
641.17	368.28
641.52	367.25
641.86	366.25
642.20	365.41
642.55	364.37
642.89	363.35
643.23	362.39
643.58	361.54
643.92	360.52
644.26	359.57
644.61	358.68
644.95	357.76
645.29	356.77
645.64	355.74
645.98	354.81
646.32	354.02
646.66	353.17
647.01	352.34
647.35	351.59
647.69	350.80
648.04	350.10
648.38	349.34
648.72	348.59
649.06	347.83
649.41	347.01
649.75	346.25
650.09	345.55
650.43	344.81
650.78	344.04
651.12	343.31
651.46	342.60
651.80	341.90
652.14	341.24
652.49	340.64
652.83	339.96
653.17	339.27
653.51	338.60
653.85	338.01
654.20	337.40
654.54	336.67
654.88	336.00
655.22	335.35
655.56	334.67
655.90	334.03
656.25	333.40
656.59	332.80
656.93	332.24
657.27	331.71
657.61	331.10
657.95	330.54
658.29	329.98
658.64	329.42
658.98	328.82
659.32	328.21
659.66	327.66
660.00	327.14
660.34	326.63
660.68	326.07
661.02	325.43
661.36	324.84
661.70	324.30
662.05	323.77
662.39	323.24
662.73	322.80
663.07	322.38
663.41	321.92
663.75	321.40
664.09	320.89
664.43	320.27
664.77	319.76
665.11	319.18
665.45	318.65
665.79	318.16
666.13	317.64
666.47	317.12
666.81	316.56
667.15	315.97
667.49	315.51
667.83	315.08
668.17	314.64
668.51	314.23
668.85	313.82
669.19	313.44
669.53	312.90
669.87	312.34
670.21	311.79
670.55	311.28
670.89	310.89
671.23	310.45
671.57	310.07
671.91	309.69
672.25	309.35
672.58	309.01
672.92	308.55
673.26	308.20
673.60	307.82
673.94	307.43
674.28	307.08
674.62	306.68
674.96	306.22
675.30	305.83
675.64	305.38
675.97	304.91
676.31	304.43
676.65	304.01
676.99	303.70
677.33	303.26
677.67	302.87
678.01	302.37
678.34	301.94
678.68	301.54
679.02	301.10
679.36	300.66
679.70	300.20
680.04	299.82
680.37	299.42
680.71	299.03
681.05	298.67
681.39	298.25
681.73	297.79
682.06	297.36
682.40	296.96
682.74	296.61
683.08	296.31
683.42	295.92
683.75	295.57
684.09	295.10
684.43	294.71
684.77	294.30
685.10	293.92
685.44	293.53
685.78	293.11
686.12	292.71
686.45	292.31
686.79	291.86
687.13	291.45
687.46	291.00
687.80	290.57
688.14	290.08
688.48	289.67
688.81	289.27
689.15	288.94
689.49	288.51
689.82	288.07
690.16	287.55
690.50	287.10
690.83	286.66
691.17	286.22
691.51	285.80
691.84	285.41
692.18	284.99
692.52	284.52
692.85	284.09
693.19	283.72
693.52	283.29
693.86	282.88
694.20	282.45
694.53	282.03
694.87	281.58
695.21	281.17
695.54	280.75
695.88	280.32
696.21	279.82
696.55	279.39
696.88	278.96
697.22	278.54
697.56	278.16
697.89	277.71
698.23	277.30
698.56	276.87
698.90	276.46
699.23	276.02
699.57	275.65
699.90	275.23
700.24	274.78
700.58	274.42
700.91	274.08
701.25	273.85
701.58	273.55
701.92	273.23
702.25	272.86
702.59	272.47
702.92	272.08
703.26	271.70
703.59	271.31
703.93	271.08
704.26	270.71
704.60	270.33
704.93	269.96
705.26	269.58
705.60	269.25
705.93	268.84
706.27	268.55
706.60	268.23
706.94	267.95
707.27	267.57
707.61	267.19
707.94	266.79
708.27	266.27
708.61	265.84
708.94	265.45
709.28	265.09
709.61	264.74
709.94	264.44
710.28	264.13
710.61	263.82
710.95	263.34
711.28	263.12
711.61	262.79
711.95	262.51
712.28	262.18
712.61	261.84
712.95	261.62
713.28	261.36
713.61	261.00
713.95	260.64
714.28	260.34
714.61	260.02
714.95	259.72
715.28	259.42
715.61	259.14
715.95	258.87
716.28	258.57
716.61	258.31
716.95	258.01
717.28	257.73
717.61	257.45
717.94	257.18
718.28	256.80
718.61	256.52
718.94	256.21
719.27	255.95
719.61	255.70
719.94	255.40
720.27	255.05
720.60	254.80
720.94	254.54
721.27	254.29
721.60	254.07
721.93	253.81
722.27	253.62
722.60	253.37
722.93	253.11
723.26	252.88
723.59	252.62
723.93	252.41
724.26	252.18
724.59	251.94
724.92	251.73
725.25	251.55
725.59	251.32
725.92	251.13
726.25	250.91
726.58	250.69
726.91	250.47
727.24	250.27
727.57	250.06
727.91	249.81
728.24	249.63
728.57	249.41
728.90	249.23
729.23	248.96
729.56	248.84
729.89	248.65
730.22	248.44
730.55	248.23
730.89	248.04
731.22	247.85
731.55	247.66
731.88	247.48
732.21	247.27
732.54	247.08
732.87	246.91
733.20	246.75
733.53	246.59
733.86	246.43
734.19	246.24
734.52	246.10
734.85	246.07
735.18	245.87
735.51	245.77
735.84	245.62
736.17	245.52
736.50	245.26
736.83	245.31
737.16	245.16
737.49	245.00
737.82	244.82
738.15	244.67
738.48	244.51
738.81	244.35
739.14	244.18
739.47	244.01
739.80	243.83
740.13	243.68
740.46	243.49
740.79	243.31
741.12	243.16
741.45	242.97
741.78	242.72
742.11	242.61
742.44	242.40
742.77	242.28
743.10	242.09
743.43	241.93
743.75	241.59
744.08	241.72
744.41	241.57
744.74	241.43
745.07	241.26
745.40	241.17
745.73	241.10
746.06	240.97
746.39	240.87
746.71	240.75
747.04	240.60
747.37	240.47
747.70	240.37
748.03	240.25
748.36	240.16
748.68	240.03
749.01	239.87
749.34	239.76
749.67	239.64
750.00	239.56
750.33	239.57
750.65	239.48
750.98	239.10
751.31	239.02
751.64	238.92
751.97	238.91
752.29	238.79
752.62	238.60
752.95	238.49
753.28	238.36
753.60	238.24
753.93	238.18
754.26	238.09
754.59	237.93
754.91	237.81
755.24	237.69
755.57	237.61
755.90	237.50
756.22	237.37
756.55	237.24
756.88	237.09
757.20	236.88
757.53	236.73
757.86	236.64
758.19	236.54
758.51	236.45
758.84	236.27
759.17	236.14
759.49	236.06
759.82	236.06
760.15	235.99
760.47	235.89
760.80	235.75
761.13	235.70
761.45	235.61
761.78	235.53
762.11	235.44
762.43	235.33
762.76	235.25
763.08	235.21
763.41	235.15
763.74	235.08
764.06	235.00
764.39	234.93
764.71	234.84
765.04	234.75
765.37	234.66
765.69	234.59
766.02	234.53
766.34	234.45
766.67	234.31
767.00	234.26
767.32	234.29
767.65	234.34
767.97	234.24
768.30	234.21
768.62	234.14
768.95	234.04
769.27	233.99
769.60	233.96
769.92	233.85
770.25	233.77
770.57	233.69
770.90	233.61
771.22	233.55
771.55	233.50
771.87	233.45
772.20	233.39
772.52	233.48
772.85	233.63
773.17	233.58
773.50	233.51
773.82	233.44
774.15	233.30
774.47	233.14
774.80	233.07
775.12	233.01
775.45	232.96
775.77	232.93
776.09	232.89
776.42	232.83
776.74	232.84
777.07	232.79
777.39	232.75
777.72	232.71
778.04	232.68
778.36	232.63
778.69	232.60
779.01	232.58
779.33	232.38
779.66	232.14
779.98	232.09
780.31	232.07
780.63	232.11
780.95	232.10
781.28	232.06
781.60	232.02
781.92	231.99
782.25	231.95
782.57	231.93
782.89	231.88
783.22	231.85
783.54	231.79
783.86	231.79
784.19	231.75
784.51	231.78
784.83	231.72
785.16	231.69
785.48	231.66
785.80	231.61
786.12	231.61
786.45	231.58
786.77	231.56
787.09	231.52
787.42	231.44
787.74	231.41
788.06	231.38
788.38	231.36
788.71	231.31
789.03	231.30
789.35	231.28
789.67	231.25
789.99	231.22
790.32	231.18
790.64	231.16
790.96	231.30
791.28	231.22
791.61	231.19
791.93	231.17
792.25	231.12
792.57	231.23
792.89	231.17
793.21	231.16
793.54	231.12
793.86	231.07
794.18	231.04
794.50	230.97
794.82	230.95
795.14	230.97
795.47	230.98
795.79	230.96
796.11	230.90
796.43	230.86
796.75	230.84
797.07	230.84
797.39	230.80
797.71	230.64
798.04	230.63
798.36	230.63
798.68	230.61
799.00	230.62
799.32	230.50
799.64	230.53
799.96	230.50
800.28	230.51
800.60	230.50
800.92	230.50
801.24	230.49
801.56	230.48
801.89	230.43
802.21	230.42
802.53	230.37
802.85	230.39
803.17	230.45
803.49	230.40
803.81	230.35
804.13	230.33
804.45	230.28
804.77	230.27
805.09	230.25
805.41	230.21
805.73	230.14
806.05	230.08
806.37	230.04
806.69	230.01
807.01	229.99
807.33	229.98
807.65	229.90
807.97	229.95
808.28	229.92
808.60	229.90
808.92	229.85
809.24	229.94
809.56	229.90
809.88	229.82
810.20	229.81
810.52	229.83
810.84	229.80
811.16	229.77
811.48	229.74
811.80	229.78
812.12	229.77
812.43	229.82
812.75	229.82
813.07	229.78
813.39	229.78
813.71	229.74
814.03	229.71
814.35	229.71
814.67	229.63
814.98	229.59
815.30	229.58
815.62	229.55
815.94	229.43
816.26	229.43
816.58	229.39
816.89	229.40
817.21	229.34
817.53	229.35
817.85	229.34
818.17	229.32
818.48	229.25
818.80	229.26
