SpectraSuite Data File
++++++++++++++++++++++++++++++++++++
Date: Tue Oct 06 20:07:08 EDT 2015
User: lab3
Dark Spectrum Present: No
Reference Spectrum Present: No
Number of Sampled Component Spectra: 1
Spectrometers: USB2E7196
Integration Time (usec): 66000 (USB2E7196)
Spectra Averaged: 5000 (USB2E7196)
Boxcar Smoothing: 10 (USB2E7196)
Correct for Electrical Dark: No (USB2E7196)
Strobe/Lamp Enabled: No (USB2E7196)
Correct for Detector Non-linearity: No (USB2E7196)
Correct for Stray Light: No (USB2E7196)
Number of Pixels in Processed Spectrum: 2048
>>>>>Begin Processed Spectral Data<<<<<
339.09	0.00
339.48	214.79
339.86	216.26
340.24	217.58
340.63	219.08
341.01	223.14
341.39	221.72
341.78	223.27
342.16	224.59
342.54	224.87
342.93	213.32
343.31	224.10
343.69	224.64
344.07	225.11
344.46	225.55
344.84	225.96
345.22	226.16
345.60	226.44
345.99	226.64
346.37	226.79
346.75	226.91
347.13	227.00
347.52	227.08
347.90	227.21
348.28	227.26
348.66	227.34
349.05	227.33
349.43	227.41
349.81	227.49
350.19	227.56
350.57	227.63
350.96	227.73
351.34	227.84
351.72	227.95
352.10	228.07
352.48	228.14
352.87	228.19
353.25	228.26
353.63	228.32
354.01	228.38
354.39	228.46
354.77	228.54
355.15	228.66
355.54	228.70
355.92	228.71
356.30	228.79
356.68	228.98
357.06	229.06
357.44	229.09
357.82	229.15
358.20	229.36
358.58	229.43
358.97	229.49
359.35	229.59
359.73	229.68
360.11	229.73
360.49	229.79
360.87	229.84
361.25	229.91
361.63	230.01
362.01	230.07
362.39	230.10
362.77	230.16
363.15	230.18
363.53	230.22
363.91	230.26
364.29	230.28
364.67	230.13
365.05	230.16
365.43	230.20
365.81	230.24
366.19	230.19
366.57	230.27
366.95	230.27
367.33	230.23
367.71	230.22
368.09	230.24
368.47	230.24
368.85	230.23
369.23	230.26
369.61	230.18
369.99	230.21
370.37	230.22
370.75	230.34
371.13	230.30
371.51	230.26
371.89	230.25
372.27	230.23
372.65	230.21
373.03	230.17
373.41	230.13
373.78	230.07
374.16	229.94
374.54	229.85
374.92	229.79
375.30	229.76
375.68	229.69
376.06	229.65
376.44	229.59
376.82	229.56
377.19	229.51
377.57	229.47
377.95	229.36
378.33	229.30
378.71	229.09
379.09	229.05
379.47	229.04
379.84	228.97
380.22	228.90
380.60	228.83
380.98	228.79
381.36	228.74
381.73	228.67
382.11	228.66
382.49	228.63
382.87	228.57
383.25	228.52
383.62	228.69
384.00	228.61
384.38	228.57
384.76	228.57
385.13	228.59
385.51	228.56
385.89	228.51
386.27	228.48
386.64	228.48
387.02	228.43
387.40	228.38
387.78	228.36
388.15	228.35
388.53	228.32
388.91	228.29
389.29	228.26
389.66	228.27
390.04	228.23
390.42	228.24
390.79	228.24
391.17	228.24
391.55	228.03
391.92	228.03
392.30	228.04
392.68	228.00
393.05	227.98
393.43	227.99
393.81	228.01
394.18	227.99
394.56	228.00
394.94	228.06
395.31	228.06
395.69	228.14
396.06	228.18
396.44	228.23
396.82	228.25
397.19	228.38
397.57	228.41
397.95	228.48
398.32	228.48
398.70	228.55
399.07	228.64
399.45	228.71
399.82	228.78
400.20	228.84
400.58	228.93
400.95	228.95
401.33	229.08
401.70	229.31
402.08	229.45
402.45	229.58
402.83	229.74
403.20	229.91
403.58	230.04
403.95	230.25
404.33	230.47
404.71	230.68
405.08	230.99
405.46	231.24
405.83	231.50
406.21	231.80
406.58	232.12
406.96	232.44
407.33	232.81
407.70	233.23
408.08	233.80
408.45	234.29
408.83	234.83
409.20	235.32
409.58	235.77
409.95	236.39
410.33	237.06
410.70	237.70
411.08	238.44
411.45	239.24
411.82	240.05
412.20	240.97
412.57	242.06
412.95	242.93
413.32	244.06
413.69	245.22
414.07	246.47
414.44	247.81
414.82	249.19
415.19	250.79
415.56	252.43
415.94	254.14
416.31	256.05
416.68	257.97
417.06	260.20
417.43	262.28
417.81	264.68
418.18	267.13
418.55	269.80
418.93	272.57
419.30	275.48
419.67	278.55
420.04	281.71
420.42	285.02
420.79	288.83
421.16	292.68
421.54	296.58
421.91	300.66
422.28	304.91
422.66	309.47
423.03	313.81
423.40	318.35
423.77	323.23
424.15	328.22
424.52	333.38
424.89	338.97
425.26	344.51
425.64	349.66
426.01	355.43
426.38	361.32
426.75	367.39
427.13	373.59
427.50	380.08
427.87	386.83
428.24	393.62
428.61	400.12
428.99	407.13
429.36	414.83
429.73	422.17
430.10	429.48
430.47	436.98
430.85	444.72
431.22	452.96
431.59	461.42
431.96	469.68
432.33	478.85
432.70	487.57
433.08	497.89
433.45	507.62
433.82	517.24
434.19	528.02
434.56	538.63
434.93	548.93
435.30	559.14
435.68	570.71
436.05	582.01
436.42	593.34
436.79	603.70
437.16	614.97
437.53	627.00
437.90	639.04
438.27	650.87
438.64	663.65
439.01	675.25
439.38	685.88
439.75	696.19
440.13	707.91
440.50	719.09
440.87	728.04
441.24	737.89
441.61	748.66
441.98	756.64
442.35	766.15
442.72	775.82
443.09	785.02
443.46	791.06
443.83	795.69
444.20	799.53
444.57	805.06
444.94	808.38
445.31	811.83
445.68	814.84
446.05	817.13
446.42	816.97
446.79	816.58
447.16	816.32
447.53	816.10
447.90	812.81
448.27	809.69
448.64	804.63
449.01	801.22
449.37	793.92
449.74	787.30
450.11	778.67
450.48	769.16
450.85	759.63
451.22	751.46
451.59	743.37
451.96	736.07
452.33	725.45
452.70	716.01
453.07	704.52
453.43	693.03
453.80	681.81
454.17	671.06
454.54	661.14
454.91	649.92
455.28	639.32
455.65	629.32
456.02	618.71
456.38	610.17
456.75	599.23
457.12	590.39
457.49	581.48
457.86	573.04
458.23	565.60
458.59	557.41
458.96	549.00
459.33	541.62
459.70	534.10
460.07	528.35
460.43	521.58
460.80	515.25
461.17	509.75
461.54	503.82
461.91	498.23
462.27	492.56
462.64	487.92
463.01	482.61
463.38	477.26
463.74	472.44
464.11	468.15
464.48	464.26
464.85	460.09
465.21	456.89
465.58	453.33
465.95	449.31
466.32	446.10
466.68	442.97
467.05	439.81
467.42	436.72
467.78	433.43
468.15	430.39
468.52	428.16
468.88	425.21
469.25	422.51
469.62	420.38
469.98	418.06
470.35	415.99
470.72	414.11
471.08	412.23
471.45	410.64
471.82	408.86
472.18	407.00
472.55	405.80
472.92	404.30
473.28	403.13
473.65	401.88
474.02	400.66
474.38	399.63
474.75	399.02
475.11	398.19
475.48	397.79
475.85	397.36
476.21	397.10
476.58	396.91
476.94	397.06
477.31	397.09
477.67	397.16
478.04	397.45
478.41	397.86
478.77	398.45
479.14	398.81
479.50	399.57
479.87	400.54
480.23	401.48
480.60	402.39
480.96	403.30
481.33	404.70
481.69	406.07
482.06	407.43
482.42	408.66
482.79	410.22
483.15	412.04
483.52	414.09
483.88	416.04
484.25	418.11
484.61	420.29
484.98	422.65
485.34	425.30
485.71	428.07
486.07	431.02
486.44	433.94
486.80	437.22
487.17	440.59
487.53	444.25
487.90	448.08
488.26	452.26
488.62	456.65
488.99	461.03
489.35	465.64
489.72	470.60
490.08	475.82
490.44	481.15
490.81	486.71
491.17	492.43
491.54	498.57
491.90	504.84
492.26	511.54
492.63	518.56
492.99	525.91
493.36	533.39
493.72	541.26
494.08	549.34
494.45	557.80
494.81	566.67
495.17	575.78
495.54	585.39
495.90	595.42
496.26	605.64
496.63	616.16
496.99	627.09
497.35	638.51
497.72	650.21
498.08	662.26
498.44	674.62
498.80	687.68
499.17	701.01
499.53	714.82
499.89	729.06
500.26	743.51
500.62	758.30
500.98	773.95
501.34	789.64
501.71	806.14
502.07	822.92
502.43	840.19
502.79	857.64
503.16	875.60
503.52	893.78
503.88	912.39
504.24	931.45
504.60	950.78
504.97	970.75
505.33	991.21
505.69	1012.71
506.05	1034.47
506.41	1056.13
506.78	1077.95
507.14	1100.37
507.50	1123.26
507.86	1146.54
508.22	1170.08
508.59	1193.53
508.95	1218.03
509.31	1243.02
509.67	1268.66
510.03	1294.21
510.39	1319.73
510.75	1345.36
511.12	1371.43
511.48	1397.65
511.84	1423.92
512.20	1450.57
512.56	1478.27
512.92	1505.78
513.28	1532.72
513.64	1560.08
514.00	1587.85
514.37	1615.90
514.73	1643.98
515.09	1671.40
515.45	1699.17
515.81	1727.15
516.17	1754.91
516.53	1782.02
516.89	1808.94
517.25	1836.22
517.61	1863.26
517.97	1891.04
518.33	1918.25
518.69	1945.33
519.05	1972.90
519.41	2000.61
519.77	2028.34
520.13	2054.57
520.49	2080.88
520.85	2107.58
521.21	2133.69
521.57	2160.10
521.93	2185.53
522.29	2211.62
522.65	2237.62
523.01	2263.29
523.37	2288.20
523.73	2313.86
524.09	2339.31
524.45	2364.46
524.81	2388.95
525.17	2413.41
525.53	2436.99
525.89	2460.95
526.25	2484.61
526.61	2506.57
526.97	2528.64
527.33	2550.56
527.68	2572.28
528.04	2593.64
528.40	2613.76
528.76	2634.07
529.12	2653.92
529.48	2674.40
529.84	2692.05
530.20	2710.14
530.56	2727.38
530.91	2744.93
531.27	2761.85
531.63	2777.76
531.99	2793.49
532.35	2808.92
532.71	2823.90
533.07	2839.22
533.42	2852.58
533.78	2866.24
534.14	2880.99
534.50	2894.53
534.86	2908.50
535.21	2920.32
535.57	2931.97
535.93	2943.43
536.29	2952.97
536.65	2962.46
537.00	2970.49
537.36	2980.01
537.72	2988.49
538.08	2996.51
538.44	3003.29
538.79	3009.77
539.15	3014.90
539.51	3019.17
539.87	3022.20
540.22	3023.67
540.58	3025.47
540.94	3028.13
541.29	3029.45
541.65	3029.44
542.01	3029.02
542.37	3026.95
542.72	3026.52
543.08	3024.29
543.44	3022.30
543.79	3020.07
544.15	3016.95
544.51	3013.92
544.87	3009.83
545.22	3004.73
545.58	2999.47
545.94	2994.36
546.29	2987.69
546.65	2981.26
547.01	2975.06
547.36	2969.37
547.72	2963.74
548.07	2956.30
548.43	2947.72
548.79	2938.90
549.14	2930.31
549.50	2921.76
549.86	2912.26
550.21	2901.06
550.57	2891.14
550.92	2879.30
551.28	2867.84
551.64	2856.73
551.99	2845.30
552.35	2833.35
552.70	2821.30
553.06	2809.70
553.41	2797.64
553.77	2785.42
554.13	2773.15
554.48	2759.63
554.84	2745.18
555.19	2731.21
555.55	2717.14
555.90	2703.56
556.26	2690.24
556.61	2675.73
556.97	2660.16
557.32	2645.16
557.68	2630.46
558.03	2615.36
558.39	2601.31
558.74	2587.85
559.10	2572.35
559.45	2556.99
559.81	2542.36
560.16	2527.36
560.52	2512.04
560.87	2496.95
561.23	2481.37
561.58	2466.46
561.94	2451.05
562.29	2435.11
562.64	2419.32
563.00	2403.63
563.35	2388.01
563.71	2372.04
564.06	2356.20
564.42	2340.93
564.77	2325.65
565.12	2310.03
565.48	2294.11
565.83	2278.41
566.19	2262.62
566.54	2247.14
566.89	2231.15
567.25	2215.05
567.60	2199.80
567.96	2183.75
568.31	2166.36
568.66	2149.99
569.02	2134.09
569.37	2118.82
569.72	2104.21
570.08	2089.05
570.43	2073.28
570.78	2057.31
571.14	2041.16
571.49	2025.02
571.84	2009.18
572.20	1992.05
572.55	1975.79
572.90	1959.67
573.26	1943.49
573.61	1926.68
573.96	1910.39
574.31	1893.90
574.67	1877.15
575.02	1860.11
575.37	1843.15
575.72	1827.00
576.08	1810.43
576.43	1793.18
576.78	1776.10
577.13	1759.24
577.49	1742.64
577.84	1726.55
578.19	1709.96
578.54	1693.42
578.90	1676.74
579.25	1659.91
579.60	1644.38
579.95	1628.52
580.30	1612.54
580.66	1596.29
581.01	1580.13
581.36	1564.11
581.71	1548.95
582.06	1533.77
582.42	1518.39
582.77	1503.51
583.12	1488.83
583.47	1474.19
583.82	1459.70
584.17	1444.68
584.53	1429.71
584.88	1415.08
585.23	1400.25
585.58	1385.86
585.93	1371.36
586.28	1357.96
586.63	1344.36
586.98	1330.27
587.34	1316.59
587.69	1302.76
588.04	1289.28
588.39	1276.09
588.74	1262.45
589.09	1248.98
589.44	1235.20
589.79	1222.01
590.14	1208.88
590.49	1195.81
590.84	1182.98
591.19	1170.53
591.54	1158.19
591.89	1145.42
592.25	1133.01
592.60	1120.47
592.95	1108.08
593.30	1096.12
593.65	1083.81
594.00	1071.80
594.35	1060.76
594.70	1048.97
595.05	1037.83
595.40	1026.50
595.75	1015.02
596.10	1004.21
596.45	993.37
596.80	982.94
597.15	972.50
597.50	962.04
597.85	951.86
598.19	941.69
598.54	931.51
598.89	921.92
599.24	912.72
599.59	903.30
599.94	894.58
600.29	885.85
600.64	876.91
600.99	867.84
601.34	859.11
601.69	849.84
602.04	841.56
602.39	833.14
602.74	824.92
603.08	816.86
603.43	808.76
603.78	800.65
604.13	792.60
604.48	784.62
604.83	776.85
605.18	769.18
605.53	761.65
605.87	754.08
606.22	746.63
606.57	739.10
606.92	731.50
607.27	723.94
607.62	716.59
607.96	709.53
608.31	702.98
608.66	696.34
609.01	689.97
609.36	683.55
609.70	677.07
610.05	670.61
610.40	664.36
610.75	658.08
611.10	652.03
611.44	645.99
611.79	640.08
612.14	634.09
612.49	628.19
612.83	622.60
613.18	617.05
613.53	611.50
613.88	606.12
614.22	601.12
614.57	596.03
614.92	591.03
615.27	586.19
615.61	581.19
615.96	576.24
616.31	571.31
616.65	566.53
617.00	561.89
617.35	557.33
617.70	552.77
618.04	548.34
618.39	544.03
618.74	539.98
619.08	535.89
619.43	531.92
619.78	527.90
620.12	523.86
620.47	520.05
620.82	516.35
621.16	512.67
621.51	509.01
621.85	505.37
622.20	501.83
622.55	498.24
622.89	494.71
623.24	491.38
623.59	488.10
623.93	484.91
624.28	481.86
624.62	479.00
624.97	476.16
625.32	473.24
625.66	470.26
626.01	467.28
626.35	464.47
626.70	461.59
627.04	458.94
627.39	456.24
627.73	453.60
628.08	451.03
628.43	448.48
628.77	445.87
629.12	443.38
629.46	440.98
629.81	438.73
630.15	436.42
630.50	434.12
630.84	431.88
631.19	429.68
631.53	427.57
631.88	425.30
632.22	423.11
632.57	421.23
632.91	419.30
633.26	417.46
633.60	415.63
633.95	413.90
634.29	412.01
634.64	410.21
634.98	408.30
635.32	406.56
635.67	404.99
636.01	403.41
636.36	401.89
636.70	400.45
637.05	398.84
637.39	397.40
637.73	395.95
638.08	394.58
638.42	393.23
638.77	391.76
639.11	390.25
639.45	388.81
639.80	387.31
640.14	385.91
640.49	384.50
640.83	383.09
641.17	381.73
641.52	380.41
641.86	379.14
642.20	378.00
642.55	376.69
642.89	375.39
643.23	374.17
643.58	373.07
643.92	371.82
644.26	370.67
644.61	369.54
644.95	368.39
645.29	367.17
645.64	365.93
645.98	364.82
646.32	363.83
646.66	362.77
647.01	361.75
647.35	360.81
647.69	359.84
648.04	358.94
648.38	357.97
648.72	357.06
649.06	356.14
649.41	355.20
649.75	354.30
650.09	353.44
650.43	352.56
650.78	351.64
651.12	350.78
651.46	349.92
651.80	349.09
652.14	348.31
652.49	347.59
652.83	346.81
653.17	345.99
653.51	345.22
653.85	344.55
654.20	343.83
654.54	343.01
654.88	342.23
655.22	341.52
655.56	340.77
655.90	340.06
656.25	339.35
656.59	338.68
656.93	338.04
657.27	337.45
657.61	336.78
657.95	336.17
658.29	335.53
658.64	334.93
658.98	334.27
659.32	333.62
659.66	332.99
660.00	332.43
660.34	331.86
660.68	331.23
661.02	330.54
661.36	329.92
661.70	329.34
662.05	328.77
662.39	328.20
662.73	327.72
663.07	327.28
663.41	326.81
663.75	326.27
664.09	325.73
664.43	325.08
664.77	324.53
665.11	323.94
665.45	323.41
665.79	322.88
666.13	322.35
666.47	321.79
666.81	321.22
667.15	320.60
667.49	320.12
667.83	319.69
668.17	319.23
668.51	318.80
668.85	318.37
669.19	318.00
669.53	317.46
669.87	316.90
670.21	316.34
670.55	315.81
670.89	315.39
671.23	314.94
671.57	314.55
671.91	314.20
672.25	313.85
672.58	313.51
672.92	313.07
673.26	312.72
673.60	312.37
673.94	312.00
674.28	311.66
674.62	311.29
674.96	310.84
675.30	310.45
675.64	310.01
675.97	309.55
676.31	309.08
676.65	308.66
676.99	308.34
677.33	307.90
677.67	307.51
678.01	307.03
678.34	306.61
678.68	306.22
679.02	305.77
679.36	305.32
679.70	304.86
680.04	304.47
680.37	304.05
680.71	303.66
681.05	303.30
681.39	302.88
681.73	302.42
682.06	302.00
682.40	301.61
682.74	301.25
683.08	300.95
683.42	300.58
683.75	300.23
684.09	299.76
684.43	299.38
684.77	298.96
685.10	298.58
685.44	298.19
685.78	297.78
686.12	297.37
686.45	296.96
686.79	296.52
687.13	296.11
687.46	295.66
687.80	295.25
688.14	294.77
688.48	294.35
688.81	293.93
689.15	293.57
689.49	293.12
689.82	292.68
690.16	292.13
690.50	291.67
690.83	291.22
691.17	290.77
691.51	290.33
691.84	289.94
692.18	289.49
692.52	289.02
692.85	288.58
693.19	288.20
693.52	287.76
693.86	287.33
694.20	286.89
694.53	286.46
694.87	285.99
695.21	285.54
695.54	285.09
695.88	284.63
696.21	284.13
696.55	283.67
696.88	283.22
697.22	282.80
697.56	282.39
697.89	281.91
698.23	281.49
698.56	281.04
698.90	280.62
699.23	280.15
699.57	279.75
699.90	279.31
700.24	278.84
700.58	278.43
700.91	278.07
701.25	277.82
701.58	277.50
701.92	277.15
702.25	276.78
702.59	276.36
702.92	275.96
703.26	275.55
703.59	275.14
703.93	274.87
704.26	274.49
704.60	274.07
704.93	273.68
705.26	273.26
705.60	272.90
705.93	272.46
706.27	272.14
706.60	271.80
706.94	271.47
707.27	271.05
707.61	270.66
707.94	270.22
708.27	269.66
708.61	269.19
708.94	268.77
709.28	268.37
709.61	267.99
709.94	267.65
710.28	267.31
710.61	266.97
710.95	266.45
711.28	266.21
711.61	265.85
711.95	265.53
712.28	265.17
712.61	264.79
712.95	264.54
713.28	264.25
713.61	263.86
713.95	263.46
714.28	263.13
714.61	262.77
714.95	262.44
715.28	262.10
715.61	261.78
715.95	261.48
716.28	261.15
716.61	260.87
716.95	260.53
717.28	260.21
717.61	259.90
717.94	259.60
718.28	259.18
718.61	258.87
718.94	258.54
719.27	258.25
719.61	257.98
719.94	257.64
720.27	257.27
720.60	256.99
720.94	256.70
721.27	256.42
721.60	256.19
721.93	255.91
722.27	255.67
722.60	255.40
722.93	255.10
723.26	254.85
723.59	254.54
723.93	254.30
724.26	254.06
724.59	253.78
724.92	253.55
725.25	253.36
725.59	253.11
725.92	252.88
726.25	252.64
726.58	252.39
726.91	252.14
727.24	251.92
727.57	251.67
727.91	251.40
728.24	251.20
728.57	250.94
728.90	250.73
729.23	250.45
729.56	250.32
729.89	250.10
730.22	249.86
730.55	249.65
730.89	249.42
731.22	249.20
731.55	248.99
731.88	248.78
732.21	248.54
732.54	248.32
732.87	248.12
733.20	247.93
733.53	247.75
733.86	247.57
734.19	247.36
734.52	247.20
734.85	247.15
735.18	246.93
735.51	246.81
735.84	246.64
736.17	246.51
736.50	246.24
736.83	246.27
737.16	246.10
737.49	245.92
737.82	245.73
738.15	245.57
738.48	245.40
738.81	245.20
739.14	245.02
739.47	244.84
739.80	244.65
740.13	244.49
740.46	244.29
740.79	244.09
741.12	243.91
741.45	243.71
741.78	243.44
742.11	243.31
742.44	243.09
742.77	242.95
743.10	242.75
743.43	242.58
743.75	242.23
744.08	242.35
744.41	242.18
744.74	242.02
745.07	241.83
745.40	241.72
745.73	241.65
746.06	241.51
746.39	241.39
746.71	241.24
747.04	241.07
747.37	240.92
747.70	240.81
748.03	240.68
748.36	240.57
748.68	240.43
749.01	240.24
749.34	240.12
749.67	239.98
750.00	239.87
750.33	239.88
750.65	239.76
750.98	239.37
751.31	239.26
751.64	239.16
751.97	239.13
752.29	238.99
752.62	238.78
752.95	238.65
753.28	238.51
753.60	238.38
753.93	238.30
754.26	238.20
754.59	238.04
754.91	237.90
755.24	237.77
755.57	237.66
755.90	237.54
756.22	237.40
756.55	237.26
756.88	237.11
757.20	236.88
757.53	236.72
757.86	236.60
758.19	236.50
758.51	236.38
758.84	236.18
759.17	236.06
759.49	235.97
759.82	235.95
760.15	235.87
760.47	235.77
760.80	235.62
761.13	235.54
761.45	235.45
761.78	235.36
762.11	235.27
762.43	235.15
762.76	235.06
763.08	234.99
763.41	234.92
763.74	234.85
764.06	234.76
764.39	234.68
764.71	234.59
765.04	234.49
765.37	234.40
765.69	234.31
766.02	234.23
766.34	234.14
766.67	234.00
767.00	233.95
767.32	233.97
767.65	234.01
767.97	233.92
768.30	233.86
768.62	233.79
768.95	233.70
769.27	233.63
769.60	233.59
769.92	233.49
770.25	233.39
770.57	233.29
770.90	233.22
771.22	233.14
771.55	233.09
771.87	233.04
772.20	232.98
772.52	233.07
772.85	233.23
773.17	233.16
773.50	233.09
773.82	233.00
774.15	232.85
774.47	232.68
774.80	232.61
775.12	232.54
775.45	232.49
775.77	232.45
776.09	232.41
776.42	232.36
776.74	232.36
777.07	232.31
777.39	232.28
777.72	232.22
778.04	232.20
778.36	232.13
778.69	232.08
779.01	232.05
779.33	231.85
779.66	231.60
779.98	231.55
780.31	231.51
780.63	231.54
780.95	231.54
781.28	231.49
781.60	231.44
781.92	231.40
782.25	231.36
782.57	231.31
782.89	231.26
783.22	231.21
783.54	231.13
783.86	231.11
784.19	231.07
784.51	231.09
784.83	231.03
785.16	230.99
785.48	230.96
785.80	230.93
786.12	230.91
786.45	230.87
786.77	230.85
787.09	230.81
787.42	230.71
787.74	230.68
788.06	230.67
788.38	230.63
788.71	230.59
789.03	230.57
789.35	230.56
789.67	230.51
789.99	230.50
790.32	230.44
790.64	230.43
790.96	230.57
791.28	230.48
791.61	230.44
791.93	230.43
792.25	230.39
792.57	230.49
792.89	230.43
793.21	230.42
793.54	230.37
793.86	230.32
794.18	230.31
794.50	230.25
794.82	230.22
795.14	230.22
795.47	230.23
795.79	230.20
796.11	230.14
796.43	230.11
796.75	230.09
797.07	230.07
797.39	230.03
797.71	229.86
798.04	229.85
798.36	229.84
798.68	229.81
799.00	229.80
799.32	229.68
799.64	229.69
799.96	229.66
800.28	229.68
800.60	229.65
800.92	229.64
801.24	229.62
801.56	229.61
801.89	229.58
802.21	229.56
802.53	229.51
802.85	229.53
803.17	229.60
803.49	229.54
803.81	229.51
804.13	229.48
804.45	229.44
804.77	229.43
805.09	229.41
805.41	229.38
805.73	229.33
806.05	229.26
806.37	229.23
806.69	229.20
807.01	229.16
807.33	229.15
807.65	229.07
807.97	229.14
808.28	229.10
808.60	229.07
808.92	229.03
809.24	229.13
809.56	229.08
809.88	229.00
810.20	228.99
810.52	229.02
810.84	228.98
811.16	228.95
811.48	228.92
811.80	228.97
812.12	228.95
812.43	228.97
812.75	228.98
813.07	228.94
813.39	228.94
813.71	228.91
814.03	228.87
814.35	228.87
814.67	228.79
814.98	228.76
815.30	228.75
815.62	228.71
815.94	228.58
816.26	228.58
816.58	228.54
816.89	228.54
817.21	228.48
817.53	228.49
817.85	228.49
818.17	228.47
818.48	228.39
