SpectraSuite Data File
++++++++++++++++++++++++++++++++++++
Date: Tue Oct 06 15:28:55 EDT 2015
User: lab3
Dark Spectrum Present: No
Reference Spectrum Present: No
Number of Sampled Component Spectra: 1
Spectrometers: USB2E7196
Integration Time (usec): 66000 (USB2E7196)
Spectra Averaged: 1000 (USB2E7196)
Boxcar Smoothing: 10 (USB2E7196)
Correct for Electrical Dark: No (USB2E7196)
Strobe/Lamp Enabled: No (USB2E7196)
Correct for Detector Non-linearity: No (USB2E7196)
Correct for Stray Light: No (USB2E7196)
Number of Pixels in Processed Spectrum: 2048
>>>>>Begin Processed Spectral Data<<<<<
339.09	0.00
339.48	215.00
339.86	216.57
340.24	217.74
340.63	219.17
341.01	223.32
341.39	221.83
341.78	223.40
342.16	224.73
342.54	225.17
342.93	213.52
343.31	224.31
343.69	224.86
344.07	225.32
344.46	225.77
344.84	226.18
345.22	226.38
345.60	226.66
345.99	226.87
346.37	227.00
346.75	227.11
347.13	227.20
347.52	227.30
347.90	227.42
348.28	227.46
348.66	227.53
349.05	227.52
349.43	227.58
349.81	227.66
350.19	227.72
350.57	227.79
350.96	227.89
351.34	227.99
351.72	228.09
352.10	228.21
352.48	228.28
352.87	228.32
353.25	228.39
353.63	228.46
354.01	228.51
354.39	228.60
354.77	228.67
355.15	228.78
355.54	228.81
355.92	228.83
356.30	228.90
356.68	229.09
357.06	229.17
357.44	229.21
357.82	229.26
358.20	229.47
358.58	229.53
358.97	229.59
359.35	229.68
359.73	229.77
360.11	229.82
360.49	229.88
360.87	229.93
361.25	229.99
361.63	230.08
362.01	230.15
362.39	230.17
362.77	230.22
363.15	230.23
363.53	230.27
363.91	230.30
364.29	230.32
364.67	230.18
365.05	230.19
365.43	230.23
365.81	230.28
366.19	230.22
366.57	230.32
366.95	230.32
367.33	230.27
367.71	230.27
368.09	230.30
368.47	230.29
368.85	230.27
369.23	230.30
369.61	230.22
369.99	230.26
370.37	230.27
370.75	230.40
371.13	230.37
371.51	230.34
371.89	230.33
372.27	230.32
372.65	230.29
373.03	230.26
373.41	230.22
373.78	230.16
374.16	230.04
374.54	229.93
374.92	229.87
375.30	229.84
375.68	229.77
376.06	229.72
376.44	229.67
376.82	229.64
377.19	229.59
377.57	229.56
377.95	229.46
378.33	229.39
378.71	229.18
379.09	229.15
379.47	229.12
379.84	229.05
380.22	228.99
380.60	228.91
380.98	228.87
381.36	228.83
381.73	228.75
382.11	228.74
382.49	228.70
382.87	228.64
383.25	228.61
383.62	228.78
384.00	228.70
384.38	228.67
384.76	228.67
385.13	228.69
385.51	228.65
385.89	228.59
386.27	228.57
386.64	228.57
387.02	228.50
387.40	228.46
387.78	228.45
388.15	228.43
388.53	228.40
388.91	228.37
389.29	228.35
389.66	228.36
390.04	228.33
390.42	228.34
390.79	228.33
391.17	228.31
391.55	228.11
391.92	228.11
392.30	228.12
392.68	228.08
393.05	228.05
393.43	228.05
393.81	228.08
394.18	228.05
394.56	228.06
394.94	228.12
395.31	228.11
395.69	228.19
396.06	228.23
396.44	228.28
396.82	228.30
397.19	228.41
397.57	228.44
397.95	228.51
398.32	228.50
398.70	228.57
399.07	228.67
399.45	228.73
399.82	228.80
400.20	228.86
400.58	228.96
400.95	228.99
401.33	229.11
401.70	229.33
402.08	229.49
402.45	229.61
402.83	229.78
403.20	229.96
403.58	230.09
403.95	230.30
404.33	230.52
404.71	230.74
405.08	231.06
405.46	231.31
405.83	231.58
406.21	231.87
406.58	232.20
406.96	232.52
407.33	232.89
407.70	233.30
408.08	233.88
408.45	234.37
408.83	234.91
409.20	235.40
409.58	235.85
409.95	236.47
410.33	237.16
410.70	237.80
411.08	238.55
411.45	239.36
411.82	240.17
412.20	241.10
412.57	242.20
412.95	243.08
413.32	244.21
413.69	245.40
414.07	246.65
414.44	248.02
414.82	249.42
415.19	251.05
415.56	252.74
415.94	254.46
416.31	256.42
416.68	258.37
417.06	260.64
417.43	262.77
417.81	265.20
418.18	267.70
418.55	270.42
418.93	273.25
419.30	276.21
419.67	279.36
420.04	282.59
420.42	285.97
420.79	289.86
421.16	293.80
421.54	297.78
421.91	301.95
422.28	306.29
422.66	310.96
423.03	315.41
423.40	320.06
423.77	325.05
424.15	330.13
424.52	335.40
424.89	341.13
425.26	346.81
425.64	352.08
426.01	358.00
426.38	364.04
426.75	370.26
427.13	376.63
427.50	383.30
427.87	390.21
428.24	397.20
428.61	403.89
428.99	411.08
429.36	419.01
429.73	426.54
430.10	434.05
430.47	441.75
430.85	449.73
431.22	458.23
431.59	466.96
431.96	475.47
432.33	484.92
432.70	493.91
433.08	504.56
433.45	514.61
433.82	524.51
434.19	535.60
434.56	546.51
434.93	557.10
435.30	567.60
435.68	579.52
436.05	591.16
436.42	602.83
436.79	613.52
437.16	625.10
437.53	637.51
437.90	649.95
438.27	662.12
438.64	675.25
439.01	687.17
439.38	698.12
439.75	708.74
440.13	720.83
440.50	732.32
440.87	741.55
441.24	751.62
441.61	762.70
441.98	770.85
442.35	780.57
442.72	790.44
443.09	799.83
443.46	805.98
443.83	810.66
444.20	814.53
444.57	820.14
444.94	823.47
445.31	826.90
445.68	829.81
446.05	832.03
446.42	831.75
446.79	831.23
447.16	830.80
447.53	830.40
447.90	826.85
448.27	823.42
448.64	818.00
449.01	814.31
449.37	806.65
449.74	799.76
450.11	790.80
450.48	780.99
450.85	771.12
451.22	762.60
451.59	754.22
451.96	746.68
452.33	735.68
452.70	725.93
453.07	714.11
453.43	702.34
453.80	690.83
454.17	679.81
454.54	669.61
454.91	658.10
455.28	647.25
455.65	637.00
456.02	626.19
456.38	617.50
456.75	606.35
457.12	597.35
457.49	588.25
457.86	579.63
458.23	572.05
458.59	563.70
458.96	555.14
459.33	547.61
459.70	539.92
460.07	534.08
460.43	527.18
460.80	520.75
461.17	515.11
461.54	509.05
461.91	503.34
462.27	497.60
462.64	492.88
463.01	487.52
463.38	482.09
463.74	477.19
464.11	472.85
464.48	468.91
464.85	464.67
465.21	461.43
465.58	457.83
465.95	453.73
466.32	450.45
466.68	447.25
467.05	444.04
467.42	440.90
467.78	437.57
468.15	434.47
468.52	432.20
468.88	429.21
469.25	426.48
469.62	424.33
469.98	421.95
470.35	419.83
470.72	417.92
471.08	415.99
471.45	414.36
471.82	412.54
472.18	410.64
472.55	409.40
472.92	407.85
473.28	406.67
473.65	405.39
474.02	404.17
474.38	403.15
474.75	402.53
475.11	401.71
475.48	401.29
475.85	400.86
476.21	400.59
476.58	400.41
476.94	400.59
477.31	400.63
477.67	400.75
478.04	401.07
478.41	401.49
478.77	402.10
479.14	402.49
479.50	403.29
479.87	404.30
480.23	405.31
480.60	406.27
480.96	407.21
481.33	408.64
481.69	410.09
482.06	411.51
482.42	412.80
482.79	414.42
483.15	416.32
483.52	418.45
483.88	420.49
484.25	422.63
484.61	424.87
484.98	427.31
485.34	430.02
485.71	432.87
486.07	435.94
486.44	438.97
486.80	442.37
487.17	445.85
487.53	449.63
487.90	453.54
488.26	457.85
488.62	462.38
488.99	466.89
489.35	471.61
489.72	476.70
490.08	482.09
490.44	487.55
490.81	493.25
491.17	499.12
491.54	505.42
491.90	511.87
492.26	518.75
492.63	525.93
492.99	533.43
493.36	541.12
493.72	549.18
494.08	557.42
494.45	566.06
494.81	575.06
495.17	584.33
495.54	594.11
495.90	604.30
496.26	614.69
496.63	625.36
496.99	636.41
497.35	647.98
497.72	659.82
498.08	672.00
498.44	684.52
498.80	697.70
499.17	711.19
499.53	725.11
499.89	739.44
500.26	753.95
500.62	768.84
500.98	784.54
501.34	800.26
501.71	816.76
502.07	833.55
502.43	850.79
502.79	868.18
503.16	886.11
503.52	904.25
503.88	922.79
504.24	941.77
504.60	960.99
504.97	980.76
505.33	1000.99
505.69	1022.28
506.05	1043.66
506.41	1064.98
506.78	1086.41
507.14	1108.45
507.50	1130.94
507.86	1153.83
508.22	1176.86
508.59	1199.69
508.95	1223.52
509.31	1247.87
509.67	1272.79
510.03	1297.66
510.39	1322.47
510.75	1347.31
511.12	1372.46
511.48	1397.70
511.84	1422.97
512.20	1448.46
512.56	1474.95
512.92	1501.25
513.28	1526.95
513.64	1553.02
514.00	1579.39
514.37	1606.01
514.73	1632.62
515.09	1658.51
515.45	1684.65
515.81	1710.93
516.17	1736.90
516.53	1762.25
516.89	1787.43
517.25	1812.83
517.61	1838.06
517.97	1863.81
518.33	1888.85
518.69	1913.81
519.05	1939.14
519.41	1964.52
519.77	1989.89
520.13	2013.83
520.49	2037.87
520.85	2062.17
521.21	2085.93
521.57	2109.94
521.93	2132.90
522.29	2156.52
522.65	2179.82
523.01	2202.92
523.37	2225.42
523.73	2248.58
524.09	2271.35
524.45	2293.74
524.81	2315.49
525.17	2336.89
525.53	2357.66
525.89	2378.91
526.25	2399.66
526.61	2418.90
526.97	2438.13
527.33	2457.19
527.68	2475.85
528.04	2494.05
528.40	2510.97
528.76	2528.12
529.12	2544.75
529.48	2561.96
529.84	2576.54
530.20	2591.63
530.56	2605.73
530.91	2619.96
531.27	2633.57
531.63	2646.42
531.99	2658.87
532.35	2670.90
532.71	2682.51
533.07	2694.43
533.42	2704.50
533.78	2714.79
534.14	2725.94
534.50	2736.00
534.86	2746.56
535.21	2755.18
535.57	2763.53
535.93	2771.89
536.29	2778.60
536.65	2785.08
537.00	2790.00
537.36	2796.06
537.72	2801.14
538.08	2805.75
538.44	2809.15
538.79	2812.50
539.15	2814.47
539.51	2815.97
539.87	2816.43
540.22	2815.28
540.58	2814.27
540.94	2814.08
541.29	2812.80
541.65	2810.16
542.01	2807.16
542.37	2802.62
542.72	2799.59
543.08	2795.12
543.44	2790.72
543.79	2785.64
544.15	2779.93
544.51	2774.63
544.87	2768.22
545.22	2761.01
545.58	2753.60
545.94	2746.52
546.29	2738.00
546.65	2729.65
547.01	2721.22
547.36	2713.23
547.72	2705.45
548.07	2696.08
548.43	2685.66
548.79	2674.93
549.14	2664.60
549.50	2654.47
549.86	2643.50
550.21	2630.92
550.57	2619.38
550.92	2606.13
551.28	2593.46
551.64	2581.12
551.99	2568.44
552.35	2555.52
552.70	2542.37
553.06	2529.77
553.41	2516.80
553.77	2503.38
554.13	2490.14
554.48	2475.93
554.84	2460.92
555.19	2446.60
555.55	2432.19
555.90	2418.07
556.26	2404.42
556.61	2389.65
556.97	2373.88
557.32	2358.48
557.68	2343.46
558.03	2328.11
558.39	2313.73
558.74	2299.89
559.10	2284.29
559.45	2268.99
559.81	2254.39
560.16	2239.56
560.52	2224.53
560.87	2209.56
561.23	2194.38
561.58	2179.62
561.94	2164.49
562.29	2148.97
562.64	2133.53
563.00	2118.26
563.35	2103.26
563.71	2087.84
564.06	2072.60
564.42	2057.82
564.77	2043.19
565.12	2028.39
565.48	2013.43
565.83	1998.70
566.19	1984.03
566.54	1969.66
566.89	1954.59
567.25	1939.29
567.60	1924.79
567.96	1909.64
568.31	1893.34
568.66	1877.93
569.02	1863.14
569.37	1848.88
569.72	1835.19
570.08	1821.08
570.43	1806.43
570.78	1791.59
571.14	1776.62
571.49	1761.77
571.84	1747.25
572.20	1731.68
572.55	1716.72
572.90	1701.83
573.26	1686.94
573.61	1671.36
573.96	1656.31
574.31	1641.28
574.67	1626.25
575.02	1610.95
575.37	1595.62
575.72	1581.02
576.08	1566.34
576.43	1551.00
576.78	1535.82
577.13	1520.79
577.49	1506.06
577.84	1491.74
578.19	1476.97
578.54	1462.22
578.90	1447.46
579.25	1432.66
579.60	1418.88
579.95	1404.96
580.30	1390.98
580.66	1376.73
581.01	1362.72
581.36	1348.72
581.71	1335.40
582.06	1322.05
582.42	1308.53
582.77	1295.55
583.12	1282.77
583.47	1269.86
583.82	1257.25
584.17	1244.23
584.53	1231.29
584.88	1218.61
585.23	1205.80
585.58	1193.38
585.93	1180.96
586.28	1169.42
586.63	1157.66
586.98	1145.64
587.34	1133.94
587.69	1122.06
588.04	1110.62
588.39	1099.35
588.74	1087.81
589.09	1076.39
589.44	1064.66
589.79	1053.56
590.14	1042.44
590.49	1031.41
590.84	1020.69
591.19	1010.08
591.54	999.63
591.89	988.84
592.25	978.36
592.60	967.82
592.95	957.43
593.30	947.28
593.65	936.88
594.00	926.79
594.35	917.53
594.70	907.65
595.05	898.40
595.40	888.92
595.75	879.31
596.10	870.24
596.45	861.18
596.80	852.48
597.15	843.75
597.50	835.09
597.85	826.67
598.19	818.17
598.54	809.67
598.89	801.63
599.24	793.99
599.59	786.16
599.94	778.89
600.29	771.63
600.64	764.28
600.99	756.85
601.34	749.62
601.69	741.88
602.04	734.94
602.39	727.91
602.74	721.05
603.08	714.37
603.43	707.65
603.78	700.93
604.13	694.32
604.48	687.74
604.83	681.35
605.18	675.04
605.53	668.88
605.87	662.73
606.22	656.63
606.57	650.50
606.92	644.31
607.27	638.14
607.62	632.18
607.96	626.44
608.31	621.05
608.66	615.62
609.01	610.42
609.36	605.26
609.70	600.00
610.05	594.81
610.40	589.74
610.75	584.71
611.10	579.86
611.44	574.99
611.79	570.28
612.14	565.44
612.49	560.70
612.83	556.20
613.18	551.75
613.53	547.32
613.88	543.01
614.22	538.98
614.57	534.86
614.92	530.85
615.27	526.97
615.61	523.03
615.96	519.09
616.31	515.18
616.65	511.37
617.00	507.71
617.35	504.08
617.70	500.47
618.04	496.93
618.39	493.49
618.74	490.29
619.08	487.05
619.43	483.91
619.78	480.72
620.12	477.52
620.47	474.53
620.82	471.58
621.16	468.64
621.51	465.78
621.85	462.96
622.20	460.18
622.55	457.38
622.89	454.64
623.24	452.08
623.59	449.54
623.93	447.07
624.28	444.71
624.62	442.56
624.97	440.43
625.32	438.18
625.66	435.90
626.01	433.59
626.35	431.40
626.70	429.18
627.04	427.16
627.39	425.08
627.73	423.06
628.08	421.14
628.43	419.23
628.77	417.21
629.12	415.32
629.46	413.51
629.81	411.83
630.15	410.07
630.50	408.29
630.84	406.59
631.19	404.94
631.53	403.33
631.88	401.54
632.22	399.85
632.57	398.44
632.91	397.01
633.26	395.65
633.60	394.30
633.95	393.00
634.29	391.56
634.64	390.25
634.98	388.78
635.32	387.45
635.67	386.25
636.01	385.06
636.36	383.89
636.70	382.83
637.05	381.59
637.39	380.49
637.73	379.40
638.08	378.37
638.42	377.37
638.77	376.23
639.11	375.08
639.45	373.96
639.80	372.79
640.14	371.70
640.49	370.58
640.83	369.45
641.17	368.40
641.52	367.36
641.86	366.33
642.20	365.46
642.55	364.42
642.89	363.38
643.23	362.42
643.58	361.58
643.92	360.56
644.26	359.64
644.61	358.75
644.95	357.83
645.29	356.83
645.64	355.81
645.98	354.90
646.32	354.09
646.66	353.23
647.01	352.40
647.35	351.64
647.69	350.85
648.04	350.15
648.38	349.35
648.72	348.61
649.06	347.84
649.41	347.03
649.75	346.28
650.09	345.59
650.43	344.85
650.78	344.08
651.12	343.34
651.46	342.61
651.80	341.90
652.14	341.22
652.49	340.61
652.83	339.94
653.17	339.25
653.51	338.58
653.85	337.99
654.20	337.37
654.54	336.64
654.88	335.95
655.22	335.31
655.56	334.64
655.90	333.99
656.25	333.35
656.59	332.75
656.93	332.16
657.27	331.62
657.61	331.02
657.95	330.45
658.29	329.89
658.64	329.33
658.98	328.72
659.32	328.15
659.66	327.58
660.00	327.06
660.34	326.53
660.68	325.96
661.02	325.32
661.36	324.73
661.70	324.19
662.05	323.66
662.39	323.12
662.73	322.66
663.07	322.24
663.41	321.78
663.75	321.26
664.09	320.73
664.43	320.10
664.77	319.57
665.11	318.98
665.45	318.46
665.79	317.98
666.13	317.44
666.47	316.89
666.81	316.31
667.15	315.72
667.49	315.25
667.83	314.80
668.17	314.35
668.51	313.91
668.85	313.50
669.19	313.13
669.53	312.60
669.87	312.05
670.21	311.50
670.55	310.99
670.89	310.57
671.23	310.13
671.57	309.74
671.91	309.37
672.25	309.02
672.58	308.67
672.92	308.20
673.26	307.84
673.60	307.46
673.94	307.10
674.28	306.73
674.62	306.33
674.96	305.90
675.30	305.50
675.64	305.06
675.97	304.59
676.31	304.09
676.65	303.68
676.99	303.35
677.33	302.91
677.67	302.51
678.01	302.02
678.34	301.60
678.68	301.19
679.02	300.72
679.36	300.26
679.70	299.78
680.04	299.38
680.37	298.97
680.71	298.57
681.05	298.20
681.39	297.76
681.73	297.29
682.06	296.85
682.40	296.43
682.74	296.07
683.08	295.76
683.42	295.37
683.75	295.01
684.09	294.53
684.43	294.12
684.77	293.69
685.10	293.29
685.44	292.90
685.78	292.49
686.12	292.09
686.45	291.68
686.79	291.25
687.13	290.85
687.46	290.38
687.80	289.96
688.14	289.48
688.48	289.06
688.81	288.64
689.15	288.30
689.49	287.87
689.82	287.43
690.16	286.90
690.50	286.46
690.83	286.00
691.17	285.54
691.51	285.12
691.84	284.76
692.18	284.33
692.52	283.86
692.85	283.43
693.19	283.07
693.52	282.66
693.86	282.22
694.20	281.79
694.53	281.38
694.87	280.92
695.21	280.49
695.54	280.07
695.88	279.63
696.21	279.14
696.55	278.70
696.88	278.27
697.22	277.84
697.56	277.45
697.89	276.99
698.23	276.61
698.56	276.18
698.90	275.76
699.23	275.31
699.57	274.94
699.90	274.52
700.24	274.07
700.58	273.68
700.91	273.35
701.25	273.12
701.58	272.82
701.92	272.49
702.25	272.14
702.59	271.75
702.92	271.37
703.26	270.98
703.59	270.60
703.93	270.37
704.26	270.02
704.60	269.64
704.93	269.27
705.26	268.88
705.60	268.55
705.93	268.14
706.27	267.86
706.60	267.52
706.94	267.22
707.27	266.84
707.61	266.47
707.94	266.07
708.27	265.54
708.61	265.10
708.94	264.71
709.28	264.33
709.61	263.98
709.94	263.65
710.28	263.34
710.61	263.04
710.95	262.54
711.28	262.32
711.61	261.96
711.95	261.68
712.28	261.33
712.61	260.99
712.95	260.77
713.28	260.50
713.61	260.15
713.95	259.78
714.28	259.49
714.61	259.15
714.95	258.85
715.28	258.53
715.61	258.26
715.95	257.99
716.28	257.70
716.61	257.44
716.95	257.14
717.28	256.85
717.61	256.56
717.94	256.29
718.28	255.88
718.61	255.62
718.94	255.33
719.27	255.09
719.61	254.84
719.94	254.53
720.27	254.19
720.60	253.93
720.94	253.68
721.27	253.44
721.60	253.22
721.93	252.96
722.27	252.78
722.60	252.53
722.93	252.27
723.26	252.04
723.59	251.77
723.93	251.56
724.26	251.34
724.59	251.09
724.92	250.88
725.25	250.70
725.59	250.48
725.92	250.28
726.25	250.05
726.58	249.84
726.91	249.61
727.24	249.42
727.57	249.19
727.91	248.95
728.24	248.75
728.57	248.54
728.90	248.37
729.23	248.12
729.56	248.01
729.89	247.81
730.22	247.60
730.55	247.40
730.89	247.20
731.22	247.00
731.55	246.82
731.88	246.64
732.21	246.43
732.54	246.24
732.87	246.06
733.20	245.90
733.53	245.71
733.86	245.56
734.19	245.36
734.52	245.23
734.85	245.20
735.18	245.01
735.51	244.89
735.84	244.72
736.17	244.60
736.50	244.35
736.83	244.40
737.16	244.24
737.49	244.09
737.82	243.92
738.15	243.79
738.48	243.63
738.81	243.45
739.14	243.27
739.47	243.11
739.80	242.95
740.13	242.81
740.46	242.63
740.79	242.44
741.12	242.29
741.45	242.11
741.78	241.85
742.11	241.74
742.44	241.54
742.77	241.42
743.10	241.24
743.43	241.09
743.75	240.76
744.08	240.89
744.41	240.74
744.74	240.60
745.07	240.40
745.40	240.30
745.73	240.24
746.06	240.13
746.39	240.02
746.71	239.86
747.04	239.71
747.37	239.57
747.70	239.49
748.03	239.38
748.36	239.28
748.68	239.16
749.01	239.00
749.34	238.89
749.67	238.76
750.00	238.67
750.33	238.68
750.65	238.58
750.98	238.21
751.31	238.11
751.64	238.02
751.97	238.02
752.29	237.89
752.62	237.70
752.95	237.59
753.28	237.46
753.60	237.35
753.93	237.29
754.26	237.20
754.59	237.02
754.91	236.89
755.24	236.77
755.57	236.67
755.90	236.55
756.22	236.44
756.55	236.30
756.88	236.14
757.20	235.93
757.53	235.78
757.86	235.67
758.19	235.58
758.51	235.47
758.84	235.29
759.17	235.17
759.49	235.10
759.82	235.09
760.15	235.03
760.47	234.94
760.80	234.79
761.13	234.74
761.45	234.66
761.78	234.58
762.11	234.51
762.43	234.40
762.76	234.32
763.08	234.26
763.41	234.20
763.74	234.16
764.06	234.07
764.39	234.01
764.71	233.93
765.04	233.84
765.37	233.77
765.69	233.72
766.02	233.64
766.34	233.55
766.67	233.42
767.00	233.37
767.32	233.42
767.65	233.47
767.97	233.38
768.30	233.33
768.62	233.27
768.95	233.19
769.27	233.12
769.60	233.09
769.92	233.00
770.25	232.91
770.57	232.81
770.90	232.76
771.22	232.70
771.55	232.64
771.87	232.60
772.20	232.53
772.52	232.61
772.85	232.78
773.17	232.73
773.50	232.67
773.82	232.60
774.15	232.45
774.47	232.29
774.80	232.22
775.12	232.17
775.45	232.12
775.77	232.09
776.09	232.06
776.42	232.00
776.74	232.02
777.07	231.97
777.39	231.96
777.72	231.90
778.04	231.87
778.36	231.82
778.69	231.78
779.01	231.76
779.33	231.57
779.66	231.32
779.98	231.27
780.31	231.24
780.63	231.28
780.95	231.28
781.28	231.24
781.60	231.18
781.92	231.15
782.25	231.10
782.57	231.06
782.89	231.02
783.22	230.97
783.54	230.89
783.86	230.88
784.19	230.84
784.51	230.86
784.83	230.81
785.16	230.77
785.48	230.73
785.80	230.70
786.12	230.68
786.45	230.66
786.77	230.64
787.09	230.59
787.42	230.49
787.74	230.45
788.06	230.44
788.38	230.41
788.71	230.37
789.03	230.35
789.35	230.35
789.67	230.29
789.99	230.29
790.32	230.25
790.64	230.23
790.96	230.38
791.28	230.29
791.61	230.26
791.93	230.25
792.25	230.21
792.57	230.32
792.89	230.28
793.21	230.27
793.54	230.22
793.86	230.18
794.18	230.18
794.50	230.13
794.82	230.10
795.14	230.11
795.47	230.13
795.79	230.11
796.11	230.05
796.43	230.04
796.75	230.02
797.07	230.00
797.39	229.97
797.71	229.80
798.04	229.79
798.36	229.78
798.68	229.76
799.00	229.75
799.32	229.64
799.64	229.65
799.96	229.64
800.28	229.66
800.60	229.63
800.92	229.62
801.24	229.60
801.56	229.60
801.89	229.57
802.21	229.56
802.53	229.51
802.85	229.53
803.17	229.59
803.49	229.53
803.81	229.51
804.13	229.48
804.45	229.45
804.77	229.45
805.09	229.43
805.41	229.40
805.73	229.35
806.05	229.29
806.37	229.24
806.69	229.21
807.01	229.18
807.33	229.17
807.65	229.10
807.97	229.16
808.28	229.12
808.60	229.10
808.92	229.08
809.24	229.17
809.56	229.13
809.88	229.05
810.20	229.05
810.52	229.07
810.84	229.02
811.16	228.99
811.48	228.97
811.80	229.02
812.12	229.00
812.43	229.02
812.75	229.02
813.07	229.00
813.39	228.98
813.71	228.95
814.03	228.91
814.35	228.91
814.67	228.81
814.98	228.79
815.30	228.77
815.62	228.72
815.94	228.58
816.26	228.58
816.58	228.54
816.89	228.55
817.21	228.50
817.53	228.52
817.85	228.52
818.17	228.49
818.48	228.41
818.80	228.43
