SpectraSuite Data File
++++++++++++++++++++++++++++++++++++
Date: Tue Oct 06 18:38:09 EDT 2015
User: lab3
Dark Spectrum Present: No
Reference Spectrum Present: No
Number of Sampled Component Spectra: 1
Spectrometers: USB2E7196
Integration Time (usec): 66000 (USB2E7196)
Spectra Averaged: 3000 (USB2E7196)
Boxcar Smoothing: 10 (USB2E7196)
Correct for Electrical Dark: No (USB2E7196)
Strobe/Lamp Enabled: No (USB2E7196)
Correct for Detector Non-linearity: No (USB2E7196)
Correct for Stray Light: No (USB2E7196)
Number of Pixels in Processed Spectrum: 2048
>>>>>Begin Processed Spectral Data<<<<<
339.09	0.00
339.48	215.37
339.86	216.90
340.24	218.13
340.63	219.74
341.01	223.58
341.39	222.19
341.78	223.78
342.16	225.06
342.54	225.33
342.93	213.83
343.31	224.63
343.69	225.17
344.07	225.62
344.46	226.07
344.84	226.46
345.22	226.66
345.60	226.94
345.99	227.15
346.37	227.30
346.75	227.41
347.13	227.50
347.52	227.58
347.90	227.70
348.28	227.74
348.66	227.82
349.05	227.81
349.43	227.88
349.81	227.95
350.19	228.02
350.57	228.10
350.96	228.19
351.34	228.29
351.72	228.40
352.10	228.52
352.48	228.59
352.87	228.63
353.25	228.70
353.63	228.76
354.01	228.81
354.39	228.89
354.77	228.96
355.15	229.09
355.54	229.12
355.92	229.14
356.30	229.22
356.68	229.40
357.06	229.47
357.44	229.51
357.82	229.57
358.20	229.78
358.58	229.84
358.97	229.90
359.35	229.99
359.73	230.09
360.11	230.14
360.49	230.20
360.87	230.25
361.25	230.32
361.63	230.42
362.01	230.48
362.39	230.50
362.77	230.56
363.15	230.57
363.53	230.61
363.91	230.65
364.29	230.67
364.67	230.52
365.05	230.55
365.43	230.60
365.81	230.63
366.19	230.58
366.57	230.66
366.95	230.66
367.33	230.62
367.71	230.61
368.09	230.64
368.47	230.64
368.85	230.63
369.23	230.66
369.61	230.58
369.99	230.62
370.37	230.62
370.75	230.75
371.13	230.71
371.51	230.66
371.89	230.65
372.27	230.63
372.65	230.62
373.03	230.58
373.41	230.53
373.78	230.48
374.16	230.36
374.54	230.26
374.92	230.21
375.30	230.17
375.68	230.10
376.06	230.06
376.44	230.00
376.82	229.98
377.19	229.93
377.57	229.89
377.95	229.78
378.33	229.72
378.71	229.51
379.09	229.48
379.47	229.47
379.84	229.40
380.22	229.34
380.60	229.26
380.98	229.21
381.36	229.16
381.73	229.09
382.11	229.09
382.49	229.06
382.87	228.99
383.25	228.95
383.62	229.12
384.00	229.04
384.38	229.01
384.76	229.00
385.13	229.02
385.51	228.98
385.89	228.92
386.27	228.90
386.64	228.89
387.02	228.84
387.40	228.79
387.78	228.77
388.15	228.76
388.53	228.73
388.91	228.71
389.29	228.68
389.66	228.69
390.04	228.65
390.42	228.65
390.79	228.65
391.17	228.64
391.55	228.43
391.92	228.43
392.30	228.43
392.68	228.40
393.05	228.38
393.43	228.39
393.81	228.41
394.18	228.40
394.56	228.42
394.94	228.47
395.31	228.48
395.69	228.55
396.06	228.60
396.44	228.64
396.82	228.66
397.19	228.79
397.57	228.81
397.95	228.88
398.32	228.88
398.70	228.95
399.07	229.05
399.45	229.11
399.82	229.19
400.20	229.24
400.58	229.33
400.95	229.35
401.33	229.48
401.70	229.70
402.08	229.84
402.45	229.97
402.83	230.13
403.20	230.29
403.58	230.42
403.95	230.61
404.33	230.83
404.71	231.04
405.08	231.35
405.46	231.59
405.83	231.86
406.21	232.16
406.58	232.48
406.96	232.79
407.33	233.16
407.70	233.56
408.08	234.13
408.45	234.62
408.83	235.16
409.20	235.65
409.58	236.09
409.95	236.70
410.33	237.36
410.70	237.99
411.08	238.73
411.45	239.52
411.82	240.32
412.20	241.23
412.57	242.31
412.95	243.18
413.32	244.29
413.69	245.45
414.07	246.67
414.44	248.00
414.82	249.36
415.19	250.96
415.56	252.58
415.94	254.27
416.31	256.16
416.68	258.06
417.06	260.26
417.43	262.32
417.81	264.69
418.18	267.11
418.55	269.74
418.93	272.48
419.30	275.35
419.67	278.40
420.04	281.52
420.42	284.78
420.79	288.55
421.16	292.35
421.54	296.21
421.91	300.24
422.28	304.43
422.66	308.92
423.03	313.22
423.40	317.72
423.77	322.53
424.15	327.45
424.52	332.54
424.89	338.06
425.26	343.54
425.64	348.61
426.01	354.31
426.38	360.13
426.75	366.12
427.13	372.24
427.50	378.64
427.87	385.29
428.24	392.00
428.61	398.42
428.99	405.34
429.36	412.92
429.73	420.17
430.10	427.39
430.47	434.77
430.85	442.39
431.22	450.51
431.59	458.85
431.96	466.98
432.33	476.03
432.70	484.64
433.08	494.82
433.45	504.41
433.82	513.89
434.19	524.52
434.56	534.99
434.93	545.14
435.30	555.20
435.68	566.61
436.05	577.74
436.42	588.90
436.79	599.10
437.16	610.19
437.53	622.03
437.90	633.89
438.27	645.56
438.64	658.15
439.01	669.58
439.38	680.06
439.75	690.22
440.13	701.76
440.50	712.75
440.87	721.54
441.24	731.23
441.61	741.87
441.98	749.73
442.35	759.08
442.72	768.58
443.09	777.67
443.46	783.60
443.83	788.16
444.20	791.93
444.57	797.38
444.94	800.66
445.31	804.06
445.68	807.01
446.05	809.28
446.42	809.12
446.79	808.74
447.16	808.48
447.53	808.28
447.90	805.06
448.27	801.98
448.64	797.00
449.01	793.64
449.37	786.45
449.74	779.93
450.11	771.44
450.48	762.08
450.85	752.69
451.22	744.63
451.59	736.68
451.96	729.51
452.33	719.06
452.70	709.76
453.07	698.45
453.43	687.14
453.80	676.09
454.17	665.53
454.54	655.76
454.91	644.71
455.28	634.27
455.65	624.42
456.02	613.98
456.38	605.59
456.75	594.82
457.12	586.12
457.49	577.35
457.86	569.03
458.23	561.71
458.59	553.65
458.96	545.38
459.33	538.11
459.70	530.70
460.07	525.04
460.43	518.37
460.80	512.14
461.17	506.72
461.54	500.86
461.91	495.35
462.27	489.75
462.64	485.17
463.01	479.94
463.38	474.67
463.74	469.90
464.11	465.66
464.48	461.84
464.85	457.72
465.21	454.56
465.58	451.06
465.95	447.09
466.32	443.91
466.68	440.82
467.05	437.69
467.42	434.65
467.78	431.40
468.15	428.40
468.52	426.21
468.88	423.29
469.25	420.64
469.62	418.54
469.98	416.27
470.35	414.22
470.72	412.38
471.08	410.52
471.45	408.94
471.82	407.20
472.18	405.37
472.55	404.18
472.92	402.69
473.28	401.53
473.65	400.30
474.02	399.12
474.38	398.11
474.75	397.53
475.11	396.72
475.48	396.33
475.85	395.91
476.21	395.65
476.58	395.47
476.94	395.63
477.31	395.67
477.67	395.74
478.04	396.04
478.41	396.45
478.77	397.03
479.14	397.39
479.50	398.15
479.87	399.13
480.23	400.07
480.60	400.99
480.96	401.90
481.33	403.29
481.69	404.66
482.06	406.02
482.42	407.24
482.79	408.78
483.15	410.59
483.52	412.64
483.88	414.57
484.25	416.64
484.61	418.81
484.98	421.14
485.34	423.77
485.71	426.52
486.07	429.47
486.44	432.37
486.80	435.63
487.17	438.98
487.53	442.60
487.90	446.39
488.26	450.52
488.62	454.87
488.99	459.21
489.35	463.75
489.72	468.65
490.08	473.82
490.44	479.09
490.81	484.58
491.17	490.23
491.54	496.30
491.90	502.49
492.26	509.11
492.63	516.04
492.99	523.27
493.36	530.66
493.72	538.42
494.08	546.38
494.45	554.72
494.81	563.45
495.17	572.42
495.54	581.88
495.90	591.76
496.26	601.84
496.63	612.20
496.99	622.95
497.35	634.17
497.72	645.67
498.08	657.49
498.44	669.63
498.80	682.45
499.17	695.54
499.53	709.08
499.89	723.03
500.26	737.19
500.62	751.69
500.98	767.01
501.34	782.33
501.71	798.47
502.07	814.90
502.43	831.75
502.79	848.82
503.16	866.38
503.52	884.12
503.88	902.27
504.24	920.85
504.60	939.70
504.97	959.17
505.33	979.09
505.69	1000.04
506.05	1021.22
506.41	1042.25
506.78	1063.46
507.14	1085.26
507.50	1107.44
507.86	1130.06
508.22	1152.90
508.59	1175.63
508.95	1199.38
509.31	1223.58
509.67	1248.39
510.03	1273.12
510.39	1297.77
510.75	1322.51
511.12	1347.67
511.48	1372.96
511.84	1398.29
512.20	1423.98
512.56	1450.66
512.92	1477.11
513.28	1502.98
513.64	1529.26
514.00	1555.93
514.37	1582.82
514.73	1609.72
515.09	1636.03
515.45	1662.61
515.81	1689.36
516.17	1715.84
516.53	1741.75
516.89	1767.48
517.25	1793.48
517.61	1819.28
517.97	1845.77
518.33	1871.67
518.69	1897.40
519.05	1923.62
519.41	1949.94
519.77	1976.22
520.13	2001.03
520.49	2025.98
520.85	2051.25
521.21	2075.92
521.57	2100.86
521.93	2124.87
522.29	2149.44
522.65	2173.93
523.01	2198.02
523.37	2221.43
523.73	2245.54
524.09	2269.41
524.45	2292.88
524.81	2315.76
525.17	2338.47
525.53	2360.44
525.89	2382.76
526.25	2404.76
526.61	2425.10
526.97	2445.52
527.33	2465.80
527.68	2485.81
528.04	2505.45
528.40	2523.83
528.76	2542.43
529.12	2560.60
529.48	2579.31
529.84	2595.32
530.20	2611.70
530.56	2627.29
530.91	2643.13
531.27	2658.42
531.63	2672.62
531.99	2686.80
532.35	2700.58
532.71	2713.92
533.07	2727.55
533.42	2739.33
533.78	2751.33
534.14	2764.31
534.50	2776.12
534.86	2788.34
535.21	2798.64
535.57	2808.77
535.93	2818.69
536.29	2826.78
536.65	2834.77
537.00	2841.34
537.36	2849.32
537.72	2856.36
538.08	2862.91
538.44	2868.35
538.79	2873.43
539.15	2877.20
539.51	2880.10
539.87	2881.85
540.22	2882.19
540.58	2882.76
540.94	2884.20
541.29	2884.34
541.65	2883.29
542.01	2881.80
542.37	2878.80
542.72	2877.23
543.08	2873.96
543.44	2871.02
543.79	2867.73
544.15	2863.69
544.51	2859.80
544.87	2854.82
545.22	2848.86
545.58	2842.83
545.94	2836.93
546.29	2829.52
546.65	2822.43
547.01	2815.45
547.36	2808.95
547.72	2802.57
548.07	2794.51
548.43	2785.34
548.79	2776.02
549.14	2766.91
549.50	2757.89
549.86	2747.93
550.21	2736.39
550.57	2726.03
550.92	2713.87
551.28	2702.24
551.64	2690.83
551.99	2679.07
552.35	2666.90
552.70	2654.66
553.06	2642.78
553.41	2630.46
553.77	2618.03
554.13	2605.61
554.48	2592.09
554.84	2577.81
555.19	2563.94
555.55	2549.94
555.90	2536.44
556.26	2523.17
556.61	2508.75
556.97	2493.42
557.32	2478.58
557.68	2464.12
558.03	2449.32
558.39	2435.49
558.74	2422.17
559.10	2406.97
559.45	2392.00
559.81	2377.77
560.16	2363.14
560.52	2348.31
560.87	2333.67
561.23	2318.64
561.58	2304.19
561.94	2289.23
562.29	2273.75
562.64	2258.46
563.00	2243.31
563.35	2228.21
563.71	2212.83
564.06	2197.59
564.42	2182.90
564.77	2168.23
565.12	2153.19
565.48	2137.97
565.83	2122.96
566.19	2107.88
566.54	2093.11
566.89	2077.83
567.25	2062.42
567.60	2047.84
567.96	2032.45
568.31	2015.92
568.66	2000.42
569.02	1985.36
569.37	1970.91
569.72	1957.11
570.08	1942.79
570.43	1927.86
570.78	1912.84
571.14	1897.57
571.49	1882.38
571.84	1867.45
572.20	1851.34
572.55	1836.11
572.90	1820.93
573.26	1805.71
573.61	1789.88
573.96	1774.60
574.31	1759.13
574.67	1743.47
575.02	1727.55
575.37	1711.71
575.72	1696.61
576.08	1681.12
576.43	1665.01
576.78	1649.05
577.13	1633.30
577.49	1617.81
577.84	1602.79
578.19	1587.24
578.54	1571.83
578.90	1556.32
579.25	1540.68
579.60	1526.23
579.95	1511.47
580.30	1496.62
580.66	1481.51
581.01	1466.48
581.36	1451.60
581.71	1437.57
582.06	1423.46
582.42	1409.21
582.77	1395.43
583.12	1381.86
583.47	1368.27
583.82	1354.82
584.17	1340.97
584.53	1327.17
584.88	1313.61
585.23	1299.93
585.58	1286.67
585.93	1273.31
586.28	1260.93
586.63	1248.39
586.98	1235.44
587.34	1222.84
587.69	1210.09
588.04	1197.74
588.39	1185.64
588.74	1173.10
589.09	1160.68
589.44	1148.03
589.79	1135.91
590.14	1123.89
590.49	1111.91
590.84	1100.15
591.19	1088.73
591.54	1077.40
591.89	1065.65
592.25	1054.31
592.60	1042.82
592.95	1031.50
593.30	1020.53
593.65	1009.27
594.00	998.26
594.35	988.18
594.70	977.39
595.05	967.22
595.40	956.83
595.75	946.30
596.10	936.43
596.45	926.57
596.80	917.02
597.15	907.51
597.50	897.94
597.85	888.60
598.19	879.29
598.54	870.01
598.89	861.23
599.24	852.87
599.59	844.31
599.94	836.38
600.29	828.43
600.64	820.29
600.99	812.05
601.34	804.09
601.69	795.63
602.04	788.06
602.39	780.36
602.74	772.87
603.08	765.55
603.43	758.18
603.78	750.76
604.13	743.46
604.48	736.21
604.83	729.17
605.18	722.22
605.53	715.39
605.87	708.54
606.22	701.78
606.57	694.94
606.92	688.02
607.27	681.15
607.62	674.51
607.96	668.12
608.31	662.17
608.66	656.17
609.01	650.40
609.36	644.61
609.70	638.75
610.05	632.94
610.40	627.27
610.75	621.59
611.10	616.15
611.44	610.69
611.79	605.33
612.14	599.93
612.49	594.60
612.83	589.56
613.18	584.54
613.53	579.53
613.88	574.69
614.22	570.19
614.57	565.59
614.92	561.07
615.27	556.69
615.61	552.18
615.96	547.72
616.31	543.29
616.65	538.99
617.00	534.83
617.35	530.71
617.70	526.61
618.04	522.64
618.39	518.76
618.74	515.10
619.08	511.44
619.43	507.87
619.78	504.25
620.12	500.63
620.47	497.24
620.82	493.92
621.16	490.60
621.51	487.32
621.85	484.06
622.20	480.86
622.55	477.62
622.89	474.45
623.24	471.46
623.59	468.51
623.93	465.65
624.28	462.92
624.62	460.39
624.97	457.86
625.32	455.24
625.66	452.59
626.01	449.93
626.35	447.42
626.70	444.83
627.04	442.44
627.39	440.01
627.73	437.65
628.08	435.35
628.43	433.06
628.77	430.70
629.12	428.49
629.46	426.38
629.81	424.40
630.15	422.34
630.50	420.30
630.84	418.31
631.19	416.33
631.53	414.45
631.88	412.40
632.22	410.44
632.57	408.76
632.91	407.05
633.26	405.42
633.60	403.78
633.95	402.25
634.29	400.59
634.64	399.00
634.98	397.29
635.32	395.74
635.67	394.34
636.01	392.95
636.36	391.58
636.70	390.30
637.05	388.87
637.39	387.58
637.73	386.30
638.08	385.08
638.42	383.91
638.77	382.59
639.11	381.24
639.45	379.95
639.80	378.59
640.14	377.33
640.49	376.05
640.83	374.77
641.17	373.54
641.52	372.35
641.86	371.19
642.20	370.18
642.55	368.99
642.89	367.81
643.23	366.71
643.58	365.71
643.92	364.56
644.26	363.51
644.61	362.49
644.95	361.42
645.29	360.29
645.64	359.14
645.98	358.12
646.32	357.21
646.66	356.24
647.01	355.31
647.35	354.46
647.69	353.57
648.04	352.76
648.38	351.88
648.72	351.05
649.06	350.20
649.41	349.31
649.75	348.48
650.09	347.69
650.43	346.86
650.78	346.02
651.12	345.22
651.46	344.42
651.80	343.65
652.14	342.93
652.49	342.26
652.83	341.53
653.17	340.77
653.51	340.05
653.85	339.42
654.20	338.75
654.54	337.97
654.88	337.24
655.22	336.56
655.56	335.86
655.90	335.17
656.25	334.51
656.59	333.87
656.93	333.27
657.27	332.73
657.61	332.10
657.95	331.51
658.29	330.90
658.64	330.33
658.98	329.70
659.32	329.08
659.66	328.49
660.00	327.94
660.34	327.39
660.68	326.79
661.02	326.14
661.36	325.53
661.70	324.96
662.05	324.41
662.39	323.87
662.73	323.40
663.07	322.98
663.41	322.50
663.75	321.98
664.09	321.46
664.43	320.82
664.77	320.30
665.11	319.72
665.45	319.21
665.79	318.71
666.13	318.18
666.47	317.66
666.81	317.10
667.15	316.51
667.49	316.04
667.83	315.62
668.17	315.18
668.51	314.77
668.85	314.37
669.19	314.02
669.53	313.48
669.87	312.95
670.21	312.41
670.55	311.90
670.89	311.52
671.23	311.08
671.57	310.70
671.91	310.34
672.25	310.01
672.58	309.68
672.92	309.24
673.26	308.91
673.60	308.54
673.94	308.19
674.28	307.86
674.62	307.50
674.96	307.06
675.30	306.67
675.64	306.23
675.97	305.79
676.31	305.31
676.65	304.91
676.99	304.60
677.33	304.17
677.67	303.79
678.01	303.31
678.34	302.91
678.68	302.52
679.02	302.08
679.36	301.65
679.70	301.19
680.04	300.82
680.37	300.41
680.71	300.04
681.05	299.68
681.39	299.27
681.73	298.81
682.06	298.41
682.40	298.03
682.74	297.69
683.08	297.40
683.42	297.03
683.75	296.70
684.09	296.24
684.43	295.87
684.77	295.46
685.10	295.09
685.44	294.71
685.78	294.31
686.12	293.92
686.45	293.52
686.79	293.09
687.13	292.70
687.46	292.26
687.80	291.87
688.14	291.40
688.48	291.00
688.81	290.60
689.15	290.25
689.49	289.82
689.82	289.40
690.16	288.87
690.50	288.43
690.83	288.00
691.17	287.56
691.51	287.15
691.84	286.77
692.18	286.35
692.52	285.90
692.85	285.47
693.19	285.11
693.52	284.69
693.86	284.27
694.20	283.84
694.53	283.43
694.87	282.98
695.21	282.55
695.54	282.12
695.88	281.69
696.21	281.21
696.55	280.78
696.88	280.36
697.22	279.95
697.56	279.58
697.89	279.11
698.23	278.73
698.56	278.30
698.90	277.89
699.23	277.45
699.57	277.07
699.90	276.67
700.24	276.22
700.58	275.84
700.91	275.50
701.25	275.27
701.58	274.96
701.92	274.64
702.25	274.28
702.59	273.89
702.92	273.50
703.26	273.12
703.59	272.74
703.93	272.49
704.26	272.12
704.60	271.72
704.93	271.35
705.26	270.96
705.60	270.63
705.93	270.21
706.27	269.91
706.60	269.58
706.94	269.28
707.27	268.87
707.61	268.50
707.94	268.09
708.27	267.56
708.61	267.13
708.94	266.72
709.28	266.36
709.61	265.99
709.94	265.67
710.28	265.34
710.61	265.02
710.95	264.53
711.28	264.31
711.61	263.96
711.95	263.66
712.28	263.32
712.61	262.96
712.95	262.72
713.28	262.45
713.61	262.09
713.95	261.71
714.28	261.41
714.61	261.08
714.95	260.77
715.28	260.46
715.61	260.16
715.95	259.87
716.28	259.57
716.61	259.31
716.95	258.99
717.28	258.69
717.61	258.39
717.94	258.12
718.28	257.71
718.61	257.42
718.94	257.10
719.27	256.83
719.61	256.58
719.94	256.27
720.27	255.91
720.60	255.65
720.94	255.38
721.27	255.12
721.60	254.89
721.93	254.62
722.27	254.40
722.60	254.15
722.93	253.88
723.26	253.64
723.59	253.36
723.93	253.14
724.26	252.91
724.59	252.66
724.92	252.44
725.25	252.26
725.59	252.04
725.92	251.84
726.25	251.61
726.58	251.38
726.91	251.13
727.24	250.93
727.57	250.69
727.91	250.44
728.24	250.25
728.57	250.02
728.90	249.82
729.23	249.55
729.56	249.42
729.89	249.21
730.22	249.00
730.55	248.79
730.89	248.57
731.22	248.36
731.55	248.16
731.88	247.97
732.21	247.74
732.54	247.54
732.87	247.35
733.20	247.18
733.53	247.00
733.86	246.84
734.19	246.63
734.52	246.49
734.85	246.45
735.18	246.24
735.51	246.13
735.84	245.97
736.17	245.85
736.50	245.58
736.83	245.61
737.16	245.45
737.49	245.29
737.82	245.11
738.15	244.97
738.48	244.80
738.81	244.62
739.14	244.44
739.47	244.27
739.80	244.10
740.13	243.95
740.46	243.75
740.79	243.56
741.12	243.40
741.45	243.20
741.78	242.94
742.11	242.83
742.44	242.62
742.77	242.47
743.10	242.29
743.43	242.13
743.75	241.80
744.08	241.92
744.41	241.76
744.74	241.61
745.07	241.43
745.40	241.33
745.73	241.26
746.06	241.13
746.39	241.02
746.71	240.87
747.04	240.71
747.37	240.57
747.70	240.47
748.03	240.34
748.36	240.25
748.68	240.12
749.01	239.95
749.34	239.83
749.67	239.71
750.00	239.61
750.33	239.63
750.65	239.53
750.98	239.15
751.31	239.05
751.64	238.95
751.97	238.93
752.29	238.78
752.62	238.58
752.95	238.46
753.28	238.31
753.60	238.19
753.93	238.12
754.26	238.03
754.59	237.87
754.91	237.75
755.24	237.62
755.57	237.53
755.90	237.41
756.22	237.27
756.55	237.14
756.88	237.00
757.20	236.77
757.53	236.61
757.86	236.50
758.19	236.40
758.51	236.29
758.84	236.10
759.17	236.00
759.49	235.91
759.82	235.91
760.15	235.84
760.47	235.74
760.80	235.60
761.13	235.53
761.45	235.44
761.78	235.36
762.11	235.27
762.43	235.16
762.76	235.08
763.08	235.03
763.41	234.96
763.74	234.89
764.06	234.81
764.39	234.74
764.71	234.66
765.04	234.56
765.37	234.48
765.69	234.40
766.02	234.32
766.34	234.23
766.67	234.09
767.00	234.05
767.32	234.08
767.65	234.12
767.97	234.03
768.30	233.98
768.62	233.91
768.95	233.82
769.27	233.75
769.60	233.71
769.92	233.61
770.25	233.51
770.57	233.42
770.90	233.36
771.22	233.28
771.55	233.23
771.87	233.19
772.20	233.13
772.52	233.22
772.85	233.39
773.17	233.34
773.50	233.28
773.82	233.20
774.15	233.05
774.47	232.89
774.80	232.83
775.12	232.77
775.45	232.72
775.77	232.68
776.09	232.63
776.42	232.59
776.74	232.60
777.07	232.55
777.39	232.51
777.72	232.46
778.04	232.45
778.36	232.38
778.69	232.34
779.01	232.32
779.33	232.12
779.66	231.87
779.98	231.81
780.31	231.78
780.63	231.81
780.95	231.80
781.28	231.76
781.60	231.71
781.92	231.68
782.25	231.65
782.57	231.61
782.89	231.57
783.22	231.52
783.54	231.45
783.86	231.43
784.19	231.38
784.51	231.40
784.83	231.34
785.16	231.30
785.48	231.27
785.80	231.23
786.12	231.22
786.45	231.19
786.77	231.17
787.09	231.13
787.42	231.03
787.74	231.00
788.06	230.97
788.38	230.94
788.71	230.90
789.03	230.87
789.35	230.87
789.67	230.82
789.99	230.81
790.32	230.76
790.64	230.75
790.96	230.89
791.28	230.80
791.61	230.77
791.93	230.75
792.25	230.71
792.57	230.81
792.89	230.75
793.21	230.74
793.54	230.69
793.86	230.65
794.18	230.63
794.50	230.57
794.82	230.55
795.14	230.55
795.47	230.55
795.79	230.53
796.11	230.47
796.43	230.44
796.75	230.42
797.07	230.41
797.39	230.38
797.71	230.21
798.04	230.20
798.36	230.19
798.68	230.17
799.00	230.16
799.32	230.05
799.64	230.07
799.96	230.04
800.28	230.07
800.60	230.05
800.92	230.03
801.24	230.01
801.56	230.00
801.89	229.97
802.21	229.96
802.53	229.91
802.85	229.93
803.17	229.99
803.49	229.93
803.81	229.90
804.13	229.87
804.45	229.83
804.77	229.82
805.09	229.81
805.41	229.76
805.73	229.72
806.05	229.65
806.37	229.62
806.69	229.59
807.01	229.55
807.33	229.54
807.65	229.47
807.97	229.53
808.28	229.50
808.60	229.47
808.92	229.42
809.24	229.53
809.56	229.48
809.88	229.40
810.20	229.40
810.52	229.42
810.84	229.38
811.16	229.35
811.48	229.32
811.80	229.36
812.12	229.35
812.43	229.38
812.75	229.38
813.07	229.35
813.39	229.34
813.71	229.30
814.03	229.28
814.35	229.28
814.67	229.19
814.98	229.16
815.30	229.15
815.62	229.12
815.94	228.99
816.26	228.99
816.58	228.94
816.89	228.95
817.21	228.90
817.53	228.91
817.85	228.91
818.17	228.90
818.48	228.82
