SpectraSuite Data File
++++++++++++++++++++++++++++++++++++
Date: Tue Oct 06 13:37:51 EDT 2015
User: lab3
Dark Spectrum Present: No
Reference Spectrum Present: No
Number of Sampled Component Spectra: 1
Spectrometers: USB2E7196
Integration Time (usec): 66000 (USB2E7196)
Spectra Averaged: 1000 (USB2E7196)
Boxcar Smoothing: 10 (USB2E7196)
Correct for Electrical Dark: No (USB2E7196)
Strobe/Lamp Enabled: No (USB2E7196)
Correct for Detector Non-linearity: No (USB2E7196)
Correct for Stray Light: No (USB2E7196)
Number of Pixels in Processed Spectrum: 2048
>>>>>Begin Processed Spectral Data<<<<<
339.09	0.00
339.48	215.94
339.86	217.52
340.24	218.57
340.63	220.15
341.01	224.11
341.39	222.86
341.78	224.29
342.16	225.55
342.54	225.84
342.93	214.32
343.31	225.14
343.69	225.67
344.07	226.12
344.46	226.58
344.84	226.98
345.22	227.18
345.60	227.45
345.99	227.65
346.37	227.80
346.75	227.91
347.13	227.99
347.52	228.07
347.90	228.20
348.28	228.24
348.66	228.32
349.05	228.31
349.43	228.38
349.81	228.45
350.19	228.51
350.57	228.60
350.96	228.70
351.34	228.80
351.72	228.91
352.10	229.03
352.48	229.10
352.87	229.14
353.25	229.21
353.63	229.26
354.01	229.32
354.39	229.40
354.77	229.47
355.15	229.60
355.54	229.64
355.92	229.65
356.30	229.73
356.68	229.92
357.06	230.00
357.44	230.04
357.82	230.10
358.20	230.30
358.58	230.35
358.97	230.41
359.35	230.51
359.73	230.60
360.11	230.65
360.49	230.71
360.87	230.76
361.25	230.83
361.63	230.93
362.01	230.99
362.39	231.02
362.77	231.08
363.15	231.08
363.53	231.12
363.91	231.16
364.29	231.18
364.67	231.03
365.05	231.05
365.43	231.09
365.81	231.13
366.19	231.08
366.57	231.17
366.95	231.18
367.33	231.14
367.71	231.14
368.09	231.17
368.47	231.17
368.85	231.16
369.23	231.18
369.61	231.11
369.99	231.15
370.37	231.14
370.75	231.27
371.13	231.25
371.51	231.20
371.89	231.19
372.27	231.17
372.65	231.15
373.03	231.12
373.41	231.07
373.78	231.03
374.16	230.90
374.54	230.80
374.92	230.75
375.30	230.71
375.68	230.63
376.06	230.59
376.44	230.54
376.82	230.50
377.19	230.46
377.57	230.41
377.95	230.30
378.33	230.25
378.71	230.05
379.09	230.00
379.47	229.99
379.84	229.93
380.22	229.86
380.60	229.78
380.98	229.74
381.36	229.68
381.73	229.61
382.11	229.60
382.49	229.58
382.87	229.51
383.25	229.47
383.62	229.64
384.00	229.56
384.38	229.53
384.76	229.53
385.13	229.53
385.51	229.50
385.89	229.45
386.27	229.41
386.64	229.41
387.02	229.36
387.40	229.31
387.78	229.28
388.15	229.26
388.53	229.23
388.91	229.20
389.29	229.19
389.66	229.20
390.04	229.15
390.42	229.16
390.79	229.16
391.17	229.14
391.55	228.93
391.92	228.93
392.30	228.94
392.68	228.90
393.05	228.89
393.43	228.90
393.81	228.91
394.18	228.90
394.56	228.91
394.94	228.97
395.31	228.98
395.69	229.06
396.06	229.12
396.44	229.16
396.82	229.17
397.19	229.29
397.57	229.31
397.95	229.39
398.32	229.39
398.70	229.45
399.07	229.55
399.45	229.60
399.82	229.67
400.20	229.73
400.58	229.82
400.95	229.82
401.33	229.95
401.70	230.18
402.08	230.34
402.45	230.46
402.83	230.63
403.20	230.79
403.58	230.91
403.95	231.11
404.33	231.32
404.71	231.53
405.08	231.84
405.46	232.08
405.83	232.35
406.21	232.63
406.58	232.97
406.96	233.29
407.33	233.66
407.70	234.08
408.08	234.64
408.45	235.13
408.83	235.67
409.20	236.16
409.58	236.60
409.95	237.20
410.33	237.86
410.70	238.49
411.08	239.23
411.45	240.02
411.82	240.83
412.20	241.73
412.57	242.81
412.95	243.69
413.32	244.80
413.69	245.95
414.07	247.18
414.44	248.51
414.82	249.88
415.19	251.49
415.56	253.11
415.94	254.80
416.31	256.71
416.68	258.63
417.06	260.83
417.43	262.91
417.81	265.28
418.18	267.72
418.55	270.35
418.93	273.11
419.30	275.98
419.67	279.04
420.04	282.19
420.42	285.49
420.79	289.27
421.16	293.10
421.54	296.97
421.91	301.03
422.28	305.24
422.66	309.77
423.03	314.09
423.40	318.62
423.77	323.46
424.15	328.42
424.52	333.53
424.89	339.11
425.26	344.62
425.64	349.75
426.01	355.47
426.38	361.36
426.75	367.40
427.13	373.57
427.50	380.01
427.87	386.68
428.24	393.40
428.61	399.86
428.99	406.78
429.36	414.44
429.73	421.79
430.10	429.06
430.47	436.54
430.85	444.24
431.22	452.47
431.59	460.89
431.96	469.10
432.33	478.24
432.70	486.93
433.08	497.29
433.45	507.04
433.82	516.59
434.19	527.27
434.56	537.78
434.93	547.97
435.30	558.10
435.68	569.60
436.05	580.81
436.42	592.03
436.79	602.29
437.16	613.34
437.53	625.24
437.90	637.19
438.27	648.80
438.64	661.32
439.01	672.70
439.38	683.27
439.75	693.42
440.13	704.98
440.50	715.99
440.87	724.71
441.24	734.33
441.61	744.89
441.98	752.67
442.35	761.90
442.72	771.34
443.09	780.42
443.46	786.43
443.83	790.91
444.20	794.61
444.57	800.04
444.94	803.42
445.31	806.78
445.68	809.66
446.05	811.85
446.42	811.69
446.79	811.36
447.16	811.03
447.53	810.90
447.90	807.69
448.27	804.54
448.64	799.51
449.01	796.20
449.37	789.08
449.74	782.68
450.11	774.32
450.48	765.05
450.85	755.68
451.22	747.49
451.59	739.59
451.96	732.54
452.33	722.18
452.70	712.84
453.07	701.56
453.43	690.31
453.80	679.36
454.17	668.91
454.54	659.13
454.91	648.05
455.28	637.54
455.65	627.58
456.02	617.15
456.38	608.75
456.75	597.85
457.12	589.08
457.49	580.21
457.86	571.86
458.23	564.56
458.59	556.44
458.96	548.19
459.33	540.92
459.70	533.50
460.07	527.74
460.43	521.03
460.80	514.72
461.17	509.20
461.54	503.32
461.91	497.77
462.27	492.14
462.64	487.56
463.01	482.31
463.38	477.08
463.74	472.35
464.11	468.15
464.48	464.41
464.85	460.32
465.21	457.17
465.58	453.70
465.95	449.71
466.32	446.54
466.68	443.41
467.05	440.26
467.42	437.19
467.78	433.93
468.15	430.94
468.52	428.76
468.88	425.88
469.25	423.22
469.62	421.14
469.98	418.83
470.35	416.78
470.72	414.94
471.08	413.04
471.45	411.43
471.82	409.62
472.18	407.75
472.55	406.52
472.92	405.01
473.28	403.80
473.65	402.52
474.02	401.35
474.38	400.33
474.75	399.71
475.11	398.84
475.48	398.43
475.85	397.98
476.21	397.73
476.58	397.56
476.94	397.74
477.31	397.78
477.67	397.94
478.04	398.24
478.41	398.63
478.77	399.21
479.14	399.56
479.50	400.30
479.87	401.25
480.23	402.22
480.60	403.16
480.96	404.11
481.33	405.51
481.69	406.88
482.06	408.23
482.42	409.51
482.79	411.06
483.15	412.89
483.52	414.98
483.88	416.98
484.25	419.09
484.61	421.29
484.98	423.64
485.34	426.28
485.71	429.05
486.07	432.03
486.44	434.95
486.80	438.25
487.17	441.61
487.53	445.30
487.90	449.13
488.26	453.34
488.62	457.74
488.99	462.16
489.35	466.85
489.72	471.90
490.08	477.19
490.44	482.59
490.81	488.16
491.17	493.85
491.54	499.93
491.90	506.16
492.26	512.81
492.63	519.77
492.99	526.98
493.36	534.44
493.72	542.30
494.08	550.30
494.45	558.69
494.81	567.49
495.17	576.48
495.54	585.98
495.90	595.84
496.26	606.01
496.63	616.40
496.99	627.11
497.35	638.28
497.72	649.81
498.08	661.78
498.44	674.03
498.80	687.07
499.17	700.39
499.53	714.15
499.89	728.30
500.26	742.55
500.62	757.07
500.98	772.32
501.34	787.74
501.71	803.88
502.07	820.30
502.43	837.18
502.79	854.16
503.16	871.62
503.52	889.34
503.88	907.51
504.24	926.11
504.60	944.95
504.97	964.23
505.33	983.95
505.69	1004.66
506.05	1025.39
506.41	1046.03
506.78	1067.01
507.14	1088.81
507.50	1111.01
507.86	1133.66
508.22	1156.49
508.59	1179.09
508.95	1202.56
509.31	1226.47
509.67	1251.03
510.03	1275.39
510.39	1300.23
510.75	1325.03
511.12	1349.90
511.48	1374.80
511.84	1399.81
512.20	1425.29
512.56	1451.22
512.92	1476.89
513.28	1502.25
513.64	1527.98
514.00	1553.77
514.37	1579.75
514.73	1605.41
515.09	1630.62
515.45	1656.08
515.81	1681.64
516.17	1707.26
516.53	1732.21
516.89	1757.10
517.25	1782.06
517.61	1806.92
517.97	1831.92
518.33	1856.53
518.69	1881.02
519.05	1905.70
519.41	1930.35
519.77	1954.83
520.13	1979.02
520.49	2003.13
520.85	2027.24
521.21	2051.17
521.57	2075.31
521.93	2098.43
522.29	2122.04
522.65	2145.11
523.01	2167.96
523.37	2189.97
523.73	2212.38
524.09	2234.95
524.45	2257.57
524.81	2279.38
525.17	2301.00
525.53	2321.88
525.89	2343.07
526.25	2363.85
526.61	2383.48
526.97	2403.24
527.33	2422.63
527.68	2441.11
528.04	2458.97
528.40	2475.81
528.76	2493.20
529.12	2509.44
529.48	2526.05
529.84	2541.40
530.20	2557.86
530.56	2573.25
530.91	2588.56
531.27	2602.94
531.63	2616.18
531.99	2629.20
532.35	2640.57
532.71	2652.02
533.07	2663.77
533.42	2674.01
533.78	2684.98
534.14	2696.21
534.50	2706.00
534.86	2715.90
535.21	2723.88
535.57	2731.93
535.93	2740.44
536.29	2747.73
536.65	2755.24
537.00	2760.61
537.36	2766.40
537.72	2770.49
538.08	2774.29
538.44	2777.18
538.79	2780.41
539.15	2783.07
539.51	2785.08
539.87	2787.82
540.22	2788.42
540.58	2789.48
540.94	2790.15
541.29	2789.40
541.65	2787.15
542.01	2784.98
542.37	2781.77
542.72	2780.28
543.08	2777.49
543.44	2774.47
543.79	2769.74
544.15	2764.85
544.51	2760.88
544.87	2754.83
545.22	2748.24
545.58	2741.88
545.94	2736.29
546.29	2729.02
546.65	2721.05
547.01	2713.18
547.36	2704.97
547.72	2696.68
548.07	2687.24
548.43	2677.66
548.79	2666.96
549.14	2657.28
549.50	2647.45
549.86	2637.03
550.21	2624.74
550.57	2613.83
550.92	2601.12
551.28	2589.07
551.64	2577.24
551.99	2565.46
552.35	2553.85
552.70	2541.99
553.06	2530.42
553.41	2517.69
553.77	2504.57
554.13	2491.78
554.48	2478.15
554.84	2463.94
555.19	2450.71
555.55	2436.70
555.90	2422.71
556.26	2409.69
556.61	2395.90
556.97	2381.14
557.32	2366.72
557.68	2352.54
558.03	2337.67
558.39	2323.65
558.74	2309.85
559.10	2294.06
559.45	2278.73
559.81	2264.10
560.16	2249.08
560.52	2233.78
560.87	2219.29
561.23	2204.36
561.58	2189.75
561.94	2174.40
562.29	2159.28
562.64	2144.07
563.00	2128.95
563.35	2114.52
563.71	2099.88
564.06	2084.81
564.42	2070.26
564.77	2055.79
565.12	2041.76
565.48	2027.64
565.83	2013.16
566.19	1998.86
566.54	1985.00
566.89	1969.95
567.25	1954.43
567.60	1940.16
567.96	1925.34
568.31	1909.94
568.66	1895.36
569.02	1880.82
569.37	1866.39
569.72	1852.23
570.08	1837.97
570.43	1823.65
570.78	1808.53
571.14	1793.41
571.49	1778.72
571.84	1764.82
572.20	1749.61
572.55	1734.59
572.90	1719.07
573.26	1703.61
573.61	1687.80
573.96	1672.64
574.31	1658.10
574.67	1644.04
575.02	1629.13
575.37	1613.89
575.72	1598.55
576.08	1583.54
576.43	1568.62
576.78	1553.79
577.13	1539.04
577.49	1524.27
577.84	1509.44
578.19	1494.82
578.54	1480.21
578.90	1465.47
579.25	1450.26
579.60	1436.22
579.95	1422.14
580.30	1408.23
580.66	1394.38
581.01	1380.71
581.36	1366.86
581.71	1352.98
582.06	1339.14
582.42	1325.47
582.77	1312.22
583.12	1299.28
583.47	1286.22
583.82	1273.22
584.17	1260.22
584.53	1247.23
584.88	1234.66
585.23	1221.87
585.58	1209.35
585.93	1196.90
586.28	1185.06
586.63	1173.08
586.98	1160.94
587.34	1149.18
587.69	1137.22
588.04	1125.66
588.39	1114.24
588.74	1102.75
589.09	1091.59
589.44	1079.94
589.79	1068.88
590.14	1057.95
590.49	1047.12
590.84	1036.51
591.19	1026.00
591.54	1015.51
591.89	1004.83
592.25	994.17
592.60	983.54
592.95	973.14
593.30	962.77
593.65	952.35
594.00	942.23
594.35	932.79
594.70	922.83
595.05	913.58
595.40	904.08
595.75	894.46
596.10	885.31
596.45	876.05
596.80	867.17
597.15	858.26
597.50	849.40
597.85	840.86
598.19	832.28
598.54	823.70
598.89	815.30
599.24	807.31
599.59	799.38
599.94	791.95
600.29	784.33
600.64	776.78
600.99	769.20
601.34	761.82
601.69	753.87
602.04	746.54
602.39	739.31
602.74	732.30
603.08	725.37
603.43	718.48
603.78	711.69
604.13	705.06
604.48	698.41
604.83	692.01
605.18	685.57
605.53	679.25
605.87	672.82
606.22	666.66
606.57	660.48
606.92	654.17
607.27	648.02
607.62	642.22
607.96	636.54
608.31	631.11
608.66	625.52
609.01	620.19
609.36	615.09
609.70	609.85
610.05	604.55
610.40	599.43
610.75	594.23
611.10	589.35
611.44	584.42
611.79	579.60
612.14	574.71
612.49	569.84
612.83	565.22
613.18	560.84
613.53	556.41
613.88	552.05
614.22	547.93
614.57	543.68
614.92	539.43
615.27	535.31
615.61	531.21
615.96	527.27
616.31	523.35
616.65	519.39
617.00	515.53
617.35	511.79
617.70	508.11
618.04	504.61
618.39	501.04
618.74	497.62
619.08	494.14
619.43	490.74
619.78	487.48
620.12	484.23
620.47	481.11
620.82	478.03
621.16	474.99
621.51	472.08
621.85	469.22
622.20	466.42
622.55	463.60
622.89	460.85
623.24	458.22
623.59	455.61
623.93	453.05
624.28	450.60
624.62	448.35
624.97	446.10
625.32	443.69
625.66	441.29
626.01	438.90
626.35	436.72
626.70	434.49
627.04	432.43
627.39	430.28
627.73	428.17
628.08	426.18
628.43	424.19
628.77	422.18
629.12	420.32
629.46	418.43
629.81	416.67
630.15	414.82
630.50	412.99
630.84	411.24
631.19	409.56
631.53	407.95
631.88	406.13
632.22	404.39
632.57	402.97
632.91	401.55
633.26	400.20
633.60	398.76
633.95	397.40
634.29	395.91
634.64	394.51
634.98	392.98
635.32	391.61
635.67	390.34
636.01	389.05
636.36	387.79
636.70	386.66
637.05	385.39
637.39	384.25
637.73	383.12
638.08	382.02
638.42	380.92
638.77	379.69
639.11	378.47
639.45	377.33
639.80	376.15
640.14	375.00
640.49	373.81
640.83	372.69
641.17	371.56
641.52	370.48
641.86	369.46
642.20	368.61
642.55	367.56
642.89	366.53
643.23	365.51
643.58	364.62
643.92	363.56
644.26	362.57
644.61	361.65
644.95	360.69
645.29	359.73
645.64	358.76
645.98	357.84
646.32	357.01
646.66	356.12
647.01	355.21
647.35	354.38
647.69	353.55
648.04	352.76
648.38	351.92
648.72	351.15
649.06	350.38
649.41	349.56
649.75	348.77
650.09	348.05
650.43	347.32
650.78	346.52
651.12	345.78
651.46	345.07
651.80	344.35
652.14	343.62
652.49	342.93
652.83	342.20
653.17	341.52
653.51	340.85
653.85	340.24
654.20	339.61
654.54	338.90
654.88	338.23
655.22	337.59
655.56	336.89
655.90	336.19
656.25	335.52
656.59	334.86
656.93	334.27
657.27	333.69
657.61	333.04
657.95	332.46
658.29	331.86
658.64	331.34
658.98	330.76
659.32	330.19
659.66	329.62
660.00	329.07
660.34	328.52
660.68	327.93
661.02	327.30
661.36	326.70
661.70	326.13
662.05	325.59
662.39	325.08
662.73	324.65
663.07	324.23
663.41	323.75
663.75	323.22
664.09	322.71
664.43	322.11
664.77	321.61
665.11	321.04
665.45	320.50
665.79	319.94
666.13	319.40
666.47	318.87
666.81	318.29
667.15	317.70
667.49	317.21
667.83	316.80
668.17	316.35
668.51	315.91
668.85	315.49
669.19	315.11
669.53	314.59
669.87	314.09
670.21	313.60
670.55	313.12
670.89	312.78
671.23	312.34
671.57	311.91
671.91	311.53
672.25	311.16
672.58	310.80
672.92	310.34
673.26	309.95
673.60	309.54
673.94	309.17
674.28	308.81
674.62	308.43
674.96	307.97
675.30	307.55
675.64	307.13
675.97	306.68
676.31	306.19
676.65	305.76
676.99	305.41
677.33	304.94
677.67	304.50
678.01	303.96
678.34	303.53
678.68	303.13
679.02	302.64
679.36	302.22
679.70	301.76
680.04	301.34
680.37	300.91
680.71	300.50
681.05	300.10
681.39	299.66
681.73	299.20
682.06	298.75
682.40	298.34
682.74	297.96
683.08	297.62
683.42	297.20
683.75	296.80
684.09	296.29
684.43	295.85
684.77	295.43
685.10	295.05
685.44	294.66
685.78	294.24
686.12	293.85
686.45	293.41
686.79	292.95
687.13	292.54
687.46	292.09
687.80	291.66
688.14	291.17
688.48	290.75
688.81	290.32
689.15	289.97
689.49	289.51
689.82	289.05
690.16	288.52
690.50	288.10
690.83	287.65
691.17	287.18
691.51	286.78
691.84	286.38
692.18	285.95
692.52	285.48
692.85	285.05
693.19	284.69
693.52	284.28
693.86	283.88
694.20	283.45
694.53	283.04
694.87	282.59
695.21	282.16
695.54	281.75
695.88	281.30
696.21	280.78
696.55	280.37
696.88	279.95
697.22	279.53
697.56	279.13
697.89	278.69
698.23	278.31
698.56	277.86
698.90	277.46
699.23	277.01
699.57	276.61
699.90	276.17
700.24	275.68
700.58	275.29
700.91	274.93
701.25	274.70
701.58	274.39
701.92	274.07
702.25	273.71
702.59	273.31
702.92	272.94
703.26	272.58
703.59	272.20
703.93	271.96
704.26	271.60
704.60	271.21
704.93	270.81
705.26	270.41
705.60	270.07
705.93	269.64
706.27	269.33
706.60	269.00
706.94	268.69
707.27	268.30
707.61	267.91
707.94	267.52
708.27	266.99
708.61	266.55
708.94	266.14
709.28	265.78
709.61	265.40
709.94	265.08
710.28	264.77
710.61	264.47
710.95	263.99
711.28	263.77
711.61	263.45
711.95	263.17
712.28	262.85
712.61	262.49
712.95	262.27
713.28	262.00
713.61	261.65
713.95	261.30
714.28	261.02
714.61	260.70
714.95	260.39
715.28	260.09
715.61	259.79
715.95	259.52
716.28	259.20
716.61	258.94
716.95	258.61
717.28	258.29
717.61	257.96
717.94	257.67
718.28	257.26
718.61	256.97
718.94	256.65
719.27	256.39
719.61	256.15
719.94	255.84
720.27	255.48
720.60	255.23
720.94	254.96
721.27	254.71
721.60	254.48
721.93	254.20
722.27	254.01
722.60	253.79
722.93	253.51
723.26	253.29
723.59	253.04
723.93	252.83
724.26	252.61
724.59	252.39
724.92	252.18
725.25	252.01
725.59	251.81
725.92	251.62
726.25	251.39
726.58	251.18
726.91	250.95
727.24	250.74
727.57	250.52
727.91	250.26
728.24	250.07
728.57	249.84
728.90	249.67
729.23	249.40
729.56	249.27
729.89	249.09
730.22	248.86
730.55	248.66
730.89	248.46
731.22	248.24
731.55	248.03
731.88	247.84
732.21	247.62
732.54	247.41
732.87	247.22
733.20	247.04
733.53	246.85
733.86	246.68
734.19	246.48
734.52	246.33
734.85	246.29
735.18	246.08
735.51	245.97
735.84	245.81
736.17	245.69
736.50	245.42
736.83	245.45
737.16	245.30
737.49	245.14
737.82	244.96
738.15	244.84
738.48	244.68
738.81	244.51
739.14	244.33
739.47	244.15
739.80	243.99
740.13	243.85
740.46	243.68
740.79	243.51
741.12	243.36
741.45	243.18
741.78	242.93
742.11	242.84
742.44	242.65
742.77	242.51
743.10	242.34
743.43	242.19
743.75	241.87
744.08	241.99
744.41	241.83
744.74	241.69
745.07	241.50
745.40	241.41
745.73	241.34
746.06	241.21
746.39	241.11
746.71	240.96
747.04	240.79
747.37	240.66
747.70	240.57
748.03	240.45
748.36	240.36
748.68	240.24
749.01	240.08
749.34	239.97
749.67	239.85
750.00	239.76
750.33	239.77
750.65	239.68
750.98	239.31
751.31	239.22
751.64	239.12
751.97	239.09
752.29	238.96
752.62	238.78
752.95	238.66
753.28	238.52
753.60	238.41
753.93	238.35
754.26	238.26
754.59	238.09
754.91	237.96
755.24	237.83
755.57	237.73
755.90	237.62
756.22	237.49
756.55	237.35
756.88	237.21
757.20	236.99
757.53	236.84
757.86	236.73
758.19	236.64
758.51	236.54
758.84	236.36
759.17	236.24
759.49	236.16
759.82	236.16
760.15	236.08
760.47	235.99
760.80	235.86
761.13	235.80
761.45	235.71
761.78	235.64
762.11	235.56
762.43	235.47
762.76	235.39
763.08	235.34
763.41	235.28
763.74	235.21
764.06	235.13
764.39	235.05
764.71	234.98
765.04	234.88
765.37	234.80
765.69	234.73
766.02	234.66
766.34	234.58
766.67	234.44
767.00	234.41
767.32	234.43
767.65	234.48
767.97	234.40
768.30	234.35
768.62	234.28
768.95	234.20
769.27	234.14
769.60	234.10
769.92	234.00
770.25	233.89
770.57	233.80
770.90	233.74
771.22	233.67
771.55	233.62
771.87	233.59
772.20	233.53
772.52	233.63
772.85	233.78
773.17	233.73
773.50	233.67
773.82	233.59
774.15	233.45
774.47	233.29
774.80	233.22
775.12	233.17
775.45	233.12
775.77	233.07
776.09	233.04
776.42	233.00
776.74	233.01
777.07	232.97
777.39	232.93
777.72	232.87
778.04	232.85
778.36	232.78
778.69	232.74
779.01	232.71
779.33	232.51
779.66	232.27
779.98	232.20
780.31	232.17
780.63	232.21
780.95	232.21
781.28	232.17
781.60	232.11
781.92	232.06
782.25	232.03
782.57	232.00
782.89	231.95
783.22	231.90
783.54	231.82
783.86	231.79
784.19	231.75
784.51	231.77
784.83	231.71
785.16	231.68
785.48	231.65
785.80	231.61
786.12	231.59
786.45	231.57
786.77	231.56
787.09	231.50
787.42	231.41
787.74	231.38
788.06	231.36
788.38	231.34
788.71	231.30
789.03	231.28
789.35	231.28
789.67	231.22
789.99	231.22
790.32	231.17
790.64	231.17
790.96	231.30
791.28	231.24
791.61	231.21
791.93	231.20
792.25	231.16
792.57	231.27
792.89	231.22
793.21	231.20
793.54	231.16
793.86	231.13
794.18	231.12
794.50	231.06
794.82	231.04
795.14	231.04
795.47	231.06
795.79	231.02
796.11	230.97
796.43	230.94
796.75	230.92
797.07	230.92
797.39	230.90
797.71	230.74
798.04	230.71
798.36	230.70
798.68	230.69
799.00	230.68
799.32	230.56
799.64	230.56
799.96	230.54
800.28	230.54
800.60	230.51
800.92	230.49
801.24	230.47
801.56	230.47
801.89	230.42
802.21	230.40
802.53	230.35
802.85	230.36
803.17	230.43
803.49	230.36
803.81	230.33
804.13	230.29
804.45	230.26
804.77	230.25
805.09	230.23
805.41	230.19
805.73	230.14
806.05	230.07
806.37	230.04
806.69	230.02
807.01	229.99
807.33	229.99
807.65	229.92
807.97	229.99
808.28	229.94
808.60	229.93
808.92	229.89
809.24	229.98
809.56	229.93
809.88	229.86
810.20	229.86
810.52	229.88
810.84	229.84
811.16	229.80
811.48	229.77
811.80	229.83
812.12	229.81
812.43	229.84
812.75	229.85
813.07	229.82
813.39	229.82
813.71	229.78
814.03	229.76
814.35	229.76
814.67	229.67
814.98	229.66
815.30	229.64
815.62	229.60
815.94	229.48
816.26	229.50
816.58	229.44
816.89	229.45
817.21	229.39
817.53	229.39
817.85	229.41
818.17	229.39
818.48	229.31
