SpectraSuite Data File
++++++++++++++++++++++++++++++++++++
Date: Tue Oct 06 15:39:03 EDT 2015
User: lab3
Dark Spectrum Present: No
Reference Spectrum Present: No
Number of Sampled Component Spectra: 1
Spectrometers: USB2E7196
Integration Time (usec): 66000 (USB2E7196)
Spectra Averaged: 1000 (USB2E7196)
Boxcar Smoothing: 10 (USB2E7196)
Correct for Electrical Dark: No (USB2E7196)
Strobe/Lamp Enabled: No (USB2E7196)
Correct for Detector Non-linearity: No (USB2E7196)
Correct for Stray Light: No (USB2E7196)
Number of Pixels in Processed Spectrum: 2048
>>>>>Begin Processed Spectral Data<<<<<
339.09	0.00
339.48	215.33
339.86	216.57
340.24	218.08
340.63	219.54
341.01	223.56
341.39	222.20
341.78	223.78
342.16	225.07
342.54	225.25
342.93	213.74
343.31	224.53
343.69	225.07
344.07	225.54
344.46	225.99
344.84	226.39
345.22	226.60
345.60	226.89
345.99	227.09
346.37	227.23
346.75	227.35
347.13	227.46
347.52	227.55
347.90	227.68
348.28	227.72
348.66	227.80
349.05	227.79
349.43	227.86
349.81	227.93
350.19	228.00
350.57	228.09
350.96	228.19
351.34	228.29
351.72	228.41
352.10	228.53
352.48	228.60
352.87	228.65
353.25	228.72
353.63	228.76
354.01	228.82
354.39	228.89
354.77	228.97
355.15	229.08
355.54	229.12
355.92	229.12
356.30	229.19
356.68	229.38
357.06	229.47
357.44	229.51
357.82	229.56
358.20	229.78
358.58	229.83
358.97	229.90
359.35	229.99
359.73	230.09
360.11	230.14
360.49	230.22
360.87	230.28
361.25	230.34
361.63	230.45
362.01	230.50
362.39	230.54
362.77	230.59
363.15	230.62
363.53	230.65
363.91	230.69
364.29	230.72
364.67	230.56
365.05	230.58
365.43	230.62
365.81	230.67
366.19	230.62
366.57	230.70
366.95	230.71
367.33	230.66
367.71	230.66
368.09	230.68
368.47	230.67
368.85	230.65
369.23	230.67
369.61	230.59
369.99	230.64
370.37	230.64
370.75	230.76
371.13	230.71
371.51	230.68
371.89	230.67
372.27	230.65
372.65	230.65
373.03	230.60
373.41	230.55
373.78	230.50
374.16	230.37
374.54	230.26
374.92	230.21
375.30	230.18
375.68	230.10
376.06	230.06
376.44	230.00
376.82	229.97
377.19	229.92
377.57	229.86
377.95	229.77
378.33	229.69
378.71	229.48
379.09	229.44
379.47	229.42
379.84	229.34
380.22	229.28
380.60	229.21
380.98	229.16
381.36	229.12
381.73	229.04
382.11	229.03
382.49	229.00
382.87	228.92
383.25	228.88
383.62	229.05
384.00	228.97
384.38	228.94
384.76	228.94
385.13	228.95
385.51	228.92
385.89	228.85
386.27	228.82
386.64	228.83
387.02	228.78
387.40	228.74
387.78	228.74
388.15	228.72
388.53	228.69
388.91	228.67
389.29	228.62
389.66	228.64
390.04	228.59
390.42	228.60
390.79	228.60
391.17	228.58
391.55	228.37
391.92	228.36
392.30	228.38
392.68	228.32
393.05	228.30
393.43	228.31
393.81	228.34
394.18	228.32
394.56	228.33
394.94	228.38
395.31	228.39
395.69	228.46
396.06	228.51
396.44	228.56
396.82	228.58
397.19	228.72
397.57	228.73
397.95	228.81
398.32	228.82
398.70	228.91
399.07	229.00
399.45	229.06
399.82	229.12
400.20	229.17
400.58	229.28
400.95	229.30
401.33	229.44
401.70	229.67
402.08	229.82
402.45	229.95
402.83	230.11
403.20	230.27
403.58	230.40
403.95	230.60
404.33	230.81
404.71	231.04
405.08	231.34
405.46	231.59
405.83	231.86
406.21	232.16
406.58	232.47
406.96	232.81
407.33	233.18
407.70	233.61
408.08	234.19
408.45	234.69
408.83	235.23
409.20	235.73
409.58	236.18
409.95	236.79
410.33	237.46
410.70	238.11
411.08	238.87
411.45	239.68
411.82	240.50
412.20	241.43
412.57	242.53
412.95	243.42
413.32	244.56
413.69	245.76
414.07	247.01
414.44	248.38
414.82	249.78
415.19	251.43
415.56	253.12
415.94	254.86
416.31	256.81
416.68	258.77
417.06	261.05
417.43	263.17
417.81	265.63
418.18	268.14
418.55	270.86
418.93	273.68
419.30	276.64
419.67	279.77
420.04	283.00
420.42	286.37
420.79	290.27
421.16	294.20
421.54	298.18
421.91	302.36
422.28	306.70
422.66	311.37
423.03	315.79
423.40	320.44
423.77	325.43
424.15	330.53
424.52	335.82
424.89	341.56
425.26	347.24
425.64	352.51
426.01	358.42
426.38	364.47
426.75	370.73
427.13	377.11
427.50	383.81
427.87	390.73
428.24	397.71
428.61	404.38
428.99	411.58
429.36	419.49
429.73	427.03
430.10	434.55
430.47	442.24
430.85	450.22
431.22	458.74
431.59	467.45
431.96	475.96
432.33	485.40
432.70	494.38
433.08	505.04
433.45	515.08
433.82	524.99
434.19	536.11
434.56	547.02
434.93	557.62
435.30	568.12
435.68	580.09
436.05	591.74
436.42	603.42
436.79	614.11
437.16	625.69
437.53	638.10
437.90	650.53
438.27	662.72
438.64	675.87
439.01	687.77
439.38	698.72
439.75	709.32
440.13	721.39
440.50	732.89
440.87	742.06
441.24	752.16
441.61	763.22
441.98	771.38
442.35	781.09
442.72	790.99
443.09	800.38
443.46	806.46
443.83	811.16
444.20	815.03
444.57	820.63
444.94	823.97
445.31	827.41
445.68	830.36
446.05	832.58
446.42	832.31
446.79	831.78
447.16	831.37
447.53	831.00
447.90	827.47
448.27	824.03
448.64	818.68
449.01	814.96
449.37	807.32
449.74	800.40
450.11	791.42
450.48	781.54
450.85	771.68
451.22	763.19
451.59	754.81
451.96	747.24
452.33	736.27
452.70	726.53
453.07	714.69
453.43	702.89
453.80	691.38
454.17	680.35
454.54	670.17
454.91	658.67
455.28	647.82
455.65	637.57
456.02	626.75
456.38	618.04
456.75	606.90
457.12	597.90
457.49	588.81
457.86	580.20
458.23	572.61
458.59	564.25
458.96	555.68
459.33	548.15
459.70	540.50
460.07	534.65
460.43	527.75
460.80	521.29
461.17	515.68
461.54	509.62
461.91	503.91
462.27	498.14
462.64	493.42
463.01	488.02
463.38	482.59
463.74	477.71
464.11	473.35
464.48	469.41
464.85	465.17
465.21	461.92
465.58	458.30
465.95	454.22
466.32	450.95
466.68	447.75
467.05	444.53
467.42	441.39
467.78	438.04
468.15	434.93
468.52	432.64
468.88	429.62
469.25	426.89
469.62	424.73
469.98	422.36
470.35	420.24
470.72	418.33
471.08	416.40
471.45	414.79
471.82	412.97
472.18	411.09
472.55	409.86
472.92	408.33
473.28	407.14
473.65	405.86
474.02	404.64
474.38	403.61
474.75	402.99
475.11	402.16
475.48	401.75
475.85	401.34
476.21	401.11
476.58	400.94
476.94	401.12
477.31	401.17
477.67	401.26
478.04	401.59
478.41	402.03
478.77	402.65
479.14	403.02
479.50	403.80
479.87	404.82
480.23	405.80
480.60	406.75
480.96	407.70
481.33	409.14
481.69	410.57
482.06	411.98
482.42	413.27
482.79	414.90
483.15	416.78
483.52	418.92
483.88	420.94
484.25	423.10
484.61	425.37
484.98	427.79
485.34	430.52
485.71	433.37
486.07	436.43
486.44	439.44
486.80	442.83
487.17	446.32
487.53	450.08
487.90	454.04
488.26	458.35
488.62	462.87
488.99	467.40
489.35	472.14
489.72	477.24
490.08	482.63
490.44	488.11
490.81	493.84
491.17	499.70
491.54	505.98
491.90	512.44
492.26	519.31
492.63	526.52
492.99	534.03
493.36	541.70
493.72	549.76
494.08	558.00
494.45	566.66
494.81	575.68
495.17	584.99
495.54	594.77
495.90	604.96
496.26	615.37
496.63	626.03
496.99	637.12
497.35	648.70
497.72	660.53
498.08	672.72
498.44	685.21
498.80	698.43
499.17	711.93
499.53	725.87
499.89	740.21
500.26	754.76
500.62	769.65
500.98	785.37
501.34	801.11
501.71	817.69
502.07	834.48
502.43	851.75
502.79	869.19
503.16	887.16
503.52	905.36
503.88	923.94
504.24	942.98
504.60	962.21
504.97	982.06
505.33	1002.36
505.69	1023.66
506.05	1045.12
506.41	1066.46
506.78	1087.93
507.14	1110.02
507.50	1132.54
507.86	1155.36
508.22	1178.40
508.59	1201.26
508.95	1225.23
509.31	1249.58
509.67	1274.56
510.03	1299.49
510.39	1324.33
510.75	1349.20
511.12	1374.38
511.48	1399.61
511.84	1424.88
512.20	1450.47
512.56	1476.94
512.92	1503.25
513.28	1528.96
513.64	1555.05
514.00	1581.40
514.37	1608.07
514.73	1634.65
515.09	1660.55
515.45	1686.83
515.81	1713.13
516.17	1739.07
516.53	1764.38
516.89	1789.69
517.25	1815.17
517.61	1840.37
517.97	1866.17
518.33	1891.35
518.69	1916.32
519.05	1941.72
519.41	1967.18
519.77	1992.50
520.13	2016.54
520.49	2040.67
520.85	2065.10
521.21	2088.89
521.57	2113.03
521.93	2136.10
522.29	2159.79
522.65	2183.23
523.01	2206.35
523.37	2228.87
523.73	2252.13
524.09	2275.02
524.45	2297.33
524.81	2319.04
525.17	2340.49
525.53	2361.33
525.89	2382.45
526.25	2403.22
526.61	2422.51
526.97	2441.71
527.33	2460.80
527.68	2479.39
528.04	2497.59
528.40	2514.42
528.76	2531.61
529.12	2548.29
529.48	2565.44
529.84	2579.94
530.20	2594.96
530.56	2608.99
530.91	2623.19
531.27	2636.88
531.63	2649.59
531.99	2662.04
532.35	2674.06
532.71	2685.61
533.07	2697.45
533.42	2707.41
533.78	2717.72
534.14	2728.88
534.50	2738.92
534.86	2749.49
535.21	2758.07
535.57	2766.45
535.93	2774.77
536.29	2781.41
536.65	2787.69
537.00	2792.51
537.36	2798.66
537.72	2803.66
538.08	2808.16
538.44	2811.73
538.79	2815.01
539.15	2816.92
539.51	2818.31
539.87	2818.64
540.22	2817.53
540.58	2816.56
540.94	2816.60
541.29	2815.26
541.65	2812.54
542.01	2809.51
542.37	2804.92
542.72	2801.86
543.08	2797.32
543.44	2792.88
543.79	2787.76
544.15	2782.19
544.51	2776.94
544.87	2770.49
545.22	2763.32
545.58	2756.05
545.94	2748.92
546.29	2740.32
546.65	2732.01
547.01	2723.68
547.36	2715.67
547.72	2707.87
548.07	2698.39
548.43	2687.89
548.79	2677.22
549.14	2666.91
549.50	2656.73
549.86	2645.72
550.21	2633.16
550.57	2621.51
550.92	2608.31
551.28	2595.71
551.64	2583.24
551.99	2570.47
552.35	2557.39
552.70	2544.16
553.06	2531.43
553.41	2518.25
553.77	2504.78
554.13	2491.47
554.48	2477.17
554.84	2462.30
555.19	2447.96
555.55	2433.45
555.90	2419.27
556.26	2405.53
556.61	2390.64
556.97	2374.83
557.32	2359.48
557.68	2344.43
558.03	2329.12
558.39	2314.69
558.74	2300.82
559.10	2285.21
559.45	2270.04
559.81	2255.55
560.16	2240.79
560.52	2225.79
560.87	2210.87
561.23	2195.68
561.58	2180.88
561.94	2165.70
562.29	2150.08
562.64	2134.58
563.00	2119.36
563.35	2104.26
563.71	2088.77
564.06	2073.49
564.42	2058.72
564.77	2043.96
565.12	2029.05
565.48	2014.05
565.83	1999.33
566.19	1984.59
566.54	1970.17
566.89	1955.04
567.25	1939.68
567.60	1925.17
567.96	1909.93
568.31	1893.73
568.66	1878.43
569.02	1863.68
569.37	1849.46
569.72	1835.83
570.08	1821.74
570.43	1807.10
570.78	1792.30
571.14	1777.30
571.49	1762.43
571.84	1747.95
572.20	1732.41
572.55	1717.62
572.90	1702.80
573.26	1687.89
573.61	1672.41
573.96	1657.43
574.31	1642.37
574.67	1627.38
575.02	1612.02
575.37	1596.74
575.72	1582.08
576.08	1567.37
576.43	1552.07
576.78	1536.86
577.13	1521.85
577.49	1507.09
577.84	1492.75
578.19	1477.95
578.54	1463.28
578.90	1448.63
579.25	1433.86
579.60	1420.10
579.95	1406.10
580.30	1392.05
580.66	1377.78
581.01	1363.65
581.36	1349.66
581.71	1336.36
582.06	1322.99
582.42	1309.49
582.77	1296.50
583.12	1283.73
583.47	1270.80
583.82	1258.13
584.17	1245.10
584.53	1232.14
584.88	1219.41
585.23	1206.58
585.58	1194.13
585.93	1181.68
586.28	1170.05
586.63	1158.24
586.98	1146.20
587.34	1134.50
587.69	1122.64
588.04	1111.20
588.39	1099.95
588.74	1088.32
589.09	1076.91
589.44	1065.19
589.79	1054.04
590.14	1042.91
590.49	1031.90
590.84	1021.12
591.19	1010.54
591.54	1000.07
591.89	989.20
592.25	978.75
592.60	968.17
592.95	957.81
593.30	947.66
593.65	937.28
594.00	927.19
594.35	917.92
594.70	908.02
595.05	898.77
595.40	889.24
595.75	879.60
596.10	870.55
596.45	861.46
596.80	852.72
597.15	844.06
597.50	835.42
597.85	826.91
598.19	818.38
598.54	809.90
598.89	801.89
599.24	794.26
599.59	786.47
599.94	779.24
600.29	771.99
600.64	764.66
600.99	757.21
601.34	749.97
601.69	742.24
602.04	735.34
602.39	728.29
602.74	721.45
603.08	714.81
603.43	708.10
603.78	701.38
604.13	694.76
604.48	688.18
604.83	681.77
605.18	675.47
605.53	669.32
605.87	663.13
606.22	657.06
606.57	650.91
606.92	644.64
607.27	638.44
607.62	632.47
607.96	626.73
608.31	621.36
608.66	615.94
609.01	610.76
609.36	605.52
609.70	600.24
610.05	595.04
610.40	589.98
610.75	584.93
611.10	580.08
611.44	575.24
611.79	570.46
612.14	565.66
612.49	560.90
612.83	556.41
613.18	551.95
613.53	547.50
613.88	543.21
614.22	539.23
614.57	535.14
614.92	531.11
615.27	527.23
615.61	523.28
615.96	519.35
616.31	515.44
616.65	511.66
617.00	507.99
617.35	504.35
617.70	500.73
618.04	497.21
618.39	493.79
618.74	490.56
619.08	487.34
619.43	484.18
619.78	481.00
620.12	477.82
620.47	474.86
620.82	471.91
621.16	468.97
621.51	466.10
621.85	463.27
622.20	460.52
622.55	457.71
622.89	454.95
623.24	452.37
623.59	449.81
623.93	447.37
624.28	445.01
624.62	442.88
624.97	440.71
625.32	438.46
625.66	436.16
626.01	433.86
626.35	431.69
626.70	429.47
627.04	427.39
627.39	425.31
627.73	423.30
628.08	421.37
628.43	419.45
628.77	417.43
629.12	415.55
629.46	413.73
629.81	412.03
630.15	410.27
630.50	408.51
630.84	406.80
631.19	405.11
631.53	403.51
631.88	401.72
632.22	400.04
632.57	398.63
632.91	397.19
633.26	395.83
633.60	394.46
633.95	393.18
634.29	391.80
634.64	390.45
634.98	388.95
635.32	387.63
635.67	386.41
636.01	385.21
636.36	384.03
636.70	382.97
637.05	381.72
637.39	380.62
637.73	379.52
638.08	378.48
638.42	377.47
638.77	376.35
639.11	375.19
639.45	374.05
639.80	372.87
640.14	371.77
640.49	370.66
640.83	369.54
641.17	368.44
641.52	367.39
641.86	366.37
642.20	365.53
642.55	364.48
642.89	363.46
643.23	362.52
643.58	361.68
643.92	360.66
644.26	359.75
644.61	358.87
644.95	357.94
645.29	356.94
645.64	355.93
645.98	355.02
646.32	354.23
646.66	353.40
647.01	352.55
647.35	351.80
647.69	351.01
648.04	350.31
648.38	349.56
648.72	348.83
649.06	348.06
649.41	347.24
649.75	346.51
650.09	345.81
650.43	345.07
650.78	344.30
651.12	343.57
651.46	342.83
651.80	342.11
652.14	341.46
652.49	340.84
652.83	340.16
653.17	339.46
653.51	338.78
653.85	338.19
654.20	337.58
654.54	336.83
654.88	336.15
655.22	335.50
655.56	334.81
655.90	334.16
656.25	333.53
656.59	332.93
656.93	332.34
657.27	331.79
657.61	331.18
657.95	330.60
658.29	330.03
658.64	329.49
658.98	328.89
659.32	328.30
659.66	327.76
660.00	327.25
660.34	326.74
660.68	326.15
661.02	325.52
661.36	324.92
661.70	324.39
662.05	323.85
662.39	323.32
662.73	322.87
663.07	322.45
663.41	321.98
663.75	321.45
664.09	320.93
664.43	320.30
664.77	319.79
665.11	319.20
665.45	318.67
665.79	318.15
666.13	317.62
666.47	317.07
666.81	316.49
667.15	315.90
667.49	315.42
667.83	314.99
668.17	314.53
668.51	314.11
668.85	313.69
669.19	313.33
669.53	312.80
669.87	312.24
670.21	311.70
670.55	311.19
670.89	310.79
671.23	310.35
671.57	309.98
671.91	309.60
672.25	309.26
672.58	308.94
672.92	308.50
673.26	308.13
673.60	307.75
673.94	307.38
674.28	307.04
674.62	306.66
674.96	306.21
675.30	305.81
675.64	305.37
675.97	304.90
676.31	304.41
676.65	303.98
676.99	303.65
677.33	303.21
677.67	302.83
678.01	302.34
678.34	301.92
678.68	301.50
679.02	301.04
679.36	300.60
679.70	300.14
680.04	299.74
680.37	299.34
680.71	298.94
681.05	298.57
681.39	298.14
681.73	297.66
682.06	297.23
682.40	296.83
682.74	296.47
683.08	296.16
683.42	295.76
683.75	295.40
684.09	294.92
684.43	294.51
684.77	294.07
685.10	293.68
685.44	293.28
685.78	292.86
686.12	292.45
686.45	292.05
686.79	291.59
687.13	291.18
687.46	290.72
687.80	290.31
688.14	289.82
688.48	289.40
688.81	288.99
689.15	288.64
689.49	288.20
689.82	287.76
690.16	287.24
690.50	286.78
690.83	286.35
691.17	285.90
691.51	285.48
691.84	285.10
692.18	284.67
692.52	284.21
692.85	283.78
693.19	283.41
693.52	282.98
693.86	282.57
694.20	282.15
694.53	281.74
694.87	281.28
695.21	280.86
695.54	280.44
695.88	279.98
696.21	279.49
696.55	279.06
696.88	278.62
697.22	278.20
697.56	277.80
697.89	277.34
698.23	276.95
698.56	276.52
698.90	276.11
699.23	275.67
699.57	275.28
699.90	274.86
700.24	274.41
700.58	274.01
700.91	273.66
701.25	273.43
701.58	273.10
701.92	272.78
702.25	272.43
702.59	272.04
702.92	271.67
703.26	271.27
703.59	270.89
703.93	270.65
704.26	270.29
704.60	269.91
704.93	269.55
705.26	269.15
705.60	268.82
705.93	268.40
706.27	268.10
706.60	267.78
706.94	267.48
707.27	267.09
707.61	266.74
707.94	266.34
708.27	265.80
708.61	265.37
708.94	264.96
709.28	264.58
709.61	264.21
709.94	263.90
710.28	263.58
710.61	263.28
710.95	262.79
711.28	262.57
711.61	262.24
711.95	261.94
712.28	261.62
712.61	261.27
712.95	261.04
713.28	260.78
713.61	260.43
713.95	260.06
714.28	259.77
714.61	259.43
714.95	259.13
715.28	258.83
715.61	258.54
715.95	258.29
716.28	258.00
716.61	257.74
716.95	257.44
717.28	257.15
717.61	256.85
717.94	256.59
718.28	256.19
718.61	255.91
718.94	255.61
719.27	255.34
719.61	255.10
719.94	254.80
720.27	254.45
720.60	254.19
720.94	253.95
721.27	253.71
721.60	253.49
721.93	253.22
722.27	253.02
722.60	252.79
722.93	252.51
723.26	252.28
723.59	252.01
723.93	251.80
724.26	251.57
724.59	251.34
724.92	251.12
725.25	250.96
725.59	250.74
725.92	250.54
726.25	250.32
726.58	250.09
726.91	249.85
727.24	249.66
727.57	249.44
727.91	249.20
728.24	249.01
728.57	248.78
728.90	248.60
729.23	248.33
729.56	248.21
729.89	248.02
730.22	247.81
730.55	247.61
730.89	247.42
731.22	247.22
731.55	247.03
731.88	246.85
732.21	246.63
732.54	246.43
732.87	246.26
733.20	246.10
733.53	245.94
733.86	245.79
734.19	245.58
734.52	245.44
734.85	245.41
735.18	245.21
735.51	245.10
735.84	244.94
736.17	244.85
736.50	244.59
736.83	244.63
737.16	244.48
737.49	244.33
737.82	244.16
738.15	244.02
738.48	243.86
738.81	243.69
739.14	243.50
739.47	243.35
739.80	243.19
740.13	243.05
740.46	242.86
740.79	242.68
741.12	242.53
741.45	242.35
741.78	242.10
742.11	242.00
742.44	241.81
742.77	241.67
743.10	241.50
743.43	241.34
743.75	241.01
744.08	241.14
744.41	240.98
744.74	240.83
745.07	240.66
745.40	240.56
745.73	240.50
746.06	240.39
746.39	240.28
746.71	240.14
747.04	239.98
747.37	239.85
747.70	239.75
748.03	239.63
748.36	239.54
748.68	239.41
749.01	239.24
749.34	239.12
749.67	239.00
750.00	238.92
750.33	238.93
750.65	238.83
750.98	238.45
751.31	238.35
751.64	238.26
751.97	238.24
752.29	238.12
752.62	237.94
752.95	237.83
753.28	237.69
753.60	237.58
753.93	237.51
754.26	237.44
754.59	237.29
754.91	237.17
755.24	237.05
755.57	236.96
755.90	236.85
756.22	236.73
756.55	236.60
756.88	236.45
757.20	236.24
757.53	236.09
757.86	235.99
758.19	235.91
758.51	235.80
758.84	235.62
759.17	235.49
759.49	235.40
759.82	235.39
760.15	235.31
760.47	235.22
760.80	235.08
761.13	235.01
761.45	234.93
761.78	234.86
762.11	234.77
762.43	234.65
762.76	234.58
763.08	234.52
763.41	234.45
763.74	234.39
764.06	234.30
764.39	234.24
764.71	234.16
765.04	234.06
765.37	233.97
765.69	233.90
766.02	233.83
766.34	233.75
766.67	233.61
767.00	233.58
767.32	233.62
767.65	233.68
767.97	233.60
768.30	233.55
768.62	233.48
768.95	233.39
769.27	233.33
769.60	233.29
769.92	233.21
770.25	233.13
770.57	233.03
770.90	232.99
771.22	232.90
771.55	232.86
771.87	232.82
772.20	232.76
772.52	232.86
772.85	233.03
773.17	232.98
773.50	232.93
773.82	232.84
774.15	232.69
774.47	232.52
774.80	232.45
775.12	232.39
775.45	232.35
775.77	232.30
776.09	232.27
776.42	232.23
776.74	232.24
777.07	232.19
777.39	232.17
777.72	232.12
778.04	232.11
778.36	232.05
778.69	232.01
779.01	231.99
779.33	231.80
779.66	231.56
779.98	231.50
780.31	231.47
780.63	231.50
780.95	231.50
781.28	231.46
781.60	231.42
781.92	231.38
782.25	231.35
782.57	231.33
782.89	231.28
783.22	231.24
783.54	231.16
783.86	231.15
784.19	231.11
784.51	231.13
784.83	231.07
785.16	231.04
785.48	231.02
785.80	230.98
786.12	230.98
786.45	230.96
786.77	230.95
787.09	230.90
787.42	230.82
787.74	230.80
788.06	230.78
788.38	230.74
788.71	230.70
789.03	230.68
789.35	230.68
789.67	230.63
789.99	230.61
790.32	230.58
790.64	230.56
790.96	230.70
791.28	230.60
791.61	230.58
791.93	230.56
792.25	230.52
792.57	230.62
792.89	230.55
793.21	230.52
793.54	230.48
793.86	230.44
794.18	230.42
794.50	230.37
794.82	230.34
795.14	230.35
795.47	230.36
795.79	230.34
796.11	230.28
796.43	230.25
796.75	230.23
797.07	230.22
797.39	230.19
797.71	230.03
798.04	230.03
798.36	230.02
798.68	229.98
799.00	229.98
799.32	229.86
799.64	229.88
799.96	229.86
800.28	229.87
800.60	229.85
800.92	229.84
801.24	229.81
801.56	229.81
801.89	229.77
802.21	229.76
802.53	229.71
802.85	229.75
803.17	229.82
803.49	229.75
803.81	229.72
804.13	229.69
804.45	229.64
804.77	229.64
805.09	229.62
805.41	229.58
805.73	229.53
806.05	229.48
806.37	229.44
806.69	229.40
807.01	229.37
807.33	229.38
807.65	229.29
807.97	229.35
808.28	229.31
808.60	229.29
808.92	229.25
809.24	229.35
809.56	229.29
809.88	229.21
810.20	229.22
810.52	229.24
810.84	229.20
811.16	229.16
811.48	229.13
811.80	229.18
812.12	229.18
812.43	229.21
812.75	229.19
813.07	229.18
813.39	229.19
813.71	229.16
814.03	229.12
814.35	229.13
814.67	229.05
814.98	229.02
815.30	229.01
815.62	228.97
815.94	228.83
816.26	228.84
816.58	228.79
816.89	228.79
817.21	228.74
817.53	228.74
817.85	228.74
818.17	228.73
818.48	228.65
