SpectraSuite Data File
++++++++++++++++++++++++++++++++++++
Date: Tue Oct 06 17:17:04 EDT 2015
User: lab3
Dark Spectrum Present: No
Reference Spectrum Present: No
Number of Sampled Component Spectra: 1
Spectrometers: USB2E7196
Integration Time (usec): 66000 (USB2E7196)
Spectra Averaged: 1000 (USB2E7196)
Boxcar Smoothing: 10 (USB2E7196)
Correct for Electrical Dark: No (USB2E7196)
Strobe/Lamp Enabled: No (USB2E7196)
Correct for Detector Non-linearity: No (USB2E7196)
Correct for Stray Light: No (USB2E7196)
Number of Pixels in Processed Spectrum: 2048
>>>>>Begin Processed Spectral Data<<<<<
339.09	0.00
339.48	215.34
339.86	216.76
340.24	218.24
340.63	219.63
341.01	223.38
341.39	222.08
341.78	223.86
342.16	225.13
342.54	225.26
342.93	213.78
343.31	224.57
343.69	225.11
344.07	225.56
344.46	226.00
344.84	226.40
345.22	226.61
345.60	226.89
345.99	227.09
346.37	227.23
346.75	227.34
347.13	227.42
347.52	227.52
347.90	227.63
348.28	227.66
348.66	227.76
349.05	227.74
349.43	227.82
349.81	227.89
350.19	227.95
350.57	228.03
350.96	228.13
351.34	228.23
351.72	228.34
352.10	228.46
352.48	228.54
352.87	228.59
353.25	228.65
353.63	228.69
354.01	228.75
354.39	228.82
354.77	228.91
355.15	229.03
355.54	229.06
355.92	229.07
356.30	229.16
356.68	229.34
357.06	229.41
357.44	229.44
357.82	229.49
358.20	229.71
358.58	229.76
358.97	229.82
359.35	229.93
359.73	230.02
360.11	230.06
360.49	230.13
360.87	230.18
361.25	230.25
361.63	230.36
362.01	230.42
362.39	230.44
362.77	230.49
363.15	230.50
363.53	230.54
363.91	230.58
364.29	230.60
364.67	230.45
365.05	230.47
365.43	230.51
365.81	230.55
366.19	230.49
366.57	230.57
366.95	230.57
367.33	230.53
367.71	230.53
368.09	230.56
368.47	230.55
368.85	230.54
369.23	230.57
369.61	230.50
369.99	230.54
370.37	230.55
370.75	230.67
371.13	230.64
371.51	230.59
371.89	230.58
372.27	230.57
372.65	230.56
373.03	230.52
373.41	230.47
373.78	230.42
374.16	230.29
374.54	230.20
374.92	230.15
375.30	230.11
375.68	230.03
376.06	229.99
376.44	229.93
376.82	229.89
377.19	229.85
377.57	229.79
377.95	229.69
378.33	229.63
378.71	229.43
379.09	229.39
379.47	229.38
379.84	229.31
380.22	229.23
380.60	229.15
380.98	229.11
381.36	229.08
381.73	229.01
382.11	229.00
382.49	228.97
382.87	228.91
383.25	228.86
383.62	229.03
384.00	228.96
384.38	228.93
384.76	228.93
385.13	228.95
385.51	228.92
385.89	228.86
386.27	228.83
386.64	228.82
387.02	228.77
387.40	228.73
387.78	228.71
388.15	228.70
388.53	228.67
388.91	228.66
389.29	228.61
389.66	228.63
390.04	228.60
390.42	228.61
390.79	228.61
391.17	228.60
391.55	228.39
391.92	228.38
392.30	228.39
392.68	228.35
393.05	228.32
393.43	228.33
393.81	228.34
394.18	228.32
394.56	228.34
394.94	228.40
395.31	228.40
395.69	228.49
396.06	228.54
396.44	228.58
396.82	228.60
397.19	228.74
397.57	228.76
397.95	228.82
398.32	228.82
398.70	228.90
399.07	229.00
399.45	229.08
399.82	229.15
400.20	229.20
400.58	229.29
400.95	229.32
401.33	229.46
401.70	229.70
402.08	229.84
402.45	229.96
402.83	230.13
403.20	230.29
403.58	230.42
403.95	230.63
404.33	230.86
404.71	231.07
405.08	231.37
405.46	231.62
405.83	231.90
406.21	232.19
406.58	232.51
406.96	232.83
407.33	233.19
407.70	233.61
408.08	234.19
408.45	234.70
408.83	235.24
409.20	235.74
409.58	236.20
409.95	236.83
410.33	237.51
410.70	238.15
411.08	238.91
411.45	239.71
411.82	240.53
412.20	241.45
412.57	242.56
412.95	243.44
413.32	244.58
413.69	245.76
414.07	247.02
414.44	248.39
414.82	249.79
415.19	251.45
415.56	253.13
415.94	254.87
416.31	256.83
416.68	258.79
417.06	261.06
417.43	263.18
417.81	265.64
418.18	268.14
418.55	270.86
418.93	273.71
419.30	276.68
419.67	279.84
420.04	283.07
420.42	286.46
420.79	290.37
421.16	294.31
421.54	298.32
421.91	302.52
422.28	306.88
422.66	311.56
423.03	316.01
423.40	320.69
423.77	325.69
424.15	330.81
424.52	336.10
424.89	341.87
425.26	347.58
425.64	352.87
426.01	358.81
426.38	364.89
426.75	371.15
427.13	377.55
427.50	384.26
427.87	391.23
428.24	398.24
428.61	404.98
428.99	412.23
429.36	420.19
429.73	427.78
430.10	435.37
430.47	443.12
430.85	451.16
431.22	459.68
431.59	468.45
431.96	477.01
432.33	486.56
432.70	495.61
433.08	506.32
433.45	516.44
433.82	526.45
434.19	537.62
434.56	548.64
434.93	559.34
435.30	569.92
435.68	581.98
436.05	593.74
436.42	605.51
436.79	616.30
437.16	628.03
437.53	640.53
437.90	653.01
438.27	665.28
438.64	678.51
439.01	690.57
439.38	701.62
439.75	712.30
440.13	724.45
440.50	736.01
440.87	745.28
441.24	755.43
441.61	766.57
441.98	774.82
442.35	784.62
442.72	794.56
443.09	804.02
443.46	810.16
443.83	814.82
444.20	818.70
444.57	824.29
444.94	827.58
445.31	831.00
445.68	833.94
446.05	836.15
446.42	835.83
446.79	835.22
447.16	834.73
447.53	834.32
447.90	830.71
448.27	827.26
448.64	821.83
449.01	818.08
449.37	810.30
449.74	803.26
450.11	794.15
450.48	784.14
450.85	774.14
451.22	765.52
451.59	757.04
451.96	749.37
452.33	738.27
452.70	728.41
453.07	716.47
453.43	704.56
453.80	692.93
454.17	681.80
454.54	671.54
454.91	659.99
455.28	649.04
455.65	638.72
456.02	627.77
456.38	619.00
456.75	607.75
457.12	598.68
457.49	589.54
457.86	580.86
458.23	573.25
458.59	564.86
458.96	556.25
459.33	548.70
459.70	541.00
460.07	535.12
460.43	528.20
460.80	521.73
461.17	516.09
461.54	510.01
461.91	504.30
462.27	498.49
462.64	493.74
463.01	488.33
463.38	482.86
463.74	477.93
464.11	473.52
464.48	469.58
464.85	465.33
465.21	462.06
465.58	458.45
465.95	454.33
466.32	451.06
466.68	447.85
467.05	444.61
467.42	441.44
467.78	438.09
468.15	434.98
468.52	432.69
468.88	429.69
469.25	426.95
469.62	424.77
469.98	422.41
470.35	420.27
470.72	418.34
471.08	416.40
471.45	414.79
471.82	412.97
472.18	411.08
472.55	409.86
472.92	408.31
473.28	407.13
473.65	405.83
474.02	404.60
474.38	403.54
474.75	402.94
475.11	402.13
475.48	401.71
475.85	401.26
476.21	401.02
476.58	400.81
476.94	400.99
477.31	401.01
477.67	401.08
478.04	401.41
478.41	401.85
478.77	402.45
479.14	402.83
479.50	403.63
479.87	404.63
480.23	405.61
480.60	406.56
480.96	407.51
481.33	408.97
481.69	410.39
482.06	411.81
482.42	413.08
482.79	414.69
483.15	416.57
483.52	418.71
483.88	420.73
484.25	422.88
484.61	425.12
484.98	427.56
485.34	430.28
485.71	433.14
486.07	436.20
486.44	439.23
486.80	442.63
487.17	446.11
487.53	449.90
487.90	453.87
488.26	458.19
488.62	462.73
488.99	467.28
489.35	472.07
489.72	477.19
490.08	482.59
490.44	488.09
490.81	493.86
491.17	499.79
491.54	506.11
491.90	512.60
492.26	519.54
492.63	526.79
492.99	534.38
493.36	542.13
493.72	550.25
494.08	558.56
494.45	567.30
494.81	576.44
495.17	585.79
495.54	595.68
495.90	606.02
496.26	616.52
496.63	627.32
496.99	638.52
497.35	650.25
497.72	662.27
498.08	674.59
498.44	687.22
498.80	700.60
499.17	714.28
499.53	728.41
499.89	743.00
500.26	757.77
500.62	772.90
500.98	788.85
501.34	804.89
501.71	821.74
502.07	838.84
502.43	856.38
502.79	874.18
503.16	892.51
503.52	911.00
503.88	929.96
504.24	949.33
504.60	968.97
504.97	989.26
505.33	1009.99
505.69	1031.78
506.05	1053.81
506.41	1075.70
506.78	1097.75
507.14	1120.42
507.50	1143.52
507.86	1167.03
508.22	1190.74
508.59	1214.33
508.95	1238.97
509.31	1264.06
509.67	1289.82
510.03	1315.52
510.39	1341.14
510.75	1366.82
511.12	1392.89
511.48	1419.08
511.84	1445.28
512.20	1471.82
512.56	1499.37
512.92	1526.75
513.28	1553.54
513.64	1580.68
514.00	1608.20
514.37	1636.00
514.73	1663.80
515.09	1690.91
515.45	1718.35
515.81	1745.96
516.17	1773.28
516.53	1799.96
516.89	1826.53
517.25	1853.34
517.61	1879.97
517.97	1907.21
518.33	1933.79
518.69	1960.24
519.05	1987.16
519.41	2014.24
519.77	2041.23
520.13	2066.74
520.49	2092.42
520.85	2118.37
521.21	2143.80
521.57	2169.52
521.93	2194.18
522.29	2219.46
522.65	2244.55
523.01	2269.39
523.37	2293.46
523.73	2318.31
524.09	2342.87
524.45	2367.03
524.81	2390.49
525.17	2413.75
525.53	2436.33
525.89	2459.29
526.25	2481.88
526.61	2502.83
526.97	2523.74
527.33	2544.54
527.68	2565.05
528.04	2585.15
528.40	2603.93
528.76	2622.96
529.12	2641.48
529.48	2660.63
529.84	2676.94
530.20	2693.68
530.56	2709.55
530.91	2725.63
531.27	2741.10
531.63	2755.52
531.99	2769.77
532.35	2783.73
532.71	2797.21
533.07	2811.03
533.42	2822.93
533.78	2835.08
534.14	2848.14
534.50	2860.07
534.86	2872.56
535.21	2882.98
535.57	2893.06
535.93	2903.11
536.29	2911.28
536.65	2919.31
537.00	2925.82
537.36	2933.74
537.72	2940.72
538.08	2947.03
538.44	2952.28
538.79	2957.28
539.15	2960.89
539.51	2963.75
539.87	2965.40
540.22	2965.53
540.58	2965.83
540.94	2967.06
541.29	2967.00
541.65	2965.63
542.01	2963.84
542.37	2960.39
542.72	2958.48
543.08	2955.05
543.44	2951.77
543.79	2947.96
544.15	2943.41
544.51	2939.04
544.87	2933.60
545.22	2927.25
545.58	2920.79
545.94	2914.53
546.29	2906.68
546.65	2899.20
547.01	2891.79
547.36	2884.78
547.72	2877.96
548.07	2869.36
548.43	2859.61
548.79	2849.63
549.14	2839.91
549.50	2830.38
549.86	2819.93
550.21	2807.84
550.57	2796.86
550.92	2784.05
551.28	2771.77
551.64	2759.77
551.99	2747.44
552.35	2734.73
552.70	2721.77
553.06	2709.29
553.41	2696.39
553.77	2683.22
554.13	2670.06
554.48	2655.80
554.84	2640.77
555.19	2626.17
555.55	2611.47
555.90	2597.28
556.26	2583.40
556.61	2568.45
556.97	2552.40
557.32	2536.84
557.68	2521.55
558.03	2505.89
558.39	2491.30
558.74	2477.27
559.10	2461.31
559.45	2445.68
559.81	2430.75
560.16	2415.56
560.52	2400.12
560.87	2384.75
561.23	2369.10
561.58	2353.95
561.94	2338.32
562.29	2322.26
562.64	2306.27
563.00	2290.47
563.35	2274.77
563.71	2258.71
564.06	2242.78
564.42	2227.47
564.77	2212.17
565.12	2196.57
565.48	2180.80
565.83	2165.26
566.19	2149.72
566.54	2134.52
566.89	2118.66
567.25	2102.63
567.60	2087.44
567.96	2071.46
568.31	2054.30
568.66	2038.10
569.02	2022.47
569.37	2007.48
569.72	1993.02
570.08	1978.10
570.43	1962.64
570.78	1947.02
571.14	1931.17
571.49	1915.43
571.84	1899.91
572.20	1883.21
572.55	1867.34
572.90	1851.58
573.26	1835.76
573.61	1819.29
573.96	1803.35
574.31	1787.29
574.67	1771.15
575.02	1754.62
575.37	1738.20
575.72	1722.50
576.08	1706.58
576.43	1689.95
576.78	1673.49
577.13	1657.30
577.49	1641.36
577.84	1625.88
578.19	1609.85
578.54	1593.94
578.90	1577.94
579.25	1561.87
579.60	1546.95
579.95	1531.79
580.30	1516.53
580.66	1501.00
581.01	1485.56
581.36	1470.26
581.71	1455.72
582.06	1441.16
582.42	1426.45
582.77	1412.27
583.12	1398.32
583.47	1384.26
583.82	1370.45
584.17	1356.15
584.53	1341.94
584.88	1328.07
585.23	1313.99
585.58	1300.34
585.93	1286.63
586.28	1273.84
586.63	1260.88
586.98	1247.60
587.34	1234.71
587.69	1221.61
588.04	1208.95
588.39	1196.55
588.74	1183.73
589.09	1171.09
589.44	1158.12
589.79	1145.78
590.14	1133.46
590.49	1121.23
590.84	1109.27
591.19	1097.54
591.54	1085.95
591.89	1073.95
592.25	1062.28
592.60	1050.55
592.95	1038.96
593.30	1027.73
593.65	1016.24
594.00	1005.04
594.35	994.73
594.70	983.71
595.05	973.36
595.40	962.77
595.75	952.03
596.10	941.95
596.45	931.85
596.80	922.15
597.15	912.43
597.50	902.72
597.85	893.21
598.19	883.72
598.54	874.24
598.89	865.31
599.24	856.78
599.59	848.04
599.94	839.97
600.29	831.91
600.64	823.68
600.99	815.33
601.34	807.24
601.69	798.66
602.04	790.99
602.39	783.16
602.74	775.53
603.08	768.10
603.43	760.60
603.78	753.08
604.13	745.62
604.48	738.27
604.83	731.14
605.18	724.09
605.53	717.19
605.87	710.27
606.22	703.44
606.57	696.54
606.92	689.58
607.27	682.64
607.62	675.90
607.96	669.42
608.31	663.40
608.66	657.32
609.01	651.48
609.36	645.60
609.70	639.67
610.05	633.81
610.40	628.09
610.75	622.39
611.10	616.90
611.44	611.44
611.79	606.07
612.14	600.62
612.49	595.24
612.83	590.15
613.18	585.11
613.53	580.06
613.88	575.18
614.22	570.62
614.57	565.97
614.92	561.42
615.27	557.03
615.61	552.54
615.96	548.05
616.31	543.61
616.65	539.29
617.00	535.11
617.35	530.96
617.70	526.84
618.04	522.84
618.39	518.98
618.74	515.32
619.08	511.64
619.43	508.09
619.78	504.49
620.12	500.85
620.47	497.46
620.82	494.14
621.16	490.83
621.51	487.59
621.85	484.37
622.20	481.19
622.55	477.98
622.89	474.82
623.24	471.86
623.59	468.94
623.93	466.10
624.28	463.41
624.62	460.93
624.97	458.42
625.32	455.85
625.66	453.21
626.01	450.58
626.35	448.07
626.70	445.51
627.04	443.14
627.39	440.75
627.73	438.43
628.08	436.20
628.43	433.95
628.77	431.62
629.12	429.42
629.46	427.36
629.81	425.41
630.15	423.37
630.50	421.37
630.84	419.39
631.19	417.47
631.53	415.62
631.88	413.58
632.22	411.68
632.57	410.02
632.91	408.36
633.26	406.76
633.60	405.20
633.95	403.70
634.29	402.09
634.64	400.55
634.98	398.86
635.32	397.31
635.67	395.93
636.01	394.55
636.36	393.22
636.70	391.95
637.05	390.54
637.39	389.29
637.73	388.02
638.08	386.84
638.42	385.69
638.77	384.40
639.11	383.09
639.45	381.80
639.80	380.48
640.14	379.24
640.49	378.00
640.83	376.74
641.17	375.54
641.52	374.37
641.86	373.24
642.20	372.27
642.55	371.13
642.89	369.97
643.23	368.91
643.58	367.95
643.92	366.83
644.26	365.80
644.61	364.81
644.95	363.77
645.29	362.67
645.64	361.55
645.98	360.56
646.32	359.68
646.66	358.76
647.01	357.85
647.35	357.02
647.69	356.14
648.04	355.34
648.38	354.49
648.72	353.68
649.06	352.85
649.41	351.96
649.75	351.15
650.09	350.39
650.43	349.59
650.78	348.74
651.12	347.98
651.46	347.21
651.80	346.44
652.14	345.74
652.49	345.10
652.83	344.38
653.17	343.63
653.51	342.91
653.85	342.28
654.20	341.62
654.54	340.85
654.88	340.12
655.22	339.46
655.56	338.75
655.90	338.08
656.25	337.42
656.59	336.79
656.93	336.19
657.27	335.63
657.61	335.00
657.95	334.43
658.29	333.83
658.64	333.26
658.98	332.64
659.32	332.03
659.66	331.44
660.00	330.92
660.34	330.39
660.68	329.79
661.02	329.14
661.36	328.53
661.70	327.98
662.05	327.42
662.39	326.87
662.73	326.40
663.07	325.98
663.41	325.52
663.75	324.98
664.09	324.46
664.43	323.84
664.77	323.30
665.11	322.71
665.45	322.18
665.79	321.68
666.13	321.14
666.47	320.60
666.81	320.02
667.15	319.42
667.49	318.94
667.83	318.52
668.17	318.07
668.51	317.64
668.85	317.23
669.19	316.87
669.53	316.35
669.87	315.79
670.21	315.22
670.55	314.69
670.89	314.29
671.23	313.84
671.57	313.44
671.91	313.07
672.25	312.74
672.58	312.39
672.92	311.96
673.26	311.61
673.60	311.24
673.94	310.86
674.28	310.52
674.62	310.14
674.96	309.71
675.30	309.30
675.64	308.85
675.97	308.39
676.31	307.90
676.65	307.47
676.99	307.15
677.33	306.72
677.67	306.34
678.01	305.85
678.34	305.44
678.68	305.04
679.02	304.58
679.36	304.14
679.70	303.67
680.04	303.26
680.37	302.86
680.71	302.46
681.05	302.09
681.39	301.66
681.73	301.18
682.06	300.74
682.40	300.36
682.74	299.99
683.08	299.69
683.42	299.31
683.75	298.95
684.09	298.47
684.43	298.07
684.77	297.63
685.10	297.24
685.44	296.86
685.78	296.45
686.12	296.04
686.45	295.62
686.79	295.18
687.13	294.78
687.46	294.32
687.80	293.90
688.14	293.41
688.48	292.98
688.81	292.56
689.15	292.20
689.49	291.76
689.82	291.33
690.16	290.77
690.50	290.30
690.83	289.85
691.17	289.39
691.51	288.95
691.84	288.56
692.18	288.13
692.52	287.63
692.85	287.17
693.19	286.78
693.52	286.33
693.86	285.87
694.20	285.43
694.53	284.99
694.87	284.51
695.21	284.08
695.54	283.64
695.88	283.18
696.21	282.67
696.55	282.20
696.88	281.74
697.22	281.32
697.56	280.92
697.89	280.44
698.23	280.03
698.56	279.58
698.90	279.15
699.23	278.68
699.57	278.28
699.90	277.86
700.24	277.40
700.58	277.01
700.91	276.66
701.25	276.41
701.58	276.07
701.92	275.73
702.25	275.35
702.59	274.94
702.92	274.55
703.26	274.13
703.59	273.74
703.93	273.47
704.26	273.10
704.60	272.68
704.93	272.29
705.26	271.88
705.60	271.54
705.93	271.10
706.27	270.79
706.60	270.45
706.94	270.14
707.27	269.73
707.61	269.34
707.94	268.90
708.27	268.35
708.61	267.91
708.94	267.49
709.28	267.11
709.61	266.73
709.94	266.39
710.28	266.06
710.61	265.72
710.95	265.23
711.28	264.99
711.61	264.64
711.95	264.33
712.28	263.98
712.61	263.60
712.95	263.35
713.28	263.06
713.61	262.68
713.95	262.29
714.28	261.97
714.61	261.62
714.95	261.30
715.28	260.97
715.61	260.65
715.95	260.36
716.28	260.03
716.61	259.75
716.95	259.42
717.28	259.12
717.61	258.82
717.94	258.54
718.28	258.11
718.61	257.82
718.94	257.50
719.27	257.22
719.61	256.96
719.94	256.64
720.27	256.28
720.60	256.00
720.94	255.73
721.27	255.46
721.60	255.23
721.93	254.95
722.27	254.73
722.60	254.48
722.93	254.20
723.26	253.96
723.59	253.67
723.93	253.44
724.26	253.21
724.59	252.95
724.92	252.71
725.25	252.52
725.59	252.29
725.92	252.09
726.25	251.86
726.58	251.61
726.91	251.37
727.24	251.17
727.57	250.93
727.91	250.68
728.24	250.48
728.57	250.25
728.90	250.05
729.23	249.77
729.56	249.64
729.89	249.42
730.22	249.20
730.55	249.00
730.89	248.79
731.22	248.57
731.55	248.36
731.88	248.17
732.21	247.93
732.54	247.71
732.87	247.51
733.20	247.34
733.53	247.16
733.86	246.99
734.19	246.78
734.52	246.64
734.85	246.60
735.18	246.40
735.51	246.29
735.84	246.13
736.17	246.01
736.50	245.76
736.83	245.79
737.16	245.63
737.49	245.47
737.82	245.28
738.15	245.13
738.48	244.95
738.81	244.77
739.14	244.59
739.47	244.41
739.80	244.24
740.13	244.07
740.46	243.89
740.79	243.70
741.12	243.52
741.45	243.32
741.78	243.05
742.11	242.92
742.44	242.70
742.77	242.57
743.10	242.37
743.43	242.20
743.75	241.87
744.08	241.98
744.41	241.82
744.74	241.66
745.07	241.48
745.40	241.37
745.73	241.31
746.06	241.19
746.39	241.08
746.71	240.93
747.04	240.78
747.37	240.63
747.70	240.52
748.03	240.39
748.36	240.30
748.68	240.17
749.01	240.00
749.34	239.88
749.67	239.75
750.00	239.66
750.33	239.66
750.65	239.54
750.98	239.16
751.31	239.05
751.64	238.95
751.97	238.94
752.29	238.80
752.62	238.60
752.95	238.47
753.28	238.33
753.60	238.21
753.93	238.13
754.26	238.04
754.59	237.87
754.91	237.74
755.24	237.61
755.57	237.51
755.90	237.39
756.22	237.26
756.55	237.12
756.88	236.97
757.20	236.75
757.53	236.59
757.86	236.49
758.19	236.39
758.51	236.27
758.84	236.08
759.17	235.96
759.49	235.87
759.82	235.87
760.15	235.79
760.47	235.69
760.80	235.55
761.13	235.48
761.45	235.40
761.78	235.30
762.11	235.22
762.43	235.09
762.76	235.02
763.08	234.96
763.41	234.89
763.74	234.82
764.06	234.74
764.39	234.66
764.71	234.58
765.04	234.49
765.37	234.41
765.69	234.33
766.02	234.25
766.34	234.17
766.67	234.02
767.00	233.98
767.32	234.01
767.65	234.05
767.97	233.96
768.30	233.91
768.62	233.85
768.95	233.75
769.27	233.71
769.60	233.65
769.92	233.54
770.25	233.43
770.57	233.34
770.90	233.28
771.22	233.20
771.55	233.14
771.87	233.10
772.20	233.02
772.52	233.11
772.85	233.27
773.17	233.21
773.50	233.14
773.82	233.05
774.15	232.90
774.47	232.72
774.80	232.65
775.12	232.59
775.45	232.54
775.77	232.50
776.09	232.46
776.42	232.41
776.74	232.43
777.07	232.38
777.39	232.36
777.72	232.30
778.04	232.29
778.36	232.23
778.69	232.19
779.01	232.16
779.33	231.97
779.66	231.73
779.98	231.67
780.31	231.65
780.63	231.68
780.95	231.67
781.28	231.63
781.60	231.58
781.92	231.54
782.25	231.50
782.57	231.48
782.89	231.43
783.22	231.39
783.54	231.31
783.86	231.29
784.19	231.24
784.51	231.27
784.83	231.20
785.16	231.16
785.48	231.12
785.80	231.09
786.12	231.07
786.45	231.04
786.77	231.02
787.09	230.97
787.42	230.88
787.74	230.85
788.06	230.83
788.38	230.80
788.71	230.75
789.03	230.73
789.35	230.70
789.67	230.64
789.99	230.62
790.32	230.58
790.64	230.56
790.96	230.70
791.28	230.61
791.61	230.58
791.93	230.57
792.25	230.53
792.57	230.63
792.89	230.58
793.21	230.56
793.54	230.52
793.86	230.48
794.18	230.47
794.50	230.43
794.82	230.39
795.14	230.40
795.47	230.40
795.79	230.38
796.11	230.33
796.43	230.31
796.75	230.28
797.07	230.27
797.39	230.23
797.71	230.06
798.04	230.06
798.36	230.04
798.68	230.01
799.00	230.01
799.32	229.90
799.64	229.91
799.96	229.88
800.28	229.90
800.60	229.88
800.92	229.87
801.24	229.83
801.56	229.83
801.89	229.80
802.21	229.79
802.53	229.73
802.85	229.75
803.17	229.81
803.49	229.76
803.81	229.71
804.13	229.68
804.45	229.65
804.77	229.63
805.09	229.62
805.41	229.59
805.73	229.52
806.05	229.45
806.37	229.42
806.69	229.39
807.01	229.34
807.33	229.34
807.65	229.25
807.97	229.31
808.28	229.28
808.60	229.25
808.92	229.21
809.24	229.31
809.56	229.27
809.88	229.19
810.20	229.19
810.52	229.22
810.84	229.19
811.16	229.15
811.48	229.12
811.80	229.18
812.12	229.16
812.43	229.19
812.75	229.19
813.07	229.17
813.39	229.16
813.71	229.14
814.03	229.11
814.35	229.11
814.67	229.02
814.98	228.99
815.30	228.97
815.62	228.94
815.94	228.82
816.26	228.81
816.58	228.78
816.89	228.79
817.21	228.73
817.53	228.74
817.85	228.74
818.17	228.72
818.48	228.63
