SpectraSuite Data File
++++++++++++++++++++++++++++++++++++
Date: Tue Oct 06 15:53:42 EDT 2015
User: lab3
Dark Spectrum Present: No
Reference Spectrum Present: No
Number of Sampled Component Spectra: 1
Spectrometers: USB2E7196
Integration Time (usec): 66000 (USB2E7196)
Spectra Averaged: 1000 (USB2E7196)
Boxcar Smoothing: 10 (USB2E7196)
Correct for Electrical Dark: No (USB2E7196)
Strobe/Lamp Enabled: No (USB2E7196)
Correct for Detector Non-linearity: No (USB2E7196)
Correct for Stray Light: No (USB2E7196)
Number of Pixels in Processed Spectrum: 2048
>>>>>Begin Processed Spectral Data<<<<<
339.09	0.00
339.48	215.83
339.86	217.31
340.24	218.71
340.63	220.10
341.01	224.11
341.39	222.77
341.78	224.34
342.16	225.52
342.54	225.74
342.93	214.25
343.31	225.08
343.69	225.61
344.07	226.07
344.46	226.52
344.84	226.92
345.22	227.12
345.60	227.38
345.99	227.59
346.37	227.74
346.75	227.86
347.13	227.95
347.52	228.04
347.90	228.18
348.28	228.23
348.66	228.32
349.05	228.32
349.43	228.39
349.81	228.45
350.19	228.53
350.57	228.60
350.96	228.71
351.34	228.82
351.72	228.93
352.10	229.05
352.48	229.12
352.87	229.18
353.25	229.25
353.63	229.32
354.01	229.38
354.39	229.46
354.77	229.54
355.15	229.66
355.54	229.71
355.92	229.73
356.30	229.81
356.68	229.99
357.06	230.07
357.44	230.12
357.82	230.19
358.20	230.41
358.58	230.46
358.97	230.54
359.35	230.64
359.73	230.73
360.11	230.79
360.49	230.87
360.87	230.92
361.25	231.01
361.63	231.11
362.01	231.16
362.39	231.19
362.77	231.25
363.15	231.26
363.53	231.29
363.91	231.33
364.29	231.36
364.67	231.22
365.05	231.25
365.43	231.28
365.81	231.31
366.19	231.27
366.57	231.35
366.95	231.34
367.33	231.31
367.71	231.30
368.09	231.33
368.47	231.32
368.85	231.30
369.23	231.30
369.61	231.23
369.99	231.27
370.37	231.27
370.75	231.38
371.13	231.35
371.51	231.30
371.89	231.28
372.27	231.26
372.65	231.24
373.03	231.19
373.41	231.15
373.78	231.11
374.16	230.97
374.54	230.87
374.92	230.82
375.30	230.79
375.68	230.71
376.06	230.66
376.44	230.61
376.82	230.58
377.19	230.54
377.57	230.48
377.95	230.38
378.33	230.31
378.71	230.10
379.09	230.07
379.47	230.05
379.84	229.98
380.22	229.92
380.60	229.83
380.98	229.79
381.36	229.73
381.73	229.66
382.11	229.64
382.49	229.61
382.87	229.54
383.25	229.49
383.62	229.67
384.00	229.60
384.38	229.57
384.76	229.57
385.13	229.58
385.51	229.54
385.89	229.49
386.27	229.47
386.64	229.46
387.02	229.42
387.40	229.37
387.78	229.36
388.15	229.33
388.53	229.30
388.91	229.27
389.29	229.25
389.66	229.26
390.04	229.22
390.42	229.23
390.79	229.23
391.17	229.21
391.55	228.99
391.92	228.98
392.30	229.00
392.68	228.94
393.05	228.93
393.43	228.95
393.81	228.97
394.18	228.96
394.56	228.96
394.94	229.01
395.31	229.03
395.69	229.09
396.06	229.15
396.44	229.20
396.82	229.22
397.19	229.36
397.57	229.38
397.95	229.46
398.32	229.45
398.70	229.52
399.07	229.62
399.45	229.69
399.82	229.76
400.20	229.81
400.58	229.91
400.95	229.92
401.33	230.05
401.70	230.27
402.08	230.41
402.45	230.54
402.83	230.70
403.20	230.87
403.58	231.00
403.95	231.21
404.33	231.43
404.71	231.66
405.08	231.96
405.46	232.21
405.83	232.49
406.21	232.78
406.58	233.11
406.96	233.42
407.33	233.79
407.70	234.22
408.08	234.80
408.45	235.30
408.83	235.85
409.20	236.36
409.58	236.82
409.95	237.44
410.33	238.11
410.70	238.77
411.08	239.53
411.45	240.33
411.82	241.16
412.20	242.08
412.57	243.18
412.95	244.06
413.32	245.20
413.69	246.38
414.07	247.65
414.44	249.02
414.82	250.43
415.19	252.08
415.56	253.75
415.94	255.50
416.31	257.44
416.68	259.41
417.06	261.68
417.43	263.81
417.81	266.26
418.18	268.76
418.55	271.50
418.93	274.32
419.30	277.30
419.67	280.45
420.04	283.70
420.42	287.09
420.79	291.01
421.16	294.95
421.54	298.95
421.91	303.14
422.28	307.50
422.66	312.18
423.03	316.61
423.40	321.28
423.77	326.30
424.15	331.41
424.52	336.71
424.89	342.44
425.26	348.14
425.64	353.42
426.01	359.37
426.38	365.44
426.75	371.71
427.13	378.09
427.50	384.77
427.87	391.72
428.24	398.72
428.61	405.43
428.99	412.68
429.36	420.61
429.73	428.19
430.10	435.74
430.47	443.46
430.85	451.47
431.22	459.99
431.59	468.73
431.96	477.26
432.33	486.76
432.70	495.80
433.08	506.47
433.45	516.57
433.82	526.48
434.19	537.61
434.56	548.56
434.93	559.22
435.30	569.79
435.68	581.78
436.05	593.46
436.42	605.15
436.79	615.86
437.16	627.48
437.53	639.91
437.90	652.34
438.27	664.59
438.64	677.76
439.01	689.76
439.38	700.76
439.75	711.40
440.13	723.46
440.50	734.94
440.87	744.13
441.24	754.23
441.61	765.31
441.98	773.48
442.35	783.20
442.72	793.05
443.09	802.42
443.46	808.52
443.83	813.17
444.20	817.05
444.57	822.63
444.94	825.95
445.31	829.38
445.68	832.30
446.05	834.45
446.42	834.11
446.79	833.50
447.16	833.02
447.53	832.63
447.90	829.07
448.27	825.61
448.64	820.24
449.01	816.52
449.37	808.83
449.74	801.87
450.11	792.84
450.48	782.94
450.85	773.03
451.22	764.46
451.59	756.05
451.96	748.44
452.33	737.41
452.70	727.61
453.07	715.73
453.43	703.90
453.80	692.36
454.17	681.31
454.54	671.10
454.91	659.57
455.28	648.66
455.65	638.39
456.02	627.57
456.38	618.83
456.75	607.67
457.12	598.67
457.49	589.58
457.86	580.97
458.23	573.38
458.59	565.02
458.96	556.47
459.33	548.94
459.70	541.27
460.07	535.43
460.43	528.53
460.80	522.08
461.17	516.46
461.54	510.40
461.91	504.73
462.27	498.96
462.64	494.23
463.01	488.82
463.38	483.38
463.74	478.48
464.11	474.10
464.48	470.15
464.85	465.88
465.21	462.60
465.58	459.00
465.95	454.93
466.32	451.65
466.68	448.44
467.05	445.21
467.42	442.07
467.78	438.70
468.15	435.61
468.52	433.34
468.88	430.34
469.25	427.61
469.62	425.43
469.98	423.07
470.35	420.96
470.72	419.06
471.08	417.12
471.45	415.51
471.82	413.69
472.18	411.80
472.55	410.57
472.92	409.06
473.28	407.86
473.65	406.57
474.02	405.35
474.38	404.33
474.75	403.73
475.11	402.89
475.48	402.50
475.85	402.06
476.21	401.81
476.58	401.63
476.94	401.82
477.31	401.86
477.67	401.93
478.04	402.25
478.41	402.70
478.77	403.33
479.14	403.72
479.50	404.54
479.87	405.55
480.23	406.53
480.60	407.48
480.96	408.45
481.33	409.90
481.69	411.33
482.06	412.75
482.42	414.03
482.79	415.67
483.15	417.55
483.52	419.69
483.88	421.73
484.25	423.88
484.61	426.16
484.98	428.58
485.34	431.34
485.71	434.21
486.07	437.26
486.44	440.29
486.80	443.69
487.17	447.16
487.53	450.95
487.90	454.92
488.26	459.25
488.62	463.77
488.99	468.31
489.35	473.07
489.72	478.17
490.08	483.57
490.44	489.05
490.81	494.82
491.17	500.70
491.54	507.00
491.90	513.46
492.26	520.34
492.63	527.57
492.99	535.10
493.36	542.77
493.72	550.86
494.08	559.13
494.45	567.80
494.81	576.86
495.17	586.15
495.54	595.97
495.90	606.19
496.26	616.62
496.63	627.31
496.99	638.41
497.35	650.03
497.72	661.92
498.08	674.13
498.44	686.61
498.80	699.85
499.17	713.38
499.53	727.38
499.89	741.78
500.26	756.37
500.62	771.27
500.98	787.05
501.34	802.83
501.71	819.42
502.07	836.23
502.43	853.52
502.79	871.02
503.16	889.03
503.52	907.21
503.88	925.79
504.24	944.85
504.60	964.14
504.97	984.00
505.33	1004.30
505.69	1025.63
506.05	1047.16
506.41	1068.49
506.78	1090.01
507.14	1112.14
507.50	1134.62
507.86	1157.53
508.22	1180.64
508.59	1203.51
508.95	1227.52
509.31	1251.92
509.67	1276.96
510.03	1301.89
510.39	1326.77
510.75	1351.68
511.12	1376.98
511.48	1402.27
511.84	1427.58
512.20	1453.20
512.56	1479.74
512.92	1506.14
513.28	1531.98
513.64	1558.09
514.00	1584.50
514.37	1611.17
514.73	1637.79
515.09	1663.78
515.45	1690.05
515.81	1716.35
516.17	1742.39
516.53	1767.76
516.89	1793.10
517.25	1818.64
517.61	1843.90
517.97	1869.72
518.33	1894.87
518.69	1919.85
519.05	1945.30
519.41	1970.81
519.77	1996.20
520.13	2020.27
520.49	2044.40
520.85	2068.76
521.21	2092.61
521.57	2116.75
521.93	2139.93
522.29	2163.60
522.65	2187.08
523.01	2210.25
523.37	2232.80
523.73	2256.04
524.09	2278.93
524.45	2301.25
524.81	2322.99
525.17	2344.45
525.53	2365.34
525.89	2386.51
526.25	2407.25
526.61	2426.48
526.97	2445.69
527.33	2464.74
527.68	2483.40
528.04	2501.62
528.40	2518.49
528.76	2535.71
529.12	2552.45
529.48	2569.54
529.84	2584.06
530.20	2599.04
530.56	2613.04
530.91	2627.24
531.27	2640.92
531.63	2653.60
531.99	2666.07
532.35	2678.02
532.71	2689.64
533.07	2701.44
533.42	2711.41
533.78	2721.81
534.14	2733.01
534.50	2743.05
534.86	2753.52
535.21	2762.02
535.57	2770.38
535.93	2778.61
536.29	2785.15
536.65	2791.41
537.00	2796.21
537.36	2802.36
537.72	2807.42
538.08	2811.90
538.44	2815.51
538.79	2818.75
539.15	2820.63
539.51	2821.96
539.87	2822.26
540.22	2821.02
540.58	2820.04
540.94	2820.08
541.29	2818.67
541.65	2815.92
542.01	2812.84
542.37	2808.33
542.72	2805.22
543.08	2800.57
543.44	2796.17
543.79	2791.05
544.15	2785.45
544.51	2780.15
544.87	2773.68
545.22	2766.42
545.58	2759.19
545.94	2752.03
546.29	2743.33
546.65	2735.04
547.01	2726.71
547.36	2718.71
547.72	2710.97
548.07	2701.46
548.43	2691.00
548.79	2680.26
549.14	2669.99
549.50	2659.79
549.86	2648.75
550.21	2636.19
550.57	2624.58
550.92	2611.40
551.28	2598.82
551.64	2586.35
551.99	2573.53
552.35	2560.39
552.70	2547.13
553.06	2534.33
553.41	2521.05
553.77	2507.62
554.13	2494.26
554.48	2479.95
554.84	2465.11
555.19	2450.70
555.55	2436.18
555.90	2421.91
556.26	2408.14
556.61	2393.20
556.97	2377.34
557.32	2361.90
557.68	2346.87
558.03	2331.55
558.39	2317.09
558.74	2303.16
559.10	2287.55
559.45	2272.42
559.81	2257.97
560.16	2243.18
560.52	2228.20
560.87	2213.28
561.23	2198.12
561.58	2183.36
561.94	2168.15
562.29	2152.49
562.64	2136.97
563.00	2121.68
563.35	2106.56
563.71	2091.03
564.06	2075.72
564.42	2060.98
564.77	2046.24
565.12	2031.29
565.48	2016.20
565.83	2001.45
566.19	1986.70
566.54	1972.19
566.89	1957.01
567.25	1941.62
567.60	1927.15
567.96	1911.81
568.31	1895.62
568.66	1880.33
569.02	1865.58
569.37	1851.33
569.72	1837.66
570.08	1823.58
570.43	1809.01
570.78	1794.19
571.14	1779.21
571.49	1764.34
571.84	1749.77
572.20	1734.26
572.55	1719.43
572.90	1704.68
573.26	1689.75
573.61	1674.29
573.96	1659.39
574.31	1644.36
574.67	1629.40
575.02	1614.00
575.37	1598.83
575.72	1584.19
576.08	1569.43
576.43	1554.08
576.78	1538.87
577.13	1523.84
577.49	1509.09
577.84	1494.72
578.19	1479.90
578.54	1465.24
578.90	1450.57
579.25	1435.83
579.60	1422.01
579.95	1407.99
580.30	1393.93
580.66	1379.65
581.01	1365.49
581.36	1351.45
581.71	1338.12
582.06	1324.68
582.42	1311.16
582.77	1298.12
583.12	1285.32
583.47	1272.39
583.82	1259.70
584.17	1246.68
584.53	1233.71
584.88	1220.96
585.23	1208.06
585.58	1195.63
585.93	1183.16
586.28	1171.54
586.63	1159.72
586.98	1147.71
587.34	1136.00
587.69	1124.09
588.04	1112.66
588.39	1101.37
588.74	1089.71
589.09	1078.25
589.44	1066.56
589.79	1055.38
590.14	1044.26
590.49	1033.24
590.84	1022.40
591.19	1011.76
591.54	1001.29
591.89	990.43
592.25	979.94
592.60	969.36
592.95	958.94
593.30	948.78
593.65	938.39
594.00	928.26
594.35	918.95
594.70	909.04
595.05	899.78
595.40	890.20
595.75	880.54
596.10	871.51
596.45	862.44
596.80	853.67
597.15	844.99
597.50	836.29
597.85	827.71
598.19	819.20
598.54	810.76
598.89	802.71
599.24	795.08
599.59	787.29
599.94	780.07
600.29	772.83
600.64	765.45
600.99	757.98
601.34	750.71
601.69	743.01
602.04	736.08
602.39	729.04
602.74	722.23
603.08	715.58
603.43	708.84
603.78	702.09
604.13	695.49
604.48	688.93
604.83	682.53
605.18	676.24
605.53	670.10
605.87	663.87
606.22	657.79
606.57	651.64
606.92	645.39
607.27	639.19
607.62	633.20
607.96	627.48
608.31	622.14
608.66	616.77
609.01	611.57
609.36	606.40
609.70	601.16
610.05	595.96
610.40	590.90
610.75	585.83
611.10	581.00
611.44	576.15
611.79	571.36
612.14	566.56
612.49	561.84
612.83	557.32
613.18	552.86
613.53	548.41
613.88	544.13
614.22	540.14
614.57	536.04
614.92	532.03
615.27	528.17
615.61	524.19
615.96	520.24
616.31	516.32
616.65	512.51
617.00	508.82
617.35	505.17
617.70	501.55
618.04	498.06
618.39	494.63
618.74	491.42
619.08	488.20
619.43	485.05
619.78	481.85
620.12	478.71
620.47	475.75
620.82	472.80
621.16	469.86
621.51	466.99
621.85	464.16
622.20	461.40
622.55	458.57
622.89	455.80
623.24	453.22
623.59	450.67
623.93	448.20
624.28	445.85
624.62	443.68
624.97	441.52
625.32	439.25
625.66	436.95
626.01	434.66
626.35	432.46
626.70	430.21
627.04	428.15
627.39	426.04
627.73	424.01
628.08	422.07
628.43	420.12
628.77	418.09
629.12	416.21
629.46	414.39
629.81	412.69
630.15	410.92
630.50	409.15
630.84	407.44
631.19	405.75
631.53	404.13
631.88	402.36
632.22	400.68
632.57	399.26
632.91	397.81
633.26	396.41
633.60	395.04
633.95	393.77
634.29	392.37
634.64	391.02
634.98	389.53
635.32	388.23
635.67	387.01
636.01	385.82
636.36	384.64
636.70	383.56
637.05	382.32
637.39	381.23
637.73	380.13
638.08	379.09
638.42	378.11
638.77	376.97
639.11	375.81
639.45	374.68
639.80	373.51
640.14	372.42
640.49	371.32
640.83	370.20
641.17	369.11
641.52	368.06
641.86	367.03
642.20	366.18
642.55	365.11
642.89	364.09
643.23	363.13
643.58	362.28
643.92	361.27
644.26	360.35
644.61	359.47
644.95	358.54
645.29	357.54
645.64	356.51
645.98	355.60
646.32	354.79
646.66	353.94
647.01	353.11
647.35	352.35
647.69	351.56
648.04	350.84
648.38	350.07
648.72	349.34
649.06	348.58
649.41	347.76
649.75	347.02
650.09	346.31
650.43	345.55
650.78	344.79
651.12	344.05
651.46	343.31
651.80	342.58
652.14	341.93
652.49	341.32
652.83	340.64
653.17	339.94
653.51	339.28
653.85	338.70
654.20	338.07
654.54	337.33
654.88	336.64
655.22	336.00
655.56	335.31
655.90	334.65
656.25	334.03
656.59	333.42
656.93	332.85
657.27	332.33
657.61	331.73
657.95	331.16
658.29	330.58
658.64	330.03
658.98	329.43
659.32	328.84
659.66	328.28
660.00	327.77
660.34	327.24
660.68	326.66
661.02	326.02
661.36	325.42
661.70	324.87
662.05	324.35
662.39	323.81
662.73	323.36
663.07	322.95
663.41	322.48
663.75	321.96
664.09	321.44
664.43	320.81
664.77	320.29
665.11	319.70
665.45	319.18
665.79	318.69
666.13	318.16
666.47	317.61
666.81	317.04
667.15	316.43
667.49	315.97
667.83	315.55
668.17	315.10
668.51	314.68
668.85	314.27
669.19	313.89
669.53	313.36
669.87	312.79
670.21	312.25
670.55	311.73
670.89	311.34
671.23	310.90
671.57	310.53
671.91	310.16
672.25	309.82
672.58	309.48
672.92	309.04
673.26	308.69
673.60	308.31
673.94	307.94
674.28	307.60
674.62	307.21
674.96	306.75
675.30	306.35
675.64	305.90
675.97	305.44
676.31	304.96
676.65	304.54
676.99	304.22
677.33	303.77
677.67	303.37
678.01	302.88
678.34	302.44
678.68	302.02
679.02	301.55
679.36	301.11
679.70	300.64
680.04	300.23
680.37	299.83
680.71	299.44
681.05	299.07
681.39	298.64
681.73	298.17
682.06	297.73
682.40	297.34
682.74	296.99
683.08	296.70
683.42	296.31
683.75	295.95
684.09	295.46
684.43	295.08
684.77	294.63
685.10	294.26
685.44	293.87
685.78	293.46
686.12	293.07
686.45	292.67
686.79	292.23
687.13	291.83
687.46	291.36
687.80	290.95
688.14	290.46
688.48	290.04
688.81	289.64
689.15	289.30
689.49	288.86
689.82	288.42
690.16	287.89
690.50	287.44
690.83	287.00
691.17	286.56
691.51	286.14
691.84	285.77
692.18	285.33
692.52	284.86
692.85	284.42
693.19	284.06
693.52	283.61
693.86	283.18
694.20	282.74
694.53	282.34
694.87	281.88
695.21	281.45
695.54	281.02
695.88	280.58
696.21	280.07
696.55	279.64
696.88	279.20
697.22	278.78
697.56	278.39
697.89	277.94
698.23	277.54
698.56	277.10
698.90	276.69
699.23	276.25
699.57	275.88
699.90	275.47
700.24	275.01
700.58	274.63
700.91	274.28
701.25	274.06
701.58	273.74
701.92	273.41
702.25	273.03
702.59	272.64
702.92	272.25
703.26	271.87
703.59	271.49
703.93	271.26
704.26	270.91
704.60	270.52
704.93	270.16
705.26	269.77
705.60	269.45
705.93	269.05
706.27	268.75
706.60	268.41
706.94	268.10
707.27	267.71
707.61	267.34
707.94	266.96
708.27	266.44
708.61	266.00
708.94	265.61
709.28	265.26
709.61	264.89
709.94	264.59
710.28	264.28
710.61	263.97
710.95	263.47
711.28	263.26
711.61	262.91
711.95	262.62
712.28	262.29
712.61	261.94
712.95	261.71
713.28	261.46
713.61	261.12
713.95	260.76
714.28	260.46
714.61	260.13
714.95	259.82
715.28	259.52
715.61	259.22
715.95	258.95
716.28	258.65
716.61	258.40
716.95	258.09
717.28	257.80
717.61	257.50
717.94	257.24
718.28	256.84
718.61	256.56
718.94	256.25
719.27	255.99
719.61	255.76
719.94	255.47
720.27	255.11
720.60	254.85
720.94	254.59
721.27	254.34
721.60	254.11
721.93	253.84
722.27	253.63
722.60	253.41
722.93	253.14
723.26	252.93
723.59	252.66
723.93	252.45
724.26	252.22
724.59	251.98
724.92	251.78
725.25	251.61
725.59	251.37
725.92	251.19
726.25	250.96
726.58	250.73
726.91	250.49
727.24	250.28
727.57	250.06
727.91	249.82
728.24	249.63
728.57	249.41
728.90	249.23
729.23	248.97
729.56	248.85
729.89	248.65
730.22	248.43
730.55	248.24
730.89	248.04
731.22	247.85
731.55	247.65
731.88	247.45
732.21	247.24
732.54	247.05
732.87	246.87
733.20	246.71
733.53	246.52
733.86	246.36
734.19	246.18
734.52	246.05
734.85	246.02
735.18	245.84
735.51	245.72
735.84	245.57
736.17	245.46
736.50	245.19
736.83	245.22
737.16	245.06
737.49	244.90
737.82	244.73
738.15	244.59
738.48	244.44
738.81	244.26
739.14	244.09
739.47	243.93
739.80	243.77
740.13	243.63
740.46	243.46
740.79	243.28
741.12	243.13
741.45	242.94
741.78	242.67
742.11	242.57
742.44	242.38
742.77	242.24
743.10	242.07
743.43	241.92
743.75	241.60
744.08	241.73
744.41	241.57
744.74	241.43
745.07	241.26
745.40	241.15
745.73	241.11
746.06	240.98
746.39	240.88
746.71	240.73
747.04	240.57
747.37	240.44
747.70	240.34
748.03	240.23
748.36	240.14
748.68	240.03
749.01	239.86
749.34	239.74
749.67	239.62
750.00	239.54
750.33	239.56
750.65	239.47
750.98	239.09
751.31	238.99
751.64	238.89
751.97	238.89
752.29	238.76
752.62	238.56
752.95	238.46
753.28	238.32
753.60	238.22
753.93	238.18
754.26	238.08
754.59	237.93
754.91	237.80
755.24	237.68
755.57	237.57
755.90	237.46
756.22	237.34
756.55	237.21
756.88	237.07
757.20	236.85
757.53	236.70
757.86	236.61
758.19	236.53
758.51	236.44
758.84	236.26
759.17	236.14
759.49	236.07
759.82	236.05
760.15	235.99
760.47	235.90
760.80	235.74
761.13	235.69
761.45	235.61
761.78	235.54
762.11	235.45
762.43	235.35
762.76	235.28
763.08	235.22
763.41	235.17
763.74	235.12
764.06	235.04
764.39	234.97
764.71	234.89
765.04	234.81
765.37	234.71
765.69	234.63
766.02	234.56
766.34	234.48
766.67	234.35
767.00	234.30
767.32	234.33
767.65	234.38
767.97	234.29
768.30	234.25
768.62	234.19
768.95	234.12
769.27	234.05
769.60	234.02
769.92	233.92
770.25	233.82
770.57	233.73
770.90	233.67
771.22	233.60
771.55	233.55
771.87	233.50
772.20	233.44
772.52	233.55
772.85	233.72
773.17	233.68
773.50	233.61
773.82	233.54
774.15	233.40
774.47	233.24
774.80	233.18
775.12	233.12
775.45	233.06
775.77	233.02
776.09	232.99
776.42	232.94
776.74	232.95
777.07	232.92
777.39	232.88
777.72	232.81
778.04	232.79
778.36	232.75
778.69	232.72
779.01	232.68
779.33	232.48
779.66	232.22
779.98	232.16
780.31	232.14
780.63	232.18
780.95	232.16
781.28	232.12
781.60	232.06
781.92	232.02
782.25	231.99
782.57	231.96
782.89	231.91
783.22	231.87
783.54	231.80
783.86	231.79
784.19	231.75
784.51	231.78
784.83	231.72
785.16	231.69
785.48	231.65
785.80	231.62
786.12	231.61
786.45	231.58
786.77	231.56
787.09	231.53
787.42	231.43
787.74	231.39
788.06	231.39
788.38	231.37
788.71	231.34
789.03	231.32
789.35	231.31
789.67	231.26
789.99	231.25
790.32	231.20
790.64	231.19
790.96	231.32
791.28	231.23
791.61	231.20
791.93	231.18
792.25	231.14
792.57	231.23
792.89	231.18
793.21	231.17
793.54	231.13
793.86	231.09
794.18	231.06
794.50	231.01
794.82	230.98
795.14	230.97
795.47	230.96
795.79	230.93
796.11	230.86
796.43	230.84
796.75	230.80
797.07	230.79
797.39	230.75
797.71	230.57
798.04	230.57
798.36	230.55
798.68	230.52
799.00	230.51
799.32	230.40
799.64	230.40
799.96	230.38
800.28	230.39
800.60	230.37
800.92	230.36
801.24	230.34
801.56	230.33
801.89	230.29
802.21	230.28
802.53	230.24
802.85	230.26
803.17	230.33
803.49	230.28
803.81	230.25
804.13	230.23
804.45	230.20
804.77	230.19
805.09	230.18
805.41	230.16
805.73	230.11
806.05	230.06
806.37	230.02
806.69	229.99
807.01	229.95
807.33	229.95
807.65	229.87
807.97	229.93
808.28	229.89
808.60	229.87
808.92	229.83
809.24	229.92
809.56	229.88
809.88	229.79
810.20	229.78
810.52	229.82
810.84	229.78
811.16	229.75
811.48	229.73
811.80	229.78
812.12	229.76
812.43	229.79
812.75	229.79
813.07	229.76
813.39	229.76
813.71	229.73
814.03	229.70
814.35	229.70
814.67	229.62
814.98	229.61
815.30	229.61
815.62	229.57
815.94	229.45
816.26	229.46
816.58	229.42
816.89	229.43
817.21	229.37
817.53	229.37
817.85	229.37
818.17	229.36
818.48	229.28
