SpectraSuite Data File
++++++++++++++++++++++++++++++++++++
Date: Tue Oct 06 15:19:00 EDT 2015
User: lab3
Dark Spectrum Present: No
Reference Spectrum Present: No
Number of Sampled Component Spectra: 1
Spectrometers: USB2E7196
Integration Time (usec): 66000 (USB2E7196)
Spectra Averaged: 400 (USB2E7196)
Boxcar Smoothing: 10 (USB2E7196)
Correct for Electrical Dark: No (USB2E7196)
Strobe/Lamp Enabled: No (USB2E7196)
Correct for Detector Non-linearity: No (USB2E7196)
Correct for Stray Light: No (USB2E7196)
Number of Pixels in Processed Spectrum: 2048
>>>>>Begin Processed Spectral Data<<<<<
339.09	0.00
339.48	214.80
339.86	216.60
340.24	217.72
340.63	219.20
341.01	223.53
341.39	222.16
341.78	223.31
342.16	224.68
342.54	224.98
342.93	213.51
343.31	224.28
343.69	224.83
344.07	225.28
344.46	225.73
344.84	226.14
345.22	226.32
345.60	226.58
345.99	226.78
346.37	226.92
346.75	227.04
347.13	227.11
347.52	227.20
347.90	227.34
348.28	227.39
348.66	227.47
349.05	227.45
349.43	227.51
349.81	227.58
350.19	227.64
350.57	227.73
350.96	227.82
351.34	227.94
351.72	228.04
352.10	228.17
352.48	228.24
352.87	228.28
353.25	228.37
353.63	228.43
354.01	228.50
354.39	228.59
354.77	228.67
355.15	228.78
355.54	228.81
355.92	228.82
356.30	228.89
356.68	229.08
357.06	229.18
357.44	229.21
357.82	229.28
358.20	229.48
358.58	229.54
358.97	229.61
359.35	229.69
359.73	229.80
360.11	229.83
360.49	229.90
360.87	229.94
361.25	229.99
361.63	230.09
362.01	230.13
362.39	230.14
362.77	230.20
363.15	230.22
363.53	230.25
363.91	230.28
364.29	230.31
364.67	230.15
365.05	230.17
365.43	230.21
365.81	230.24
366.19	230.19
366.57	230.29
366.95	230.27
367.33	230.24
367.71	230.22
368.09	230.26
368.47	230.25
368.85	230.25
369.23	230.27
369.61	230.20
369.99	230.24
370.37	230.26
370.75	230.37
371.13	230.33
371.51	230.28
371.89	230.27
372.27	230.25
372.65	230.23
373.03	230.19
373.41	230.13
373.78	230.07
374.16	229.94
374.54	229.83
374.92	229.80
375.30	229.74
375.68	229.66
376.06	229.61
376.44	229.57
376.82	229.53
377.19	229.48
377.57	229.43
377.95	229.33
378.33	229.27
378.71	229.06
379.09	229.03
379.47	229.03
379.84	228.96
380.22	228.90
380.60	228.84
380.98	228.79
381.36	228.74
381.73	228.67
382.11	228.68
382.49	228.64
382.87	228.56
383.25	228.53
383.62	228.71
384.00	228.64
384.38	228.61
384.76	228.61
385.13	228.63
385.51	228.60
385.89	228.54
386.27	228.51
386.64	228.50
387.02	228.45
387.40	228.41
387.78	228.37
388.15	228.36
388.53	228.32
388.91	228.30
389.29	228.27
389.66	228.28
390.04	228.24
390.42	228.25
390.79	228.26
391.17	228.25
391.55	228.04
391.92	228.06
392.30	228.08
392.68	228.02
393.05	228.01
393.43	228.02
393.81	228.05
394.18	228.03
394.56	228.05
394.94	228.10
395.31	228.10
395.69	228.20
396.06	228.24
396.44	228.29
396.82	228.31
397.19	228.44
397.57	228.47
397.95	228.53
398.32	228.53
398.70	228.59
399.07	228.68
399.45	228.74
399.82	228.78
400.20	228.82
400.58	228.92
400.95	228.94
401.33	229.06
401.70	229.29
402.08	229.44
402.45	229.56
402.83	229.74
403.20	229.92
403.58	230.05
403.95	230.26
404.33	230.48
404.71	230.69
405.08	231.00
405.46	231.24
405.83	231.53
406.21	231.81
406.58	232.14
406.96	232.48
407.33	232.86
407.70	233.29
408.08	233.88
408.45	234.39
408.83	234.92
409.20	235.45
409.58	235.88
409.95	236.52
410.33	237.19
410.70	237.83
411.08	238.58
411.45	239.40
411.82	240.21
412.20	241.16
412.57	242.26
412.95	243.16
413.32	244.31
413.69	245.49
414.07	246.76
414.44	248.13
414.82	249.53
415.19	251.17
415.56	252.85
415.94	254.59
416.31	256.56
416.68	258.54
417.06	260.79
417.43	262.94
417.81	265.39
418.18	267.91
418.55	270.64
418.93	273.48
419.30	276.45
419.67	279.62
420.04	282.86
420.42	286.27
420.79	290.18
421.16	294.13
421.54	298.13
421.91	302.32
422.28	306.70
422.66	311.39
423.03	315.88
423.40	320.57
423.77	325.59
424.15	330.73
424.52	336.02
424.89	341.79
425.26	347.49
425.64	352.81
426.01	358.76
426.38	364.88
426.75	371.14
427.13	377.59
427.50	384.29
427.87	391.28
428.24	398.31
428.61	405.05
428.99	412.31
429.36	420.31
429.73	427.94
430.10	435.52
430.47	443.30
430.85	451.31
431.22	459.87
431.59	468.61
431.96	477.16
432.33	486.67
432.70	495.73
433.08	506.48
433.45	516.60
433.82	526.56
434.19	537.72
434.56	548.70
434.93	559.35
435.30	569.94
435.68	581.94
436.05	593.67
436.42	605.44
436.79	616.17
437.16	627.81
437.53	640.27
437.90	652.79
438.27	665.01
438.64	678.22
439.01	690.21
439.38	701.27
439.75	711.93
440.13	724.13
440.50	735.66
440.87	744.91
441.24	755.06
441.61	766.21
441.98	774.41
442.35	784.21
442.72	794.15
443.09	803.59
443.46	809.76
443.83	814.43
444.20	818.30
444.57	823.96
444.94	827.34
445.31	830.79
445.68	833.74
446.05	836.01
446.42	835.74
446.79	835.23
447.16	834.78
447.53	834.41
447.90	830.84
448.27	827.43
448.64	821.99
449.01	818.24
449.37	810.55
449.74	803.61
450.11	794.57
450.48	784.66
450.85	774.72
451.22	766.14
451.59	757.74
451.96	750.13
452.33	739.09
452.70	729.25
453.07	717.35
453.43	705.50
453.80	693.88
454.17	682.77
454.54	672.51
454.91	660.94
455.28	650.03
455.65	639.71
456.02	628.84
456.38	620.11
456.75	608.92
457.12	599.84
457.49	590.67
457.86	582.03
458.23	574.39
458.59	565.99
458.96	557.39
459.33	549.81
459.70	542.11
460.07	536.20
460.43	529.28
460.80	522.78
461.17	517.10
461.54	511.04
461.91	505.34
462.27	499.54
462.64	494.81
463.01	489.38
463.38	483.91
463.74	478.95
464.11	474.55
464.48	470.57
464.85	466.31
465.21	463.05
465.58	459.40
465.95	455.30
466.32	452.00
466.68	448.77
467.05	445.53
467.42	442.35
467.78	438.97
468.15	435.85
468.52	433.58
468.88	430.55
469.25	427.78
469.62	425.58
469.98	423.17
470.35	421.04
470.72	419.11
471.08	417.16
471.45	415.53
471.82	413.69
472.18	411.78
472.55	410.53
472.92	408.96
473.28	407.75
473.65	406.43
474.02	405.19
474.38	404.18
474.75	403.58
475.11	402.74
475.48	402.33
475.85	401.92
476.21	401.64
476.58	401.44
476.94	401.62
477.31	401.66
477.67	401.77
478.04	402.07
478.41	402.49
478.77	403.09
479.14	403.48
479.50	404.28
479.87	405.30
480.23	406.30
480.60	407.27
480.96	408.24
481.33	409.69
481.69	411.14
482.06	412.51
482.42	413.77
482.79	415.42
483.15	417.31
483.52	419.44
483.88	421.49
484.25	423.65
484.61	425.90
484.98	428.34
485.34	431.08
485.71	433.95
486.07	437.02
486.44	440.05
486.80	443.47
487.17	446.98
487.53	450.77
487.90	454.72
488.26	459.03
488.62	463.56
488.99	468.09
489.35	472.84
489.72	477.99
490.08	483.40
490.44	488.88
490.81	494.61
491.17	500.49
491.54	506.81
491.90	513.31
492.26	520.22
492.63	527.40
492.99	534.93
493.36	542.65
493.72	550.76
494.08	559.05
494.45	567.71
494.81	576.72
495.17	586.03
495.54	595.85
495.90	606.11
496.26	616.56
496.63	627.26
496.99	638.38
497.35	649.98
497.72	661.87
498.08	674.15
498.44	686.73
498.80	699.98
499.17	713.50
499.53	727.49
499.89	741.91
500.26	756.55
500.62	771.51
500.98	787.26
501.34	803.06
501.71	819.63
502.07	836.53
502.43	853.83
502.79	871.27
503.16	889.33
503.52	907.53
503.88	926.16
504.24	945.20
504.60	964.50
504.97	984.40
505.33	1004.70
505.69	1026.03
506.05	1047.46
506.41	1068.85
506.78	1090.41
507.14	1112.54
507.50	1135.08
507.86	1157.95
508.22	1181.02
508.59	1203.95
508.95	1227.89
509.31	1252.29
509.67	1277.27
510.03	1302.24
510.39	1327.13
510.75	1352.05
511.12	1377.26
511.48	1402.57
511.84	1427.92
512.20	1453.39
512.56	1479.88
512.92	1506.28
513.28	1531.98
513.64	1558.10
514.00	1584.48
514.37	1611.09
514.73	1637.71
515.09	1663.60
515.45	1689.81
515.81	1716.17
516.17	1742.10
516.53	1767.35
516.89	1792.52
517.25	1817.93
517.61	1843.12
517.97	1868.83
518.33	1893.77
518.69	1918.75
519.05	1944.00
519.41	1969.30
519.77	1994.63
520.13	2018.56
520.49	2042.55
520.85	2066.87
521.21	2090.55
521.57	2114.50
521.93	2137.39
522.29	2160.95
522.65	2184.17
523.01	2207.17
523.37	2229.57
523.73	2252.69
524.09	2275.49
524.45	2297.83
524.81	2319.50
525.17	2340.83
525.53	2361.54
525.89	2382.70
526.25	2403.28
526.61	2422.53
526.97	2441.67
527.33	2460.70
527.68	2479.26
528.04	2497.28
528.40	2514.18
528.76	2531.31
529.12	2547.96
529.48	2565.06
529.84	2579.52
530.20	2594.63
530.56	2608.60
530.91	2622.70
531.27	2636.20
531.63	2648.87
531.99	2661.13
532.35	2672.98
532.71	2684.46
533.07	2696.23
533.42	2706.15
533.78	2716.32
534.14	2727.23
534.50	2737.14
534.86	2747.60
535.21	2756.00
535.57	2764.24
535.93	2772.39
536.29	2779.01
536.65	2785.23
537.00	2789.94
537.36	2795.78
537.72	2800.64
538.08	2805.13
538.44	2808.33
538.79	2811.49
539.15	2813.33
539.51	2814.83
539.87	2815.30
540.22	2814.03
540.58	2812.91
540.94	2812.60
541.29	2811.27
541.65	2808.42
542.01	2805.34
542.37	2800.59
542.72	2797.52
543.08	2792.94
543.44	2788.42
543.79	2783.09
544.15	2777.31
544.51	2772.03
544.87	2765.58
545.22	2758.22
545.58	2750.65
545.94	2743.55
546.29	2735.02
546.65	2726.67
547.01	2718.10
547.36	2709.89
547.72	2701.95
548.07	2692.46
548.43	2681.99
548.79	2671.14
549.14	2660.75
549.50	2650.54
549.86	2639.52
550.21	2626.86
550.57	2615.18
550.92	2601.75
551.28	2588.97
551.64	2576.46
551.99	2563.52
552.35	2550.45
552.70	2537.31
553.06	2524.65
553.41	2511.55
553.77	2497.96
554.13	2484.54
554.48	2470.13
554.84	2455.03
555.19	2440.74
555.55	2426.31
555.90	2412.00
556.26	2398.28
556.61	2383.50
556.97	2367.63
557.32	2352.21
557.68	2337.09
558.03	2321.72
558.39	2307.22
558.74	2293.38
559.10	2277.75
559.45	2262.53
559.81	2247.92
560.16	2232.98
560.52	2217.89
560.87	2202.92
561.23	2187.63
561.58	2172.79
561.94	2157.69
562.29	2142.20
562.64	2126.69
563.00	2111.35
563.35	2096.45
563.71	2080.98
564.06	2065.73
564.42	2050.94
564.77	2036.18
565.12	2021.40
565.48	2006.46
565.83	1991.80
566.19	1977.13
566.54	1962.79
566.89	1947.73
567.25	1932.46
567.60	1918.00
567.96	1902.91
568.31	1886.58
568.66	1871.30
569.02	1856.54
569.37	1842.26
569.72	1828.54
570.08	1814.37
570.43	1799.71
570.78	1784.82
571.14	1769.77
571.49	1754.87
571.84	1740.37
572.20	1724.85
572.55	1709.96
572.90	1695.06
573.26	1680.18
573.61	1664.58
573.96	1649.48
574.31	1634.47
574.67	1619.39
575.02	1604.04
575.37	1588.70
575.72	1574.11
576.08	1559.46
576.43	1544.17
576.78	1529.01
577.13	1514.01
577.49	1499.38
577.84	1485.09
578.19	1470.36
578.54	1455.72
578.90	1441.06
579.25	1426.27
579.60	1412.53
579.95	1398.52
580.30	1384.62
580.66	1370.45
581.01	1356.49
581.36	1342.63
581.71	1329.29
582.06	1316.02
582.42	1302.58
582.77	1289.63
583.12	1276.92
583.47	1264.02
583.82	1251.45
584.17	1238.50
584.53	1225.62
584.88	1212.93
585.23	1200.19
585.58	1187.87
585.93	1175.54
586.28	1163.99
586.63	1152.36
586.98	1140.41
587.34	1128.81
587.69	1116.93
588.04	1105.49
588.39	1094.36
588.74	1082.81
589.09	1071.50
589.44	1059.88
589.79	1048.83
590.14	1037.80
590.49	1026.82
590.84	1016.15
591.19	1005.61
591.54	995.26
591.89	984.52
592.25	974.12
592.60	963.65
592.95	953.30
593.30	943.24
593.65	932.95
594.00	922.88
594.35	913.68
594.70	903.92
595.05	894.76
595.40	885.34
595.75	875.76
596.10	866.78
596.45	857.70
596.80	849.02
597.15	840.34
597.50	831.73
597.85	823.33
598.19	814.89
598.54	806.45
598.89	798.37
599.24	790.79
599.59	783.00
599.94	775.77
600.29	768.51
600.64	761.16
600.99	753.74
601.34	746.57
601.69	738.86
602.04	731.95
602.39	724.92
602.74	718.13
603.08	711.42
603.43	704.73
603.78	698.09
604.13	691.55
604.48	685.00
604.83	678.65
605.18	672.36
605.53	666.26
605.87	660.08
606.22	654.06
606.57	647.96
606.92	641.79
607.27	635.65
607.62	629.75
607.96	624.04
608.31	618.70
608.66	613.27
609.01	608.12
609.36	602.97
609.70	597.78
610.05	592.59
610.40	587.58
610.75	582.56
611.10	577.74
611.44	572.90
611.79	568.23
612.14	563.46
612.49	558.75
612.83	554.27
613.18	549.88
613.53	545.51
613.88	541.18
614.22	537.22
614.57	533.14
614.92	529.18
615.27	525.31
615.61	521.40
615.96	517.50
616.31	513.59
616.65	509.81
617.00	506.15
617.35	502.58
617.70	499.01
618.04	495.53
618.39	492.15
618.74	488.95
619.08	485.73
619.43	482.60
619.78	479.44
620.12	476.29
620.47	473.33
620.82	470.40
621.16	467.51
621.51	464.66
621.85	461.88
622.20	459.09
622.55	456.34
622.89	453.63
623.24	451.08
623.59	448.60
623.93	446.13
624.28	443.80
624.62	441.65
624.97	439.52
625.32	437.27
625.66	434.98
626.01	432.67
626.35	430.51
626.70	428.28
627.04	426.29
627.39	424.21
627.73	422.20
628.08	420.27
628.43	418.39
628.77	416.41
629.12	414.53
629.46	412.74
629.81	411.04
630.15	409.26
630.50	407.50
630.84	405.78
631.19	404.13
631.53	402.55
631.88	400.78
632.22	399.10
632.57	397.72
632.91	396.31
633.26	394.94
633.60	393.60
633.95	392.35
634.29	390.90
634.64	389.57
634.98	388.10
635.32	386.76
635.67	385.54
636.01	384.33
636.36	383.18
636.70	382.13
637.05	380.92
637.39	379.82
637.73	378.71
638.08	377.70
638.42	376.71
638.77	375.56
639.11	374.38
639.45	373.26
639.80	372.09
640.14	371.00
640.49	369.91
640.83	368.78
641.17	367.69
641.52	366.64
641.86	365.64
642.20	364.78
642.55	363.76
642.89	362.77
643.23	361.82
643.58	360.96
643.92	359.93
644.26	358.99
644.61	358.12
644.95	357.21
645.29	356.20
645.64	355.19
645.98	354.28
646.32	353.50
646.66	352.65
647.01	351.81
647.35	351.04
647.69	350.27
648.04	349.58
648.38	348.80
648.72	348.07
649.06	347.31
649.41	346.51
649.75	345.77
650.09	345.05
650.43	344.31
650.78	343.52
651.12	342.79
651.46	342.09
651.80	341.36
652.14	340.69
652.49	340.08
652.83	339.42
653.17	338.73
653.51	338.05
653.85	337.46
654.20	336.82
654.54	336.11
654.88	335.41
655.22	334.74
655.56	334.07
655.90	333.43
656.25	332.77
656.59	332.15
656.93	331.55
657.27	331.00
657.61	330.40
657.95	329.85
658.29	329.28
658.64	328.73
658.98	328.12
659.32	327.53
659.66	326.97
660.00	326.43
660.34	325.92
660.68	325.34
661.02	324.70
661.36	324.12
661.70	323.59
662.05	323.04
662.39	322.53
662.73	322.08
663.07	321.67
663.41	321.22
663.75	320.70
664.09	320.20
664.43	319.58
664.77	319.03
665.11	318.49
665.45	317.96
665.79	317.47
666.13	316.96
666.47	316.40
666.81	315.85
667.15	315.24
667.49	314.75
667.83	314.32
668.17	313.89
668.51	313.44
668.85	313.03
669.19	312.67
669.53	312.13
669.87	311.58
670.21	311.03
670.55	310.51
670.89	310.11
671.23	309.65
671.57	309.26
671.91	308.90
672.25	308.51
672.58	308.17
672.92	307.70
673.26	307.32
673.60	306.96
673.94	306.57
674.28	306.23
674.62	305.86
674.96	305.41
675.30	305.00
675.64	304.55
675.97	304.08
676.31	303.59
676.65	303.15
676.99	302.81
677.33	302.37
677.67	301.97
678.01	301.47
678.34	301.05
678.68	300.64
679.02	300.19
679.36	299.75
679.70	299.27
680.04	298.88
680.37	298.46
680.71	298.04
681.05	297.69
681.39	297.25
681.73	296.77
682.06	296.33
682.40	295.93
682.74	295.57
683.08	295.26
683.42	294.86
683.75	294.50
684.09	294.03
684.43	293.62
684.77	293.20
685.10	292.81
685.44	292.42
685.78	292.00
686.12	291.62
686.45	291.18
686.79	290.75
687.13	290.33
687.46	289.89
687.80	289.50
688.14	289.00
688.48	288.60
688.81	288.18
689.15	287.82
689.49	287.39
689.82	286.94
690.16	286.40
690.50	285.95
690.83	285.52
691.17	285.08
691.51	284.65
691.84	284.27
692.18	283.85
692.52	283.41
692.85	282.96
693.19	282.58
693.52	282.16
693.86	281.73
694.20	281.32
694.53	280.92
694.87	280.45
695.21	280.01
695.54	279.59
695.88	279.15
696.21	278.68
696.55	278.24
696.88	277.82
697.22	277.41
697.56	277.02
697.89	276.55
698.23	276.16
698.56	275.73
698.90	275.32
699.23	274.88
699.57	274.50
699.90	274.10
700.24	273.65
700.58	273.28
700.91	272.94
701.25	272.70
701.58	272.42
701.92	272.11
702.25	271.76
702.59	271.36
702.92	271.01
703.26	270.62
703.59	270.25
703.93	270.03
704.26	269.67
704.60	269.28
704.93	268.92
705.26	268.53
705.60	268.22
705.93	267.80
706.27	267.50
706.60	267.16
706.94	266.88
707.27	266.49
707.61	266.14
707.94	265.76
708.27	265.22
708.61	264.77
708.94	264.37
709.28	264.01
709.61	263.65
709.94	263.32
710.28	262.99
710.61	262.69
710.95	262.20
711.28	262.00
711.61	261.68
711.95	261.40
712.28	261.07
712.61	260.72
712.95	260.52
713.28	260.26
713.61	259.91
713.95	259.54
714.28	259.24
714.61	258.89
714.95	258.58
715.28	258.29
715.61	258.00
715.95	257.74
716.28	257.44
716.61	257.20
716.95	256.87
717.28	256.59
717.61	256.29
717.94	256.02
718.28	255.61
718.61	255.31
718.94	255.01
719.27	254.75
719.61	254.50
719.94	254.19
720.27	253.84
720.60	253.59
720.94	253.34
721.27	253.10
721.60	252.90
721.93	252.64
722.27	252.45
722.60	252.22
722.93	251.94
723.26	251.71
723.59	251.43
723.93	251.24
724.26	251.03
724.59	250.79
724.92	250.57
725.25	250.42
725.59	250.21
725.92	250.02
726.25	249.81
726.58	249.62
726.91	249.38
727.24	249.18
727.57	248.96
727.91	248.72
728.24	248.54
728.57	248.31
728.90	248.12
729.23	247.85
729.56	247.72
729.89	247.53
730.22	247.33
730.55	247.14
730.89	246.93
731.22	246.73
731.55	246.54
731.88	246.37
732.21	246.15
732.54	245.94
732.87	245.76
733.20	245.58
733.53	245.40
733.86	245.25
734.19	245.07
734.52	244.96
734.85	244.92
735.18	244.74
735.51	244.63
735.84	244.48
736.17	244.39
736.50	244.13
736.83	244.19
737.16	244.03
737.49	243.90
737.82	243.72
738.15	243.59
738.48	243.43
738.81	243.26
739.14	243.08
739.47	242.92
739.80	242.75
740.13	242.63
740.46	242.43
740.79	242.25
741.12	242.08
741.45	241.89
741.78	241.64
742.11	241.52
742.44	241.33
742.77	241.19
743.10	241.02
743.43	240.88
743.75	240.54
744.08	240.66
744.41	240.51
744.74	240.38
745.07	240.20
745.40	240.11
745.73	240.05
746.06	239.94
746.39	239.85
746.71	239.72
747.04	239.56
747.37	239.44
747.70	239.34
748.03	239.23
748.36	239.13
748.68	239.00
749.01	238.85
749.34	238.74
749.67	238.63
750.00	238.54
750.33	238.55
750.65	238.46
750.98	238.10
751.31	237.99
751.64	237.89
751.97	237.88
752.29	237.75
752.62	237.57
752.95	237.46
753.28	237.34
753.60	237.23
753.93	237.15
754.26	237.06
754.59	236.90
754.91	236.78
755.24	236.65
755.57	236.57
755.90	236.46
756.22	236.36
756.55	236.22
756.88	236.07
757.20	235.85
757.53	235.69
757.86	235.59
758.19	235.51
758.51	235.42
758.84	235.23
759.17	235.12
759.49	235.04
759.82	235.02
760.15	234.92
760.47	234.83
760.80	234.69
761.13	234.64
761.45	234.58
761.78	234.49
762.11	234.43
762.43	234.34
762.76	234.26
763.08	234.20
763.41	234.15
763.74	234.08
764.06	234.02
764.39	233.97
764.71	233.88
765.04	233.78
765.37	233.70
765.69	233.64
766.02	233.57
766.34	233.48
766.67	233.34
767.00	233.32
767.32	233.36
767.65	233.43
767.97	233.33
768.30	233.27
768.62	233.22
768.95	233.14
769.27	233.06
769.60	233.03
769.92	232.93
770.25	232.84
770.57	232.75
770.90	232.68
771.22	232.61
771.55	232.55
771.87	232.50
772.20	232.42
772.52	232.52
772.85	232.70
773.17	232.66
773.50	232.60
773.82	232.52
774.15	232.38
774.47	232.20
774.80	232.14
775.12	232.10
775.45	232.04
775.77	232.00
776.09	231.96
776.42	231.90
776.74	231.91
777.07	231.86
777.39	231.82
777.72	231.77
778.04	231.75
778.36	231.69
778.69	231.68
779.01	231.66
779.33	231.46
779.66	231.20
779.98	231.14
780.31	231.12
780.63	231.15
780.95	231.15
781.28	231.11
781.60	231.06
781.92	231.03
782.25	230.99
782.57	230.96
782.89	230.93
783.22	230.89
783.54	230.82
783.86	230.80
784.19	230.77
784.51	230.80
784.83	230.75
785.16	230.72
785.48	230.68
785.80	230.67
786.12	230.66
786.45	230.64
786.77	230.63
787.09	230.57
787.42	230.48
787.74	230.46
788.06	230.45
788.38	230.43
788.71	230.38
789.03	230.37
789.35	230.36
789.67	230.29
789.99	230.27
790.32	230.21
790.64	230.21
790.96	230.35
791.28	230.26
791.61	230.23
791.93	230.23
792.25	230.20
792.57	230.28
792.89	230.23
793.21	230.22
793.54	230.18
793.86	230.15
794.18	230.13
794.50	230.07
794.82	230.05
795.14	230.05
795.47	230.07
795.79	230.06
796.11	230.01
796.43	230.01
796.75	229.97
797.07	229.99
797.39	229.96
797.71	229.78
798.04	229.78
798.36	229.77
798.68	229.76
799.00	229.76
799.32	229.65
799.64	229.67
799.96	229.63
800.28	229.65
800.60	229.64
800.92	229.64
801.24	229.61
801.56	229.60
801.89	229.56
802.21	229.54
802.53	229.50
802.85	229.52
803.17	229.57
803.49	229.54
803.81	229.50
804.13	229.46
804.45	229.44
804.77	229.43
805.09	229.40
805.41	229.36
805.73	229.31
806.05	229.26
806.37	229.22
806.69	229.21
807.01	229.17
807.33	229.15
807.65	229.08
807.97	229.15
808.28	229.10
808.60	229.08
808.92	229.03
809.24	229.13
809.56	229.07
809.88	229.00
810.20	228.99
810.52	229.00
810.84	228.96
811.16	228.93
811.48	228.89
811.80	228.94
812.12	228.92
812.43	228.93
812.75	228.92
813.07	228.88
813.39	228.86
813.71	228.81
814.03	228.79
814.35	228.80
814.67	228.70
814.98	228.70
815.30	228.67
815.62	228.64
815.94	228.50
816.26	228.51
816.58	228.47
816.89	228.49
817.21	228.44
817.53	228.44
817.85	228.41
818.17	228.39
818.48	228.30
818.80	228.32
