SpectraSuite Data File
++++++++++++++++++++++++++++++++++++
Date: Tue Oct 06 13:20:57 EDT 2015
User: lab3
Dark Spectrum Present: No
Reference Spectrum Present: No
Number of Sampled Component Spectra: 1
Spectrometers: USB2E7196
Integration Time (usec): 66000 (USB2E7196)
Spectra Averaged: 1000 (USB2E7196)
Boxcar Smoothing: 10 (USB2E7196)
Correct for Electrical Dark: No (USB2E7196)
Strobe/Lamp Enabled: No (USB2E7196)
Correct for Detector Non-linearity: No (USB2E7196)
Correct for Stray Light: No (USB2E7196)
Number of Pixels in Processed Spectrum: 2048
>>>>>Begin Processed Spectral Data<<<<<
339.09	0.00
339.48	216.45
339.86	217.71
340.24	219.14
340.63	220.50
341.01	224.61
341.39	223.46
341.78	224.90
342.16	226.07
342.54	226.43
342.93	214.81
343.31	225.66
343.69	226.19
344.07	226.66
344.46	227.11
344.84	227.53
345.22	227.73
345.60	228.01
345.99	228.21
346.37	228.34
346.75	228.46
347.13	228.55
347.52	228.63
347.90	228.76
348.28	228.81
348.66	228.88
349.05	228.88
349.43	228.95
349.81	229.00
350.19	229.07
350.57	229.15
350.96	229.24
351.34	229.34
351.72	229.45
352.10	229.56
352.48	229.63
352.87	229.66
353.25	229.74
353.63	229.79
354.01	229.85
354.39	229.93
354.77	230.01
355.15	230.13
355.54	230.17
355.92	230.17
356.30	230.25
356.68	230.43
357.06	230.50
357.44	230.54
357.82	230.60
358.20	230.80
358.58	230.86
358.97	230.92
359.35	231.02
359.73	231.11
360.11	231.16
360.49	231.22
360.87	231.26
361.25	231.33
361.63	231.43
362.01	231.49
362.39	231.52
362.77	231.56
363.15	231.57
363.53	231.60
363.91	231.64
364.29	231.67
364.67	231.53
365.05	231.56
365.43	231.60
365.81	231.64
366.19	231.60
366.57	231.67
366.95	231.67
367.33	231.64
367.71	231.62
368.09	231.66
368.47	231.66
368.85	231.65
369.23	231.66
369.61	231.58
369.99	231.62
370.37	231.61
370.75	231.73
371.13	231.69
371.51	231.64
371.89	231.64
372.27	231.61
372.65	231.59
373.03	231.55
373.41	231.51
373.78	231.46
374.16	231.32
374.54	231.23
374.92	231.17
375.30	231.14
375.68	231.06
376.06	231.01
376.44	230.95
376.82	230.92
377.19	230.87
377.57	230.83
377.95	230.72
378.33	230.66
378.71	230.46
379.09	230.43
379.47	230.41
379.84	230.34
380.22	230.27
380.60	230.19
380.98	230.14
381.36	230.07
381.73	230.00
382.11	230.00
382.49	229.96
382.87	229.90
383.25	229.85
383.62	230.02
384.00	229.94
384.38	229.92
384.76	229.91
385.13	229.93
385.51	229.89
385.89	229.84
386.27	229.82
386.64	229.81
387.02	229.76
387.40	229.71
387.78	229.69
388.15	229.67
388.53	229.64
388.91	229.62
389.29	229.59
389.66	229.61
390.04	229.57
390.42	229.58
390.79	229.58
391.17	229.57
391.55	229.35
391.92	229.35
392.30	229.36
392.68	229.32
393.05	229.29
393.43	229.30
393.81	229.32
394.18	229.29
394.56	229.32
394.94	229.38
395.31	229.38
395.69	229.46
396.06	229.50
396.44	229.54
396.82	229.56
397.19	229.69
397.57	229.70
397.95	229.77
398.32	229.77
398.70	229.84
399.07	229.94
399.45	230.01
399.82	230.08
400.20	230.14
400.58	230.23
400.95	230.25
401.33	230.38
401.70	230.60
402.08	230.75
402.45	230.87
402.83	231.03
403.20	231.21
403.58	231.34
403.95	231.54
404.33	231.76
404.71	231.97
405.08	232.27
405.46	232.52
405.83	232.78
406.21	233.07
406.58	233.38
406.96	233.70
407.33	234.07
407.70	234.47
408.08	235.04
408.45	235.53
408.83	236.06
409.20	236.55
409.58	236.99
409.95	237.59
410.33	238.24
410.70	238.86
411.08	239.58
411.45	240.36
411.82	241.15
412.20	242.05
412.57	243.12
412.95	243.97
413.32	245.08
413.69	246.22
414.07	247.44
414.44	248.77
414.82	250.12
415.19	251.72
415.56	253.33
415.94	254.99
416.31	256.87
416.68	258.76
417.06	260.95
417.43	263.01
417.81	265.36
418.18	267.76
418.55	270.38
418.93	273.12
419.30	275.97
419.67	278.98
420.04	282.09
420.42	285.35
420.79	289.10
421.16	292.89
421.54	296.74
421.91	300.75
422.28	304.93
422.66	309.41
423.03	313.67
423.40	318.16
423.77	322.95
424.15	327.85
424.52	332.92
424.89	338.40
425.26	343.82
425.64	348.88
426.01	354.56
426.38	360.37
426.75	366.34
427.13	372.43
427.50	378.82
427.87	385.42
428.24	392.07
428.61	398.45
428.99	405.32
429.36	412.89
429.73	420.12
430.10	427.32
430.47	434.68
430.85	442.31
431.22	450.43
431.59	458.76
431.96	466.86
432.33	475.90
432.70	484.53
433.08	494.77
433.45	504.38
433.82	513.83
434.19	524.40
434.56	534.79
434.93	544.86
435.30	554.84
435.68	566.21
436.05	577.29
436.42	588.39
436.79	598.50
437.16	609.44
437.53	621.21
437.90	633.05
438.27	644.57
438.64	656.92
439.01	668.22
439.38	678.63
439.75	688.69
440.13	700.13
440.50	711.01
440.87	719.64
441.24	729.17
441.61	739.61
441.98	747.31
442.35	756.41
442.72	765.77
443.09	774.78
443.46	780.67
443.83	785.12
444.20	788.76
444.57	794.17
444.94	797.51
445.31	800.83
445.68	803.62
446.05	805.80
446.42	805.66
446.79	805.27
447.16	804.95
447.53	804.81
447.90	801.60
448.27	798.44
448.64	793.46
449.01	790.16
449.37	783.11
449.74	776.76
450.11	768.50
450.48	759.35
450.85	750.08
451.22	742.03
451.59	734.22
451.96	727.28
452.33	717.02
452.70	707.79
453.07	696.64
453.43	685.53
453.80	674.68
454.17	664.35
454.54	654.71
454.91	643.81
455.28	633.44
455.65	623.64
456.02	613.37
456.38	605.09
456.75	594.37
457.12	585.73
457.49	577.00
457.86	568.77
458.23	561.55
458.59	553.56
458.96	545.41
459.33	538.21
459.70	530.87
460.07	525.20
460.43	518.54
460.80	512.32
461.17	506.88
461.54	501.09
461.91	495.63
462.27	490.09
462.64	485.55
463.01	480.37
463.38	475.22
463.74	470.52
464.11	466.39
464.48	462.67
464.85	458.61
465.21	455.48
465.58	452.03
465.95	448.08
466.32	444.90
466.68	441.81
467.05	438.70
467.42	435.65
467.78	432.41
468.15	429.45
468.52	427.28
468.88	424.41
469.25	421.78
469.62	419.71
469.98	417.41
470.35	415.36
470.72	413.52
471.08	411.60
471.45	410.02
471.82	408.23
472.18	406.36
472.55	405.16
472.92	403.69
473.28	402.50
473.65	401.24
474.02	400.08
474.38	399.10
474.75	398.50
475.11	397.64
475.48	397.25
475.85	396.84
476.21	396.60
476.58	396.45
476.94	396.63
477.31	396.68
477.67	396.82
478.04	397.14
478.41	397.53
478.77	398.14
479.14	398.48
479.50	399.23
479.87	400.18
480.23	401.14
480.60	402.05
480.96	403.00
481.33	404.40
481.69	405.78
482.06	407.15
482.42	408.42
482.79	409.98
483.15	411.80
483.52	413.89
483.88	415.86
484.25	418.00
484.61	420.21
484.98	422.54
485.34	425.20
485.71	427.96
486.07	430.93
486.44	433.84
486.80	437.15
487.17	440.50
487.53	444.18
487.90	448.01
488.26	452.20
488.62	456.60
488.99	461.00
489.35	465.67
489.72	470.68
490.08	475.94
490.44	481.30
490.81	486.83
491.17	492.47
491.54	498.52
491.90	504.69
492.26	511.30
492.63	518.21
492.99	525.38
493.36	532.80
493.72	540.64
494.08	548.61
494.45	556.96
494.81	565.71
495.17	574.67
495.54	584.13
495.90	593.97
496.26	604.07
496.63	614.40
496.99	625.05
497.35	636.19
497.72	647.68
498.08	659.62
498.44	671.81
498.80	684.77
499.17	698.05
499.53	711.80
499.89	725.84
500.26	740.05
500.62	754.52
500.98	769.69
501.34	785.01
501.71	801.07
502.07	817.39
502.43	834.17
502.79	851.06
503.16	868.40
503.52	886.01
503.88	904.10
504.24	922.64
504.60	941.41
504.97	960.62
505.33	980.27
505.69	1000.87
506.05	1021.55
506.41	1042.12
506.78	1062.99
507.14	1084.65
507.50	1106.79
507.86	1129.34
508.22	1151.99
508.59	1174.50
508.95	1197.83
509.31	1221.65
509.67	1246.09
510.03	1270.40
510.39	1295.08
510.75	1319.81
511.12	1344.61
511.48	1369.37
511.84	1394.26
512.20	1419.59
512.56	1445.33
512.92	1470.87
513.28	1496.11
513.64	1521.70
514.00	1547.41
514.37	1573.28
514.73	1598.82
515.09	1623.96
515.45	1649.31
515.81	1674.80
516.17	1700.34
516.53	1725.22
516.89	1749.98
517.25	1774.85
517.61	1799.59
517.97	1824.53
518.33	1849.03
518.69	1873.44
519.05	1898.05
519.41	1922.59
519.77	1947.09
520.13	1971.24
520.49	1995.27
520.85	2019.32
521.21	2043.16
521.57	2067.19
521.93	2090.23
522.29	2113.73
522.65	2136.74
523.01	2159.56
523.37	2181.50
523.73	2203.86
524.09	2226.36
524.45	2248.89
524.81	2270.53
525.17	2292.00
525.53	2312.79
525.89	2333.91
526.25	2354.58
526.61	2374.13
526.97	2393.83
527.33	2412.97
527.68	2431.34
528.04	2449.08
528.40	2465.78
528.76	2482.99
529.12	2499.06
529.48	2515.51
529.84	2530.72
530.20	2546.96
530.56	2562.13
530.91	2577.21
531.27	2591.34
531.63	2604.48
531.99	2617.32
532.35	2628.69
532.71	2640.06
533.07	2651.75
533.42	2661.89
533.78	2672.77
534.14	2683.88
534.50	2693.52
534.86	2703.39
535.21	2711.33
535.57	2719.40
535.93	2727.87
536.29	2735.22
536.65	2742.76
537.00	2748.16
537.36	2754.03
537.72	2758.14
538.08	2761.96
538.44	2764.98
538.79	2768.35
539.15	2771.10
539.51	2773.25
539.87	2776.02
540.22	2776.68
540.58	2777.88
540.94	2778.58
541.29	2777.94
541.65	2775.77
542.01	2773.70
542.37	2770.61
542.72	2769.19
543.08	2766.44
543.44	2763.48
543.79	2758.76
544.15	2753.92
544.51	2749.88
544.87	2743.83
545.22	2737.32
545.58	2731.06
545.94	2725.57
546.29	2718.23
546.65	2710.22
547.01	2702.35
547.36	2694.10
547.72	2685.77
548.07	2676.17
548.43	2666.47
548.79	2655.67
549.14	2645.93
549.50	2635.99
549.86	2625.46
550.21	2613.10
550.57	2602.07
550.92	2589.26
551.28	2577.14
551.64	2565.24
551.99	2553.37
552.35	2541.65
552.70	2529.70
553.06	2517.98
553.41	2505.09
553.77	2491.91
554.13	2479.03
554.48	2465.25
554.84	2451.00
555.19	2437.78
555.55	2423.70
555.90	2409.76
556.26	2396.80
556.61	2383.06
556.97	2368.36
557.32	2353.99
557.68	2339.83
558.03	2325.13
558.39	2311.22
558.74	2297.58
559.10	2281.90
559.45	2266.82
559.81	2252.34
560.16	2237.54
560.52	2222.47
560.87	2208.17
561.23	2193.41
561.58	2178.95
561.94	2163.81
562.29	2148.81
562.64	2133.70
563.00	2118.77
563.35	2104.47
563.71	2089.89
564.06	2074.87
564.42	2060.39
564.77	2046.01
565.12	2032.06
565.48	2017.89
565.83	2003.45
566.19	1989.08
566.54	1975.20
566.89	1960.09
567.25	1944.55
567.60	1930.19
567.96	1915.26
568.31	1899.81
568.66	1885.22
569.02	1870.62
569.37	1856.21
569.72	1842.07
570.08	1827.79
570.43	1813.47
570.78	1798.32
571.14	1783.17
571.49	1768.47
571.84	1754.55
572.20	1739.34
572.55	1724.31
572.90	1708.77
573.26	1693.33
573.61	1677.58
573.96	1662.52
574.31	1648.07
574.67	1634.10
575.02	1619.22
575.37	1604.06
575.72	1588.83
576.08	1573.94
576.43	1559.12
576.78	1544.37
577.13	1529.70
577.49	1515.04
577.84	1500.30
578.19	1485.83
578.54	1471.34
578.90	1456.74
579.25	1441.66
579.60	1427.72
579.95	1413.73
580.30	1399.93
580.66	1386.17
581.01	1372.62
581.36	1358.87
581.71	1345.06
582.06	1331.28
582.42	1317.78
582.77	1304.62
583.12	1291.73
583.47	1278.70
583.82	1265.81
584.17	1252.87
584.53	1239.99
584.88	1227.50
585.23	1214.80
585.58	1202.34
585.93	1189.98
586.28	1178.19
586.63	1166.27
586.98	1154.27
587.34	1142.58
587.69	1130.72
588.04	1119.20
588.39	1107.82
588.74	1096.36
589.09	1085.32
589.44	1073.76
589.79	1062.73
590.14	1051.88
590.49	1041.09
590.84	1030.58
591.19	1020.11
591.54	1009.69
591.89	999.05
592.25	988.46
592.60	977.86
592.95	967.52
593.30	957.22
593.65	946.85
594.00	936.80
594.35	927.33
594.70	917.44
595.05	908.23
595.40	898.83
595.75	889.28
596.10	880.20
596.45	870.98
596.80	862.17
597.15	853.28
597.50	844.45
597.85	835.97
598.19	827.44
598.54	818.92
598.89	810.56
599.24	802.63
599.59	794.79
599.94	787.40
600.29	779.79
600.64	772.27
600.99	764.75
601.34	757.44
601.69	749.55
602.04	742.27
602.39	735.10
602.74	728.11
603.08	721.24
603.43	714.40
603.78	707.64
604.13	701.02
604.48	694.43
604.83	688.05
605.18	681.65
605.53	675.37
605.87	668.97
606.22	662.86
606.57	656.71
606.92	650.40
607.27	644.30
607.62	638.54
607.96	632.87
608.31	627.47
608.66	621.90
609.01	616.63
609.36	611.54
609.70	606.34
610.05	601.13
610.40	596.04
610.75	590.88
611.10	586.04
611.44	581.16
611.79	576.37
612.14	571.55
612.49	566.73
612.83	562.17
613.18	557.83
613.53	553.48
613.88	549.15
614.22	545.06
614.57	540.85
614.92	536.68
615.27	532.64
615.61	528.61
615.96	524.72
616.31	520.82
616.65	516.94
617.00	513.12
617.35	509.41
617.70	505.80
618.04	502.33
618.39	498.81
618.74	495.42
619.08	491.98
619.43	488.62
619.78	485.40
620.12	482.16
620.47	479.07
620.82	476.00
621.16	473.01
621.51	470.13
621.85	467.29
622.20	464.50
622.55	461.69
622.89	458.95
623.24	456.36
623.59	453.79
623.93	451.26
624.28	448.85
624.62	446.64
624.97	444.38
625.32	442.01
625.66	439.63
626.01	437.29
626.35	435.15
626.70	432.95
627.04	430.88
627.39	428.77
627.73	426.69
628.08	424.69
628.43	422.75
628.77	420.78
629.12	418.94
629.46	417.06
629.81	415.32
630.15	413.48
630.50	411.66
630.84	409.92
631.19	408.24
631.53	406.61
631.88	404.79
632.22	403.06
632.57	401.67
632.91	400.25
633.26	398.89
633.60	397.46
633.95	396.12
634.29	394.67
634.64	393.28
634.98	391.78
635.32	390.43
635.67	389.15
636.01	387.88
636.36	386.63
636.70	385.54
637.05	384.30
637.39	383.18
637.73	382.07
638.08	380.99
638.42	379.91
638.77	378.72
639.11	377.53
639.45	376.42
639.80	375.22
640.14	374.10
640.49	372.95
640.83	371.85
641.17	370.75
641.52	369.68
641.86	368.67
642.20	367.83
642.55	366.78
642.89	365.76
643.23	364.76
643.58	363.87
643.92	362.81
644.26	361.85
644.61	360.95
644.95	360.03
645.29	359.09
645.64	358.13
645.98	357.22
646.32	356.42
646.66	355.55
647.01	354.66
647.35	353.86
647.69	353.03
648.04	352.25
648.38	351.41
648.72	350.65
649.06	349.90
649.41	349.09
649.75	348.33
650.09	347.62
650.43	346.88
650.78	346.12
651.12	345.38
651.46	344.67
651.80	343.95
652.14	343.22
652.49	342.55
652.83	341.83
653.17	341.15
653.51	340.49
653.85	339.89
654.20	339.27
654.54	338.55
654.88	337.91
655.22	337.26
655.56	336.58
655.90	335.89
656.25	335.23
656.59	334.57
656.93	333.99
657.27	333.44
657.61	332.82
657.95	332.23
658.29	331.65
658.64	331.14
658.98	330.54
659.32	329.97
659.66	329.40
660.00	328.85
660.34	328.31
660.68	327.73
661.02	327.10
661.36	326.50
661.70	325.94
662.05	325.40
662.39	324.91
662.73	324.49
663.07	324.08
663.41	323.61
663.75	323.08
664.09	322.55
664.43	321.94
664.77	321.45
665.11	320.88
665.45	320.35
665.79	319.79
666.13	319.26
666.47	318.72
666.81	318.15
667.15	317.57
667.49	317.08
667.83	316.67
668.17	316.21
668.51	315.78
668.85	315.37
669.19	314.99
669.53	314.47
669.87	313.97
670.21	313.49
670.55	313.02
670.89	312.69
671.23	312.26
671.57	311.84
671.91	311.45
672.25	311.09
672.58	310.74
672.92	310.29
673.26	309.90
673.60	309.53
673.94	309.15
674.28	308.83
674.62	308.45
674.96	307.99
675.30	307.59
675.64	307.16
675.97	306.72
676.31	306.23
676.65	305.81
676.99	305.46
677.33	304.99
677.67	304.57
678.01	304.02
678.34	303.58
678.68	303.18
679.02	302.72
679.36	302.29
679.70	301.81
680.04	301.39
680.37	300.98
680.71	300.57
681.05	300.17
681.39	299.72
681.73	299.26
682.06	298.81
682.40	298.41
682.74	298.03
683.08	297.69
683.42	297.25
683.75	296.84
684.09	296.32
684.43	295.90
684.77	295.44
685.10	295.07
685.44	294.69
685.78	294.28
686.12	293.88
686.45	293.44
686.79	293.00
687.13	292.60
687.46	292.15
687.80	291.72
688.14	291.23
688.48	290.82
688.81	290.40
689.15	290.05
689.49	289.59
689.82	289.14
690.16	288.62
690.50	288.20
690.83	287.78
691.17	287.33
691.51	286.90
691.84	286.55
692.18	286.12
692.52	285.64
692.85	285.21
693.19	284.86
693.52	284.46
693.86	284.06
694.20	283.64
694.53	283.23
694.87	282.78
695.21	282.37
695.54	281.96
695.88	281.51
696.21	281.01
696.55	280.59
696.88	280.17
697.22	279.77
697.56	279.37
697.89	278.92
698.23	278.52
698.56	278.08
698.90	277.67
699.23	277.23
699.57	276.84
699.90	276.40
700.24	275.92
700.58	275.52
700.91	275.17
701.25	274.93
701.58	274.61
701.92	274.29
702.25	273.94
702.59	273.55
702.92	273.18
703.26	272.81
703.59	272.43
703.93	272.20
704.26	271.84
704.60	271.45
704.93	271.05
705.26	270.65
705.60	270.31
705.93	269.89
706.27	269.56
706.60	269.23
706.94	268.93
707.27	268.53
707.61	268.16
707.94	267.76
708.27	267.24
708.61	266.80
708.94	266.40
709.28	266.02
709.61	265.64
709.94	265.31
710.28	265.01
710.61	264.71
710.95	264.23
711.28	264.02
711.61	263.70
711.95	263.42
712.28	263.10
712.61	262.76
712.95	262.52
713.28	262.29
713.61	261.94
713.95	261.57
714.28	261.27
714.61	260.95
714.95	260.65
715.28	260.33
715.61	260.02
715.95	259.77
716.28	259.46
716.61	259.19
716.95	258.85
717.28	258.54
717.61	258.21
717.94	257.92
718.28	257.50
718.61	257.19
718.94	256.88
719.27	256.62
719.61	256.38
719.94	256.09
720.27	255.72
720.60	255.47
720.94	255.22
721.27	254.98
721.60	254.75
721.93	254.47
722.27	254.28
722.60	254.05
722.93	253.77
723.26	253.55
723.59	253.29
723.93	253.10
724.26	252.87
724.59	252.65
724.92	252.44
725.25	252.27
725.59	252.07
725.92	251.87
726.25	251.64
726.58	251.43
726.91	251.18
727.24	250.98
727.57	250.75
727.91	250.51
728.24	250.32
728.57	250.09
728.90	249.91
729.23	249.66
729.56	249.53
729.89	249.34
730.22	249.12
730.55	248.93
730.89	248.72
731.22	248.51
731.55	248.30
731.88	248.11
732.21	247.89
732.54	247.68
732.87	247.49
733.20	247.32
733.53	247.14
733.86	246.97
734.19	246.78
734.52	246.65
734.85	246.60
735.18	246.41
735.51	246.30
735.84	246.13
736.17	246.01
736.50	245.76
736.83	245.80
737.16	245.63
737.49	245.49
737.82	245.32
738.15	245.19
738.48	245.04
738.81	244.86
739.14	244.70
739.47	244.54
739.80	244.38
740.13	244.25
740.46	244.08
740.79	243.91
741.12	243.75
741.45	243.56
741.78	243.32
742.11	243.23
742.44	243.05
742.77	242.93
743.10	242.76
743.43	242.62
743.75	242.29
744.08	242.41
744.41	242.25
744.74	242.11
745.07	241.93
745.40	241.84
745.73	241.79
746.06	241.66
746.39	241.55
746.71	241.41
747.04	241.26
747.37	241.14
747.70	241.04
748.03	240.93
748.36	240.84
748.68	240.71
749.01	240.54
749.34	240.42
749.67	240.30
750.00	240.23
750.33	240.24
750.65	240.14
750.98	239.79
751.31	239.68
751.64	239.58
751.97	239.57
752.29	239.44
752.62	239.24
752.95	239.13
753.28	238.99
753.60	238.87
753.93	238.81
754.26	238.71
754.59	238.55
754.91	238.41
755.24	238.28
755.57	238.18
755.90	238.07
756.22	237.94
756.55	237.79
756.88	237.65
757.20	237.43
757.53	237.27
757.86	237.16
758.19	237.08
758.51	236.98
758.84	236.79
759.17	236.69
759.49	236.60
759.82	236.59
760.15	236.52
760.47	236.43
760.80	236.29
761.13	236.22
761.45	236.13
761.78	236.06
762.11	235.99
762.43	235.89
762.76	235.81
763.08	235.76
763.41	235.69
763.74	235.62
764.06	235.54
764.39	235.47
764.71	235.38
765.04	235.29
765.37	235.19
765.69	235.12
766.02	235.05
766.34	234.96
766.67	234.82
767.00	234.78
767.32	234.81
767.65	234.84
767.97	234.76
768.30	234.72
768.62	234.65
768.95	234.55
769.27	234.48
769.60	234.43
769.92	234.34
770.25	234.25
770.57	234.16
770.90	234.11
771.22	234.04
771.55	233.98
771.87	233.95
772.20	233.89
772.52	233.99
772.85	234.14
773.17	234.10
773.50	234.05
773.82	233.97
774.15	233.83
774.47	233.68
774.80	233.62
775.12	233.55
775.45	233.52
775.77	233.49
776.09	233.47
776.42	233.43
776.74	233.44
777.07	233.40
777.39	233.38
777.72	233.33
778.04	233.31
778.36	233.26
778.69	233.21
779.01	233.19
779.33	232.98
779.66	232.74
779.98	232.68
780.31	232.64
780.63	232.68
780.95	232.67
781.28	232.62
781.60	232.58
781.92	232.54
782.25	232.49
782.57	232.46
782.89	232.40
783.22	232.34
783.54	232.27
783.86	232.26
784.19	232.20
784.51	232.21
784.83	232.15
785.16	232.11
785.48	232.09
785.80	232.05
786.12	232.04
786.45	232.02
786.77	232.01
787.09	231.98
787.42	231.88
787.74	231.85
788.06	231.84
788.38	231.81
788.71	231.77
789.03	231.75
789.35	231.74
789.67	231.69
789.99	231.69
790.32	231.63
790.64	231.62
790.96	231.76
791.28	231.68
791.61	231.65
791.93	231.64
792.25	231.58
792.57	231.68
792.89	231.63
793.21	231.60
793.54	231.55
793.86	231.52
794.18	231.51
794.50	231.46
794.82	231.43
795.14	231.43
795.47	231.45
795.79	231.42
796.11	231.36
796.43	231.33
796.75	231.30
797.07	231.29
797.39	231.26
797.71	231.09
798.04	231.08
798.36	231.08
798.68	231.06
799.00	231.07
799.32	230.96
799.64	230.97
799.96	230.95
800.28	230.97
800.60	230.93
800.92	230.91
801.24	230.88
801.56	230.88
801.89	230.84
802.21	230.83
802.53	230.79
802.85	230.80
803.17	230.88
803.49	230.84
803.81	230.80
804.13	230.76
804.45	230.73
804.77	230.72
805.09	230.69
805.41	230.65
805.73	230.60
806.05	230.54
806.37	230.51
806.69	230.47
807.01	230.43
807.33	230.44
807.65	230.37
807.97	230.44
808.28	230.41
808.60	230.40
808.92	230.35
809.24	230.44
809.56	230.41
809.88	230.32
810.20	230.32
810.52	230.35
810.84	230.32
811.16	230.29
811.48	230.27
811.80	230.32
812.12	230.31
812.43	230.33
812.75	230.34
813.07	230.32
813.39	230.32
813.71	230.29
814.03	230.26
814.35	230.25
814.67	230.16
814.98	230.13
815.30	230.12
815.62	230.09
815.94	229.96
816.26	229.96
816.58	229.92
816.89	229.93
817.21	229.87
817.53	229.87
817.85	229.87
818.17	229.86
818.48	229.78
818.80	229.80
