SpectraSuite Data File
++++++++++++++++++++++++++++++++++++
Date: Tue Oct 06 16:30:52 EDT 2015
User: lab3
Dark Spectrum Present: No
Reference Spectrum Present: No
Number of Sampled Component Spectra: 1
Spectrometers: USB2E7196
Integration Time (usec): 66000 (USB2E7196)
Spectra Averaged: 1000 (USB2E7196)
Boxcar Smoothing: 10 (USB2E7196)
Correct for Electrical Dark: No (USB2E7196)
Strobe/Lamp Enabled: No (USB2E7196)
Correct for Detector Non-linearity: No (USB2E7196)
Correct for Stray Light: No (USB2E7196)
Number of Pixels in Processed Spectrum: 2048
>>>>>Begin Processed Spectral Data<<<<<
339.09	0.00
339.48	215.47
339.86	216.84
340.24	218.06
340.63	219.68
341.01	223.56
341.39	222.18
341.78	223.73
342.16	225.19
342.54	225.34
342.93	213.78
343.31	224.58
343.69	225.11
344.07	225.56
344.46	226.01
344.84	226.41
345.22	226.61
345.60	226.89
345.99	227.09
346.37	227.23
346.75	227.35
347.13	227.44
347.52	227.53
347.90	227.64
348.28	227.68
348.66	227.76
349.05	227.75
349.43	227.81
349.81	227.88
350.19	227.95
350.57	228.03
350.96	228.13
351.34	228.22
351.72	228.30
352.10	228.43
352.48	228.49
352.87	228.52
353.25	228.59
353.63	228.64
354.01	228.70
354.39	228.77
354.77	228.85
355.15	228.96
355.54	229.00
355.92	229.01
356.30	229.09
356.68	229.28
357.06	229.37
357.44	229.41
357.82	229.47
358.20	229.69
358.58	229.74
358.97	229.81
359.35	229.91
359.73	230.02
360.11	230.08
360.49	230.14
360.87	230.20
361.25	230.27
361.63	230.37
362.01	230.43
362.39	230.47
362.77	230.52
363.15	230.54
363.53	230.58
363.91	230.62
364.29	230.63
364.67	230.49
365.05	230.52
365.43	230.57
365.81	230.61
366.19	230.54
366.57	230.64
366.95	230.63
367.33	230.61
367.71	230.60
368.09	230.64
368.47	230.64
368.85	230.63
369.23	230.65
369.61	230.58
369.99	230.62
370.37	230.63
370.75	230.75
371.13	230.73
371.51	230.68
371.89	230.67
372.27	230.66
372.65	230.64
373.03	230.60
373.41	230.54
373.78	230.48
374.16	230.36
374.54	230.25
374.92	230.21
375.30	230.15
375.68	230.08
376.06	230.04
376.44	229.98
376.82	229.95
377.19	229.90
377.57	229.86
377.95	229.74
378.33	229.66
378.71	229.45
379.09	229.40
379.47	229.38
379.84	229.32
380.22	229.25
380.60	229.16
380.98	229.12
381.36	229.08
381.73	229.01
382.11	229.01
382.49	228.97
382.87	228.90
383.25	228.86
383.62	229.03
384.00	228.96
384.38	228.93
384.76	228.94
385.13	228.95
385.51	228.91
385.89	228.87
386.27	228.85
386.64	228.85
387.02	228.79
387.40	228.73
387.78	228.73
388.15	228.71
388.53	228.69
388.91	228.67
389.29	228.63
389.66	228.64
390.04	228.59
390.42	228.60
390.79	228.62
391.17	228.60
391.55	228.39
391.92	228.39
392.30	228.40
392.68	228.35
393.05	228.32
393.43	228.33
393.81	228.35
394.18	228.33
394.56	228.34
394.94	228.40
395.31	228.41
395.69	228.48
396.06	228.53
396.44	228.58
396.82	228.60
397.19	228.73
397.57	228.76
397.95	228.83
398.32	228.83
398.70	228.90
399.07	229.01
399.45	229.08
399.82	229.15
400.20	229.20
400.58	229.29
400.95	229.32
401.33	229.46
401.70	229.68
402.08	229.83
402.45	229.95
402.83	230.12
403.20	230.29
403.58	230.42
403.95	230.62
404.33	230.84
404.71	231.06
405.08	231.36
405.46	231.61
405.83	231.89
406.21	232.19
406.58	232.51
406.96	232.83
407.33	233.21
407.70	233.63
408.08	234.20
408.45	234.70
408.83	235.26
409.20	235.76
409.58	236.22
409.95	236.85
410.33	237.54
410.70	238.19
411.08	238.94
411.45	239.75
411.82	240.58
412.20	241.52
412.57	242.63
412.95	243.52
413.32	244.68
413.69	245.86
414.07	247.11
414.44	248.49
414.82	249.89
415.19	251.52
415.56	253.21
415.94	254.96
416.31	256.92
416.68	258.87
417.06	261.11
417.43	263.23
417.81	265.67
418.18	268.16
418.55	270.88
418.93	273.71
419.30	276.68
419.67	279.82
420.04	283.06
420.42	286.42
420.79	290.31
421.16	294.23
421.54	298.19
421.91	302.35
422.28	306.67
422.66	311.33
423.03	315.75
423.40	320.40
423.77	325.35
424.15	330.44
424.52	335.71
424.89	341.42
425.26	347.09
425.64	352.34
426.01	358.24
426.38	364.27
426.75	370.48
427.13	376.82
427.50	383.44
427.87	390.33
428.24	397.27
428.61	403.92
428.99	411.09
429.36	418.96
429.73	426.46
430.10	433.94
430.47	441.59
430.85	449.51
431.22	457.92
431.59	466.57
431.96	474.98
432.33	484.35
432.70	493.23
433.08	503.77
433.45	513.73
433.82	523.54
434.19	534.53
434.56	545.34
434.93	555.84
435.30	566.25
435.68	578.07
436.05	589.62
436.42	601.15
436.79	611.70
437.16	623.19
437.53	635.47
437.90	647.74
438.27	659.79
438.64	672.82
439.01	684.65
439.38	695.50
439.75	706.02
440.13	718.01
440.50	729.46
440.87	738.58
441.24	748.62
441.61	759.60
441.98	767.75
442.35	777.45
442.72	787.29
443.09	796.66
443.46	802.81
443.83	807.51
444.20	811.50
444.57	817.17
444.94	820.59
445.31	824.12
445.68	827.16
446.05	829.53
446.42	829.37
446.79	828.99
447.16	828.75
447.53	828.55
447.90	825.21
448.27	822.00
448.64	816.82
449.01	813.33
449.37	805.93
449.74	799.19
450.11	790.41
450.48	780.78
450.85	771.12
451.22	762.81
451.59	754.63
451.96	747.18
452.33	736.35
452.70	726.75
453.07	715.07
453.43	703.44
453.80	692.02
454.17	681.12
454.54	671.03
454.91	659.60
455.28	648.83
455.65	638.67
456.02	627.88
456.38	619.24
456.75	608.12
457.12	599.13
457.49	590.06
457.86	581.49
458.23	573.92
458.59	565.60
458.96	557.02
459.33	549.52
459.70	541.85
460.07	536.01
460.43	529.10
460.80	522.63
461.17	517.03
461.54	510.99
461.91	505.30
462.27	499.53
462.64	494.79
463.01	489.40
463.38	483.92
463.74	479.04
464.11	474.69
464.48	470.75
464.85	466.51
465.21	463.27
465.58	459.63
465.95	455.54
466.32	452.26
466.68	449.08
467.05	445.83
467.42	442.69
467.78	439.33
468.15	436.25
468.52	434.00
468.88	431.00
469.25	428.25
469.62	426.07
469.98	423.69
470.35	421.58
470.72	419.66
471.08	417.73
471.45	416.09
471.82	414.28
472.18	412.36
472.55	411.12
472.92	409.58
473.28	408.40
473.65	407.10
474.02	405.86
474.38	404.81
474.75	404.21
475.11	403.37
475.48	402.99
475.85	402.54
476.21	402.27
476.58	402.07
476.94	402.23
477.31	402.27
477.67	402.36
478.04	402.67
478.41	403.10
478.77	403.73
479.14	404.10
479.50	404.89
479.87	405.90
480.23	406.89
480.60	407.84
480.96	408.77
481.33	410.23
481.69	411.66
482.06	413.06
482.42	414.33
482.79	415.95
483.15	417.81
483.52	419.92
483.88	421.93
484.25	424.07
484.61	426.34
484.98	428.78
485.34	431.50
485.71	434.36
486.07	437.41
486.44	440.38
486.80	443.76
487.17	447.22
487.53	450.95
487.90	454.87
488.26	459.17
488.62	463.68
488.99	468.17
489.35	472.90
489.72	477.97
490.08	483.34
490.44	488.79
490.81	494.49
491.17	500.33
491.54	506.63
491.90	513.04
492.26	519.89
492.63	527.04
492.99	534.52
493.36	542.15
493.72	550.18
494.08	558.39
494.45	567.00
494.81	575.99
495.17	585.27
495.54	595.01
495.90	605.17
496.26	615.52
496.63	626.16
496.99	637.17
497.35	648.70
497.72	660.48
498.08	672.63
498.44	685.08
498.80	698.23
499.17	711.63
499.53	725.46
499.89	739.73
500.26	754.19
500.62	769.02
500.98	784.66
501.34	800.33
501.71	816.80
502.07	833.54
502.43	850.72
502.79	868.07
503.16	885.98
503.52	904.04
503.88	922.49
504.24	941.36
504.60	960.47
504.97	980.21
505.33	1000.36
505.69	1021.55
506.05	1042.92
506.41	1064.12
506.78	1085.51
507.14	1107.49
507.50	1129.89
507.86	1152.64
508.22	1175.54
508.59	1198.30
508.95	1222.07
509.31	1246.30
509.67	1271.12
510.03	1295.85
510.39	1320.55
510.75	1345.19
511.12	1370.24
511.48	1395.41
511.84	1420.56
512.20	1446.03
512.56	1472.43
512.92	1498.63
513.28	1524.25
513.64	1550.25
514.00	1576.57
514.37	1603.08
514.73	1629.56
515.09	1655.35
515.45	1681.41
515.81	1707.63
516.17	1733.55
516.53	1758.85
516.89	1783.95
517.25	1809.27
517.61	1834.39
517.97	1860.05
518.33	1885.13
518.69	1910.01
519.05	1935.31
519.41	1960.73
519.77	1986.07
520.13	2009.96
520.49	2033.95
520.85	2058.18
521.21	2081.76
521.57	2105.63
521.93	2128.55
522.29	2152.06
522.65	2175.34
523.01	2198.35
523.37	2220.66
523.73	2243.58
524.09	2266.20
524.45	2288.38
524.81	2309.96
525.17	2331.28
525.53	2351.91
525.89	2372.89
526.25	2393.50
526.61	2412.52
526.97	2431.49
527.33	2450.37
527.68	2468.79
528.04	2486.88
528.40	2503.62
528.76	2520.68
529.12	2537.27
529.48	2554.34
529.84	2568.73
530.20	2583.58
530.56	2597.52
530.91	2611.65
531.27	2625.27
531.63	2637.87
531.99	2650.27
532.35	2662.31
532.71	2673.86
533.07	2685.74
533.42	2695.79
533.78	2706.00
534.14	2717.07
534.50	2727.06
534.86	2737.44
535.21	2745.99
535.57	2754.27
535.93	2762.52
536.29	2768.96
536.65	2775.23
537.00	2780.03
537.36	2786.13
537.72	2791.23
538.08	2795.87
538.44	2799.42
538.79	2802.66
539.15	2804.62
539.51	2805.94
539.87	2806.12
540.22	2804.84
540.58	2803.72
540.94	2803.43
541.29	2801.97
541.65	2799.33
542.01	2796.31
542.37	2791.76
542.72	2788.66
543.08	2783.98
543.44	2779.49
543.79	2774.52
544.15	2768.84
544.51	2763.53
544.87	2757.09
545.22	2749.81
545.58	2742.42
545.94	2735.23
546.29	2726.57
546.65	2718.25
547.01	2709.97
547.36	2702.08
547.72	2694.37
548.07	2685.04
548.43	2674.68
548.79	2664.20
549.14	2653.93
549.50	2643.83
549.86	2632.83
550.21	2620.31
550.57	2608.85
550.92	2595.71
551.28	2583.15
551.64	2570.83
551.99	2558.17
552.35	2545.18
552.70	2532.09
553.06	2519.39
553.41	2506.31
553.77	2493.03
554.13	2479.82
554.48	2465.57
554.84	2450.65
555.19	2436.30
555.55	2421.80
555.90	2407.71
556.26	2393.92
556.61	2379.08
556.97	2363.30
557.32	2348.03
557.68	2333.05
558.03	2317.87
558.39	2303.63
558.74	2289.93
559.10	2274.49
559.45	2259.26
559.81	2244.75
560.16	2229.97
560.52	2215.05
560.87	2200.18
561.23	2185.02
561.58	2170.36
561.94	2155.33
562.29	2139.86
562.64	2124.53
563.00	2109.36
563.35	2094.32
563.71	2078.97
564.06	2063.80
564.42	2049.12
564.77	2034.45
565.12	2019.66
565.48	2004.63
565.83	1989.81
566.19	1974.98
566.54	1960.40
566.89	1945.34
567.25	1930.12
567.60	1915.67
567.96	1900.53
568.31	1884.35
568.66	1869.18
569.02	1854.47
569.37	1840.28
569.72	1826.69
570.08	1812.61
570.43	1798.08
570.78	1783.44
571.14	1768.53
571.49	1753.76
571.84	1739.30
572.20	1723.80
572.55	1709.06
572.90	1694.34
573.26	1679.59
573.61	1664.25
573.96	1649.48
574.31	1634.59
574.67	1619.64
575.02	1604.40
575.37	1589.18
575.72	1574.67
576.08	1559.92
576.43	1544.60
576.78	1529.46
577.13	1514.51
577.49	1499.85
577.84	1485.55
578.19	1470.79
578.54	1456.19
578.90	1441.51
579.25	1426.74
579.60	1413.05
579.95	1399.11
580.30	1385.17
580.66	1370.99
581.01	1356.89
581.36	1342.96
581.71	1329.75
582.06	1316.48
582.42	1303.04
582.77	1290.11
583.12	1277.38
583.47	1264.60
583.82	1252.06
584.17	1239.09
584.53	1226.17
584.88	1213.53
585.23	1200.80
585.58	1188.47
585.93	1176.05
586.28	1164.56
586.63	1152.90
586.98	1140.90
587.34	1129.24
587.69	1117.43
588.04	1105.97
588.39	1094.79
588.74	1083.20
589.09	1071.79
589.44	1060.14
589.79	1049.07
590.14	1037.98
590.49	1027.00
590.84	1016.22
591.19	1005.67
591.54	995.28
591.89	984.52
592.25	974.12
592.60	963.61
592.95	953.26
593.30	943.20
593.65	932.86
594.00	922.82
594.35	913.63
594.70	903.78
595.05	894.53
595.40	885.10
595.75	875.53
596.10	866.52
596.45	857.50
596.80	848.80
597.15	840.14
597.50	831.52
597.85	823.08
598.19	814.65
598.54	806.22
598.89	798.27
599.24	790.67
599.59	782.89
599.94	775.65
600.29	768.45
600.64	761.10
600.99	753.68
601.34	746.48
601.69	738.80
602.04	731.94
602.39	725.00
602.74	718.19
603.08	711.58
603.43	704.93
603.78	698.27
604.13	691.71
604.48	685.19
604.83	678.89
605.18	672.64
605.53	666.54
605.87	660.39
606.22	654.33
606.57	648.24
606.92	642.06
607.27	635.92
607.62	629.98
607.96	624.29
608.31	618.97
608.66	613.62
609.01	608.47
609.36	603.29
609.70	598.07
610.05	592.91
610.40	587.87
610.75	582.84
611.10	577.99
611.44	573.16
611.79	568.43
612.14	563.61
612.49	558.90
612.83	554.41
613.18	549.97
613.53	545.54
613.88	541.28
614.22	537.31
614.57	533.25
614.92	529.26
615.27	525.42
615.61	521.48
615.96	517.57
616.31	513.69
616.65	509.96
617.00	506.30
617.35	502.68
617.70	499.08
618.04	495.59
618.39	492.20
618.74	489.01
619.08	485.80
619.43	482.68
619.78	479.50
620.12	476.33
620.47	473.37
620.82	470.44
621.16	467.52
621.51	464.69
621.85	461.87
622.20	459.09
622.55	456.29
622.89	453.55
623.24	450.97
623.59	448.40
623.93	445.92
624.28	443.58
624.62	441.45
624.97	439.30
625.32	437.06
625.66	434.77
626.01	432.48
626.35	430.32
626.70	428.10
627.04	426.09
627.39	424.03
627.73	422.03
628.08	420.11
628.43	418.17
628.77	416.13
629.12	414.25
629.46	412.44
629.81	410.75
630.15	408.98
630.50	407.22
630.84	405.53
631.19	403.86
631.53	402.26
631.88	400.48
632.22	398.81
632.57	397.40
632.91	395.96
633.26	394.58
633.60	393.19
633.95	391.89
634.29	390.45
634.64	389.10
634.98	387.61
635.32	386.29
635.67	385.09
636.01	383.90
636.36	382.73
636.70	381.66
637.05	380.43
637.39	379.33
637.73	378.23
638.08	377.22
638.42	376.23
638.77	375.12
639.11	373.96
639.45	372.84
639.80	371.66
640.14	370.57
640.49	369.47
640.83	368.36
641.17	367.27
641.52	366.25
641.86	365.23
642.20	364.39
642.55	363.35
642.89	362.33
643.23	361.38
643.58	360.53
643.92	359.52
644.26	358.61
644.61	357.73
644.95	356.82
645.29	355.81
645.64	354.77
645.98	353.84
646.32	353.05
646.66	352.20
647.01	351.38
647.35	350.62
647.69	349.83
648.04	349.14
648.38	348.38
648.72	347.64
649.06	346.89
649.41	346.09
649.75	345.36
650.09	344.65
650.43	343.91
650.78	343.15
651.12	342.43
651.46	341.71
651.80	341.00
652.14	340.34
652.49	339.74
652.83	339.08
653.17	338.39
653.51	337.72
653.85	337.14
654.20	336.53
654.54	335.79
654.88	335.12
655.22	334.49
655.56	333.82
655.90	333.18
656.25	332.56
656.59	331.96
656.93	331.38
657.27	330.86
657.61	330.26
657.95	329.69
658.29	329.11
658.64	328.57
658.98	327.97
659.32	327.38
659.66	326.82
660.00	326.29
660.34	325.78
660.68	325.21
661.02	324.57
661.36	323.98
661.70	323.47
662.05	322.92
662.39	322.39
662.73	321.95
663.07	321.55
663.41	321.09
663.75	320.56
664.09	320.06
664.43	319.44
664.77	318.93
665.11	318.36
665.45	317.84
665.79	317.34
666.13	316.81
666.47	316.28
666.81	315.71
667.15	315.13
667.49	314.67
667.83	314.26
668.17	313.81
668.51	313.39
668.85	312.98
669.19	312.63
669.53	312.09
669.87	311.55
670.21	310.98
670.55	310.47
670.89	310.08
671.23	309.64
671.57	309.25
671.91	308.89
672.25	308.53
672.58	308.20
672.92	307.75
673.26	307.41
673.60	307.04
673.94	306.67
674.28	306.33
674.62	305.95
674.96	305.50
675.30	305.12
675.64	304.66
675.97	304.19
676.31	303.70
676.65	303.28
676.99	302.97
677.33	302.54
677.67	302.15
678.01	301.66
678.34	301.23
678.68	300.83
679.02	300.38
679.36	299.95
679.70	299.48
680.04	299.09
680.37	298.68
680.71	298.28
681.05	297.92
681.39	297.50
681.73	297.03
682.06	296.61
682.40	296.21
682.74	295.86
683.08	295.57
683.42	295.20
683.75	294.85
684.09	294.38
684.43	294.00
684.77	293.58
685.10	293.20
685.44	292.80
685.78	292.40
686.12	291.99
686.45	291.57
686.79	291.15
687.13	290.75
687.46	290.31
687.80	289.89
688.14	289.42
688.48	289.00
688.81	288.59
689.15	288.24
689.49	287.80
689.82	287.36
690.16	286.83
690.50	286.38
690.83	285.95
691.17	285.49
691.51	285.07
691.84	284.69
692.18	284.26
692.52	283.82
692.85	283.37
693.19	283.01
693.52	282.59
693.86	282.17
694.20	281.74
694.53	281.32
694.87	280.87
695.21	280.44
695.54	280.02
695.88	279.59
696.21	279.10
696.55	278.67
696.88	278.24
697.22	277.82
697.56	277.42
697.89	276.97
698.23	276.58
698.56	276.16
698.90	275.76
699.23	275.32
699.57	274.94
699.90	274.53
700.24	274.09
700.58	273.71
700.91	273.37
701.25	273.14
701.58	272.84
701.92	272.52
702.25	272.16
702.59	271.77
702.92	271.39
703.26	271.01
703.59	270.63
703.93	270.40
704.26	270.06
704.60	269.69
704.93	269.32
705.26	268.93
705.60	268.59
705.93	268.18
706.27	267.89
706.60	267.58
706.94	267.29
707.27	266.90
707.61	266.53
707.94	266.13
708.27	265.61
708.61	265.17
708.94	264.78
709.28	264.42
709.61	264.08
709.94	263.78
710.28	263.47
710.61	263.16
710.95	262.68
711.28	262.46
711.61	262.11
711.95	261.83
712.28	261.49
712.61	261.15
712.95	260.93
713.28	260.67
713.61	260.31
713.95	259.94
714.28	259.66
714.61	259.33
714.95	259.04
715.28	258.73
715.61	258.47
715.95	258.19
716.28	257.89
716.61	257.64
716.95	257.34
717.28	257.05
717.61	256.77
717.94	256.50
718.28	256.12
718.61	255.84
718.94	255.53
719.27	255.28
719.61	255.03
719.94	254.73
720.27	254.39
720.60	254.13
720.94	253.88
721.27	253.62
721.60	253.41
721.93	253.14
722.27	252.95
722.60	252.70
722.93	252.44
723.26	252.21
723.59	251.93
723.93	251.72
724.26	251.50
724.59	251.25
724.92	251.04
725.25	250.87
725.59	250.66
725.92	250.47
726.25	250.25
726.58	250.05
726.91	249.82
727.24	249.63
727.57	249.41
727.91	249.16
728.24	248.98
728.57	248.77
728.90	248.59
729.23	248.33
729.56	248.22
729.89	248.02
730.22	247.80
730.55	247.61
730.89	247.41
731.22	247.20
731.55	247.02
731.88	246.83
732.21	246.62
732.54	246.42
732.87	246.24
733.20	246.07
733.53	245.89
733.86	245.73
734.19	245.53
734.52	245.39
734.85	245.36
735.18	245.16
735.51	245.05
735.84	244.90
736.17	244.79
736.50	244.54
736.83	244.58
737.16	244.43
737.49	244.28
737.82	244.10
738.15	243.96
738.48	243.81
738.81	243.64
739.14	243.46
739.47	243.30
739.80	243.13
740.13	242.99
740.46	242.80
740.79	242.62
741.12	242.46
741.45	242.28
741.78	242.04
742.11	241.94
742.44	241.74
742.77	241.61
743.10	241.43
743.43	241.27
743.75	240.94
744.08	241.08
744.41	240.91
744.74	240.78
745.07	240.60
745.40	240.51
745.73	240.45
746.06	240.32
746.39	240.22
746.71	240.09
747.04	239.93
747.37	239.80
747.70	239.70
748.03	239.58
748.36	239.49
748.68	239.36
749.01	239.20
749.34	239.08
749.67	238.95
750.00	238.85
750.33	238.87
750.65	238.78
750.98	238.41
751.31	238.32
751.64	238.22
751.97	238.20
752.29	238.07
752.62	237.88
752.95	237.77
753.28	237.63
753.60	237.51
753.93	237.45
754.26	237.37
754.59	237.22
754.91	237.10
755.24	236.97
755.57	236.88
755.90	236.77
756.22	236.65
756.55	236.52
756.88	236.39
757.20	236.18
757.53	236.02
757.86	235.91
758.19	235.83
758.51	235.73
758.84	235.56
759.17	235.45
759.49	235.37
759.82	235.38
760.15	235.31
760.47	235.22
760.80	235.09
761.13	235.02
761.45	234.94
761.78	234.88
762.11	234.80
762.43	234.69
762.76	234.61
763.08	234.55
763.41	234.49
763.74	234.43
764.06	234.34
764.39	234.28
764.71	234.20
765.04	234.12
765.37	234.02
765.69	233.95
766.02	233.88
766.34	233.78
766.67	233.64
767.00	233.61
767.32	233.63
767.65	233.69
767.97	233.61
768.30	233.56
768.62	233.49
768.95	233.40
769.27	233.34
769.60	233.30
769.92	233.21
770.25	233.12
770.57	233.04
770.90	232.99
771.22	232.92
771.55	232.87
771.87	232.83
772.20	232.77
772.52	232.88
772.85	233.04
773.17	232.99
773.50	232.92
773.82	232.83
774.15	232.69
774.47	232.53
774.80	232.46
775.12	232.40
775.45	232.36
775.77	232.33
776.09	232.28
776.42	232.23
776.74	232.26
777.07	232.21
777.39	232.17
777.72	232.10
778.04	232.08
778.36	232.03
778.69	231.99
779.01	231.96
779.33	231.77
779.66	231.53
779.98	231.49
780.31	231.46
780.63	231.49
780.95	231.49
781.28	231.44
781.60	231.39
781.92	231.36
782.25	231.32
782.57	231.28
782.89	231.24
783.22	231.20
783.54	231.12
783.86	231.11
784.19	231.08
784.51	231.11
784.83	231.05
785.16	231.02
785.48	231.00
785.80	230.97
786.12	230.94
786.45	230.90
786.77	230.87
787.09	230.84
787.42	230.76
787.74	230.72
788.06	230.71
788.38	230.69
788.71	230.64
789.03	230.62
789.35	230.62
789.67	230.57
789.99	230.55
790.32	230.50
790.64	230.49
790.96	230.62
791.28	230.54
791.61	230.50
791.93	230.48
792.25	230.44
792.57	230.54
792.89	230.50
793.21	230.49
793.54	230.45
793.86	230.41
794.18	230.39
794.50	230.34
794.82	230.31
795.14	230.31
795.47	230.32
795.79	230.30
796.11	230.24
796.43	230.22
796.75	230.20
797.07	230.19
797.39	230.16
797.71	230.00
798.04	229.98
798.36	229.98
798.68	229.95
799.00	229.94
799.32	229.84
799.64	229.85
799.96	229.84
800.28	229.86
800.60	229.83
800.92	229.82
801.24	229.80
801.56	229.81
801.89	229.78
802.21	229.76
802.53	229.72
802.85	229.75
803.17	229.81
803.49	229.75
803.81	229.71
804.13	229.68
804.45	229.65
804.77	229.65
805.09	229.63
805.41	229.60
805.73	229.55
806.05	229.48
806.37	229.45
806.69	229.42
807.01	229.39
807.33	229.39
807.65	229.31
807.97	229.38
808.28	229.33
808.60	229.31
808.92	229.27
809.24	229.36
809.56	229.31
809.88	229.24
810.20	229.25
810.52	229.28
810.84	229.24
811.16	229.21
811.48	229.19
811.80	229.24
812.12	229.23
812.43	229.25
812.75	229.26
813.07	229.24
813.39	229.22
813.71	229.18
814.03	229.15
814.35	229.16
814.67	229.08
814.98	229.06
815.30	229.05
815.62	229.02
815.94	228.90
816.26	228.91
816.58	228.86
816.89	228.87
817.21	228.80
817.53	228.81
817.85	228.82
818.17	228.80
818.48	228.72
818.80	228.74
