SpectraSuite Data File
++++++++++++++++++++++++++++++++++++
Date: Tue Oct 06 14:03:45 EDT 2015
User: lab3
Dark Spectrum Present: No
Reference Spectrum Present: No
Number of Sampled Component Spectra: 1
Spectrometers: USB2E7196
Integration Time (usec): 66000 (USB2E7196)
Spectra Averaged: 1000 (USB2E7196)
Boxcar Smoothing: 10 (USB2E7196)
Correct for Electrical Dark: No (USB2E7196)
Strobe/Lamp Enabled: No (USB2E7196)
Correct for Detector Non-linearity: No (USB2E7196)
Correct for Stray Light: No (USB2E7196)
Number of Pixels in Processed Spectrum: 2048
>>>>>Begin Processed Spectral Data<<<<<
339.09	0.00
339.48	215.38
339.86	216.71
340.24	218.33
340.63	219.65
341.01	223.83
341.39	222.33
341.78	223.79
342.16	225.16
342.54	225.53
342.93	213.85
343.31	224.66
343.69	225.21
344.07	225.67
344.46	226.10
344.84	226.50
345.22	226.69
345.60	226.98
345.99	227.19
346.37	227.32
346.75	227.43
347.13	227.52
347.52	227.61
347.90	227.73
348.28	227.78
348.66	227.87
349.05	227.86
349.43	227.93
349.81	228.00
350.19	228.05
350.57	228.13
350.96	228.24
351.34	228.34
351.72	228.43
352.10	228.56
352.48	228.64
352.87	228.70
353.25	228.77
353.63	228.83
354.01	228.89
354.39	228.97
354.77	229.05
355.15	229.17
355.54	229.21
355.92	229.22
356.30	229.30
356.68	229.50
357.06	229.58
357.44	229.61
357.82	229.67
358.20	229.89
358.58	229.95
358.97	230.02
359.35	230.11
359.73	230.21
360.11	230.27
360.49	230.33
360.87	230.38
361.25	230.45
361.63	230.56
362.01	230.62
362.39	230.65
362.77	230.71
363.15	230.73
363.53	230.78
363.91	230.82
364.29	230.84
364.67	230.68
365.05	230.71
365.43	230.77
365.81	230.81
366.19	230.76
366.57	230.84
366.95	230.84
367.33	230.82
367.71	230.81
368.09	230.83
368.47	230.82
368.85	230.81
369.23	230.83
369.61	230.75
369.99	230.79
370.37	230.79
370.75	230.90
371.13	230.86
371.51	230.82
371.89	230.80
372.27	230.79
372.65	230.78
373.03	230.73
373.41	230.68
373.78	230.63
374.16	230.49
374.54	230.39
374.92	230.34
375.30	230.30
375.68	230.22
376.06	230.18
376.44	230.12
376.82	230.09
377.19	230.04
377.57	230.01
377.95	229.88
378.33	229.83
378.71	229.64
379.09	229.59
379.47	229.56
379.84	229.50
380.22	229.44
380.60	229.37
380.98	229.32
381.36	229.27
381.73	229.22
382.11	229.23
382.49	229.19
382.87	229.13
383.25	229.09
383.62	229.25
384.00	229.18
384.38	229.15
384.76	229.14
385.13	229.16
385.51	229.11
385.89	229.07
386.27	229.04
386.64	229.02
387.02	228.97
387.40	228.93
387.78	228.90
388.15	228.88
388.53	228.85
388.91	228.83
389.29	228.79
389.66	228.80
390.04	228.75
390.42	228.75
390.79	228.75
391.17	228.73
391.55	228.53
391.92	228.51
392.30	228.53
392.68	228.50
393.05	228.46
393.43	228.48
393.81	228.49
394.18	228.47
394.56	228.49
394.94	228.56
395.31	228.55
395.69	228.63
396.06	228.67
396.44	228.71
396.82	228.73
397.19	228.86
397.57	228.88
397.95	228.95
398.32	228.95
398.70	229.02
399.07	229.13
399.45	229.19
399.82	229.27
400.20	229.32
400.58	229.41
400.95	229.44
401.33	229.56
401.70	229.79
402.08	229.94
402.45	230.06
402.83	230.23
403.20	230.41
403.58	230.54
403.95	230.74
404.33	230.97
404.71	231.18
405.08	231.49
405.46	231.73
405.83	232.01
406.21	232.31
406.58	232.65
406.96	232.96
407.33	233.33
407.70	233.75
408.08	234.33
408.45	234.83
408.83	235.39
409.20	235.89
409.58	236.36
409.95	236.97
410.33	237.65
410.70	238.29
411.08	239.03
411.45	239.84
411.82	240.66
412.20	241.59
412.57	242.70
412.95	243.58
413.32	244.72
413.69	245.89
414.07	247.13
414.44	248.49
414.82	249.88
415.19	251.53
415.56	253.17
415.94	254.89
416.31	256.81
416.68	258.75
417.06	261.01
417.43	263.11
417.81	265.53
418.18	268.01
418.55	270.73
418.93	273.54
419.30	276.48
419.67	279.59
420.04	282.80
420.42	286.17
420.79	290.04
421.16	293.95
421.54	297.89
421.91	302.03
422.28	306.31
422.66	310.92
423.03	315.30
423.40	319.91
423.77	324.84
424.15	329.88
424.52	335.09
424.89	340.73
425.26	346.34
425.64	351.55
426.01	357.39
426.38	363.35
426.75	369.49
427.13	375.74
427.50	382.31
427.87	389.09
428.24	395.90
428.61	402.44
428.99	409.49
429.36	417.27
429.73	424.71
430.10	432.10
430.47	439.68
430.85	447.54
431.22	455.89
431.59	464.45
431.96	472.81
432.33	482.11
432.70	490.98
433.08	501.53
433.45	511.44
433.82	521.17
434.19	532.06
434.56	542.77
434.93	553.18
435.30	563.47
435.68	575.16
436.05	586.61
436.42	598.07
436.79	608.56
437.16	619.89
437.53	632.06
437.90	644.29
438.27	656.19
438.64	668.98
439.01	680.65
439.38	691.47
439.75	701.87
440.13	713.70
440.50	724.95
440.87	733.87
441.24	743.73
441.61	754.53
441.98	762.51
442.35	771.91
442.72	781.56
443.09	790.84
443.46	796.99
443.83	801.57
444.20	805.31
444.57	810.84
444.94	814.21
445.31	817.60
445.68	820.49
446.05	822.70
446.42	822.51
446.79	822.10
447.16	821.69
447.53	821.48
447.90	818.17
448.27	814.89
448.64	809.73
449.01	806.28
449.37	798.98
449.74	792.41
450.11	783.88
450.48	774.40
450.85	764.85
451.22	756.54
451.59	748.48
451.96	741.33
452.33	730.78
452.70	721.33
453.07	709.86
453.43	698.45
453.80	687.30
454.17	676.68
454.54	666.76
454.91	655.55
455.28	644.87
455.65	634.74
456.02	624.13
456.38	615.58
456.75	604.52
457.12	595.56
457.49	586.52
457.86	578.03
458.23	570.58
458.59	562.30
458.96	553.87
459.33	546.42
459.70	538.79
460.07	532.89
460.43	525.99
460.80	519.54
461.17	513.87
461.54	507.86
461.91	502.21
462.27	496.44
462.64	491.76
463.01	486.39
463.38	481.06
463.74	476.23
464.11	471.95
464.48	468.11
464.85	463.96
465.21	460.73
465.58	457.15
465.95	453.09
466.32	449.84
466.68	446.64
467.05	443.45
467.42	440.35
467.78	437.03
468.15	433.96
468.52	431.72
468.88	428.77
469.25	426.07
469.62	423.90
469.98	421.56
470.35	419.42
470.72	417.53
471.08	415.58
471.45	413.95
471.82	412.12
472.18	410.21
472.55	408.95
472.92	407.44
473.28	406.22
473.65	404.90
474.02	403.68
474.38	402.64
474.75	402.00
475.11	401.10
475.48	400.67
475.85	400.24
476.21	399.97
476.58	399.79
476.94	399.94
477.31	399.96
477.67	400.08
478.04	400.38
478.41	400.75
478.77	401.32
479.14	401.64
479.50	402.40
479.87	403.37
480.23	404.33
480.60	405.25
480.96	406.20
481.33	407.63
481.69	409.02
482.06	410.41
482.42	411.70
482.79	413.28
483.15	415.13
483.52	417.23
483.88	419.25
484.25	421.40
484.61	423.63
484.98	426.03
485.34	428.73
485.71	431.54
486.07	434.55
486.44	437.48
486.80	440.80
487.17	444.17
487.53	447.88
487.90	451.72
488.26	455.94
488.62	460.38
488.99	464.81
489.35	469.51
489.72	474.58
490.08	479.87
490.44	485.30
490.81	490.88
491.17	496.58
491.54	502.68
491.90	508.94
492.26	515.59
492.63	522.59
492.99	529.84
493.36	537.35
493.72	545.27
494.08	553.37
494.45	561.84
494.81	570.72
495.17	579.80
495.54	589.37
495.90	599.34
496.26	609.58
496.63	620.07
496.99	630.89
497.35	642.13
497.72	653.78
498.08	665.83
498.44	678.17
498.80	691.31
499.17	704.77
499.53	718.67
499.89	732.91
500.26	747.26
500.62	761.88
500.98	777.20
501.34	792.73
501.71	808.99
502.07	825.51
502.43	842.48
502.79	859.54
503.16	877.10
503.52	894.93
503.88	913.18
504.24	931.91
504.60	950.88
504.97	970.29
505.33	990.14
505.69	1010.90
506.05	1031.76
506.41	1052.48
506.78	1073.53
507.14	1095.36
507.50	1117.68
507.86	1140.43
508.22	1163.33
508.59	1186.04
508.95	1209.58
509.31	1233.48
509.67	1258.08
510.03	1282.57
510.39	1307.51
510.75	1332.46
511.12	1357.45
511.48	1382.42
511.84	1407.47
512.20	1432.97
512.56	1458.99
512.92	1484.69
513.28	1510.21
513.64	1536.05
514.00	1562.01
514.37	1588.10
514.73	1613.94
515.09	1639.31
515.45	1664.88
515.81	1690.52
516.17	1716.22
516.53	1741.24
516.89	1766.26
517.25	1791.36
517.61	1816.29
517.97	1841.38
518.33	1866.06
518.69	1890.62
519.05	1915.42
519.41	1940.11
519.77	1964.72
520.13	1989.04
520.49	2013.25
520.85	2037.33
521.21	2061.31
521.57	2085.46
521.93	2108.51
522.29	2132.09
522.65	2155.19
523.01	2178.09
523.37	2200.21
523.73	2222.77
524.09	2245.43
524.45	2268.13
524.81	2290.02
525.17	2311.65
525.53	2332.61
525.89	2353.84
526.25	2374.70
526.61	2394.43
526.97	2414.27
527.33	2433.71
527.68	2452.23
528.04	2470.22
528.40	2487.28
528.76	2504.77
529.12	2521.12
529.48	2537.98
529.84	2553.50
530.20	2570.09
530.56	2585.64
530.91	2601.02
531.27	2615.37
531.63	2628.72
531.99	2641.83
532.35	2653.30
532.71	2664.92
533.07	2676.78
533.42	2687.14
533.78	2698.18
534.14	2709.50
534.50	2719.47
534.86	2729.57
535.21	2737.69
535.57	2745.77
535.93	2754.28
536.29	2761.67
536.65	2769.28
537.00	2774.71
537.36	2780.47
537.72	2784.53
538.08	2788.30
538.44	2791.19
538.79	2794.52
539.15	2797.20
539.51	2799.28
539.87	2802.03
540.22	2802.58
540.58	2803.64
540.94	2804.37
541.29	2803.60
541.65	2801.39
542.01	2799.18
542.37	2795.90
542.72	2794.37
543.08	2791.65
543.44	2788.71
543.79	2784.04
544.15	2779.21
544.51	2775.26
544.87	2769.30
545.22	2762.78
545.58	2756.43
545.94	2750.88
546.29	2743.70
546.65	2735.77
547.01	2727.88
547.36	2719.62
547.72	2711.32
548.07	2701.82
548.43	2692.04
548.79	2681.26
549.14	2671.39
549.50	2661.50
549.86	2650.99
550.21	2638.59
550.57	2627.49
550.92	2614.53
551.28	2602.22
551.64	2590.16
551.99	2578.14
552.35	2566.37
552.70	2554.33
553.06	2542.63
553.41	2529.78
553.77	2516.49
554.13	2503.50
554.48	2489.75
554.84	2475.45
555.19	2462.11
555.55	2447.97
555.90	2434.02
556.26	2421.04
556.61	2407.34
556.97	2392.60
557.32	2378.20
557.68	2364.09
558.03	2349.30
558.39	2335.43
558.74	2321.81
559.10	2306.09
559.45	2290.92
559.81	2276.42
560.16	2261.53
560.52	2246.37
560.87	2232.05
561.23	2217.18
561.58	2202.72
561.94	2187.52
562.29	2172.48
562.64	2157.40
563.00	2142.44
563.35	2128.07
563.71	2113.46
564.06	2098.40
564.42	2083.82
564.77	2069.33
565.12	2055.21
565.48	2041.07
565.83	2026.54
566.19	2012.11
566.54	1998.21
566.89	1983.06
567.25	1967.41
567.60	1952.99
567.96	1937.99
568.31	1922.37
568.66	1907.62
569.02	1892.86
569.37	1878.26
569.72	1863.94
570.08	1849.48
570.43	1834.96
570.78	1819.69
571.14	1804.37
571.49	1789.51
571.84	1775.52
572.20	1760.15
572.55	1745.05
572.90	1729.43
573.26	1713.87
573.61	1697.97
573.96	1682.71
574.31	1668.11
574.67	1654.00
575.02	1639.04
575.37	1623.82
575.72	1608.49
576.08	1593.52
576.43	1578.65
576.78	1563.80
577.13	1549.08
577.49	1534.35
577.84	1519.55
578.19	1504.91
578.54	1490.33
578.90	1475.58
579.25	1460.33
579.60	1446.33
579.95	1432.17
580.30	1418.25
580.66	1404.34
581.01	1390.70
581.36	1376.90
581.71	1363.07
582.06	1349.23
582.42	1335.59
582.77	1322.24
583.12	1309.26
583.47	1296.15
583.82	1283.07
584.17	1270.11
584.53	1257.08
584.88	1244.50
585.23	1231.77
585.58	1219.25
585.93	1206.74
586.28	1194.89
586.63	1182.90
586.98	1170.76
587.34	1159.01
587.69	1146.95
588.04	1135.33
588.39	1123.77
588.74	1112.14
589.09	1100.82
589.44	1089.10
589.79	1077.94
590.14	1066.99
590.49	1056.07
590.84	1045.41
591.19	1034.84
591.54	1024.21
591.89	1013.40
592.25	1002.59
592.60	991.73
592.95	981.20
593.30	970.73
593.65	960.12
594.00	949.81
594.35	940.17
594.70	930.07
595.05	920.68
595.40	911.10
595.75	901.37
596.10	892.13
596.45	882.77
596.80	873.73
597.15	864.64
597.50	855.60
597.85	846.91
598.19	838.16
598.54	829.44
598.89	820.94
599.24	812.83
599.59	804.84
599.94	797.35
600.29	789.63
600.64	782.00
600.99	774.36
601.34	766.94
601.69	758.94
602.04	751.55
602.39	744.27
602.74	737.20
603.08	730.26
603.43	723.33
603.78	716.48
604.13	709.81
604.48	703.18
604.83	696.80
605.18	690.35
605.53	684.08
605.87	677.66
606.22	671.51
606.57	665.32
606.92	659.00
607.27	652.82
607.62	647.01
607.96	641.27
608.31	635.85
608.66	630.25
609.01	624.89
609.36	619.78
609.70	614.54
610.05	609.25
610.40	604.06
610.75	598.82
611.10	593.92
611.44	588.95
611.79	584.08
612.14	579.17
612.49	574.27
612.83	569.56
613.18	565.13
613.53	560.68
613.88	556.27
614.22	552.09
614.57	547.77
614.92	543.48
615.27	539.35
615.61	535.20
615.96	531.25
616.31	527.31
616.65	523.32
617.00	519.42
617.35	515.63
617.70	511.92
618.04	508.40
618.39	504.80
618.74	501.36
619.08	497.83
619.43	494.39
619.78	491.09
620.12	487.80
620.47	484.65
620.82	481.52
621.16	478.45
621.51	475.50
621.85	472.60
622.20	469.78
622.55	466.92
622.89	464.11
623.24	461.44
623.59	458.77
623.93	456.17
624.28	453.70
624.62	451.41
624.97	449.12
625.32	446.66
625.66	444.22
626.01	441.81
626.35	439.59
626.70	437.31
627.04	435.15
627.39	432.95
627.73	430.78
628.08	428.71
628.43	426.70
628.77	424.67
629.12	422.76
629.46	420.82
629.81	419.00
630.15	417.14
630.50	415.26
630.84	413.49
631.19	411.76
631.53	410.08
631.88	408.22
632.22	406.45
632.57	405.01
632.91	403.55
633.26	402.14
633.60	400.67
633.95	399.29
634.29	397.82
634.64	396.41
634.98	394.86
635.32	393.48
635.67	392.17
636.01	390.87
636.36	389.58
636.70	388.44
637.05	387.16
637.39	385.97
637.73	384.84
638.08	383.72
638.42	382.61
638.77	381.39
639.11	380.15
639.45	379.00
639.80	377.79
640.14	376.64
640.49	375.45
640.83	374.32
641.17	373.20
641.52	372.10
641.86	371.05
642.20	370.18
642.55	369.11
642.89	368.08
643.23	367.04
643.58	366.13
643.92	365.05
644.26	364.05
644.61	363.14
644.95	362.16
645.29	361.15
645.64	360.15
645.98	359.21
646.32	358.36
646.66	357.43
647.01	356.50
647.35	355.66
647.69	354.79
648.04	353.97
648.38	353.10
648.72	352.30
649.06	351.52
649.41	350.68
649.75	349.88
650.09	349.13
650.43	348.37
650.78	347.56
651.12	346.80
651.46	346.08
651.80	345.36
652.14	344.63
652.49	343.96
652.83	343.21
653.17	342.51
653.51	341.83
653.85	341.23
654.20	340.60
654.54	339.87
654.88	339.20
655.22	338.57
655.56	337.87
655.90	337.18
656.25	336.51
656.59	335.83
656.93	335.22
657.27	334.65
657.61	333.97
657.95	333.37
658.29	332.75
658.64	332.21
658.98	331.56
659.32	330.95
659.66	330.36
660.00	329.82
660.34	329.24
660.68	328.63
661.02	327.98
661.36	327.35
661.70	326.76
662.05	326.20
662.39	325.66
662.73	325.21
663.07	324.77
663.41	324.27
663.75	323.72
664.09	323.18
664.43	322.55
664.77	322.05
665.11	321.47
665.45	320.93
665.79	320.37
666.13	319.82
666.47	319.28
666.81	318.69
667.15	318.08
667.49	317.59
667.83	317.17
668.17	316.72
668.51	316.28
668.85	315.87
669.19	315.50
669.53	314.97
669.87	314.48
670.21	313.99
670.55	313.52
670.89	313.16
671.23	312.73
671.57	312.31
671.91	311.91
672.25	311.54
672.58	311.19
672.92	310.71
673.26	310.32
673.60	309.91
673.94	309.52
674.28	309.17
674.62	308.79
674.96	308.32
675.30	307.91
675.64	307.46
675.97	307.02
676.31	306.50
676.65	306.07
676.99	305.69
677.33	305.21
677.67	304.76
678.01	304.22
678.34	303.78
678.68	303.36
679.02	302.89
679.36	302.45
679.70	301.96
680.04	301.53
680.37	301.10
680.71	300.69
681.05	300.29
681.39	299.85
681.73	299.36
682.06	298.90
682.40	298.46
682.74	298.07
683.08	297.69
683.42	297.25
683.75	296.83
684.09	296.31
684.43	295.85
684.77	295.40
685.10	295.00
685.44	294.60
685.78	294.18
686.12	293.77
686.45	293.32
686.79	292.87
687.13	292.46
687.46	292.01
687.80	291.58
688.14	291.10
688.48	290.66
688.81	290.24
689.15	289.89
689.49	289.45
689.82	288.99
690.16	288.48
690.50	288.06
690.83	287.64
691.17	287.20
691.51	286.79
691.84	286.41
692.18	285.99
692.52	285.51
692.85	285.06
693.19	284.71
693.52	284.32
693.86	283.92
694.20	283.50
694.53	283.08
694.87	282.62
695.21	282.19
695.54	281.78
695.88	281.34
696.21	280.84
696.55	280.41
696.88	279.98
697.22	279.56
697.56	279.15
697.89	278.68
698.23	278.26
698.56	277.83
698.90	277.40
699.23	276.96
699.57	276.57
699.90	276.13
700.24	275.63
700.58	275.22
700.91	274.86
701.25	274.61
701.58	274.29
701.92	273.96
702.25	273.60
702.59	273.21
702.92	272.82
703.26	272.44
703.59	272.05
703.93	271.80
704.26	271.45
704.60	271.06
704.93	270.69
705.26	270.30
705.60	269.95
705.93	269.52
706.27	269.19
706.60	268.86
706.94	268.55
707.27	268.16
707.61	267.78
707.94	267.37
708.27	266.85
708.61	266.40
708.94	266.00
709.28	265.63
709.61	265.25
709.94	264.93
710.28	264.61
710.61	264.32
710.95	263.85
711.28	263.62
711.61	263.29
711.95	263.01
712.28	262.66
712.61	262.31
712.95	262.07
713.28	261.83
713.61	261.46
713.95	261.10
714.28	260.80
714.61	260.47
714.95	260.17
715.28	259.85
715.61	259.54
715.95	259.25
716.28	258.94
716.61	258.66
716.95	258.33
717.28	258.00
717.61	257.67
717.94	257.36
718.28	256.95
718.61	256.66
718.94	256.34
719.27	256.06
719.61	255.82
719.94	255.52
720.27	255.16
720.60	254.89
720.94	254.63
721.27	254.39
721.60	254.15
721.93	253.88
722.27	253.68
722.60	253.46
722.93	253.19
723.26	252.95
723.59	252.70
723.93	252.49
724.26	252.27
724.59	252.04
724.92	251.83
725.25	251.65
725.59	251.43
725.92	251.24
726.25	251.02
726.58	250.78
726.91	250.55
727.24	250.35
727.57	250.13
727.91	249.89
728.24	249.71
728.57	249.49
728.90	249.32
729.23	249.06
729.56	248.93
729.89	248.73
730.22	248.52
730.55	248.31
730.89	248.10
731.22	247.89
731.55	247.68
731.88	247.47
732.21	247.25
732.54	247.04
732.87	246.84
733.20	246.66
733.53	246.49
733.86	246.32
734.19	246.12
734.52	245.97
734.85	245.93
735.18	245.71
735.51	245.59
735.84	245.42
736.17	245.30
736.50	245.04
736.83	245.07
737.16	244.91
737.49	244.76
737.82	244.59
738.15	244.46
738.48	244.31
738.81	244.15
739.14	243.97
739.47	243.81
739.80	243.65
740.13	243.51
740.46	243.33
740.79	243.16
741.12	243.01
741.45	242.83
741.78	242.59
742.11	242.49
742.44	242.29
742.77	242.16
743.10	241.98
743.43	241.83
743.75	241.52
744.08	241.65
744.41	241.49
744.74	241.34
745.07	241.16
745.40	241.07
745.73	241.02
746.06	240.90
746.39	240.79
746.71	240.65
747.04	240.51
747.37	240.36
747.70	240.26
748.03	240.13
748.36	240.02
748.68	239.89
749.01	239.72
749.34	239.61
749.67	239.50
750.00	239.40
750.33	239.42
750.65	239.31
750.98	238.94
751.31	238.83
751.64	238.73
751.97	238.72
752.29	238.57
752.62	238.36
752.95	238.23
753.28	238.10
753.60	237.98
753.93	237.91
754.26	237.82
754.59	237.66
754.91	237.54
755.24	237.42
755.57	237.32
755.90	237.21
756.22	237.08
756.55	236.94
756.88	236.80
757.20	236.58
757.53	236.44
757.86	236.34
758.19	236.25
758.51	236.15
758.84	235.95
759.17	235.84
759.49	235.75
759.82	235.75
760.15	235.67
760.47	235.59
760.80	235.45
761.13	235.39
761.45	235.30
761.78	235.22
762.11	235.14
762.43	235.03
762.76	234.95
763.08	234.90
763.41	234.83
763.74	234.76
764.06	234.67
764.39	234.59
764.71	234.50
765.04	234.41
765.37	234.32
765.69	234.25
766.02	234.18
766.34	234.09
766.67	233.94
767.00	233.89
767.32	233.91
767.65	233.95
767.97	233.86
768.30	233.81
768.62	233.74
768.95	233.65
769.27	233.59
769.60	233.55
769.92	233.45
770.25	233.36
770.57	233.28
770.90	233.22
771.22	233.15
771.55	233.10
771.87	233.06
772.20	233.01
772.52	233.10
772.85	233.27
773.17	233.23
773.50	233.17
773.82	233.10
774.15	232.97
774.47	232.81
774.80	232.74
775.12	232.68
775.45	232.63
775.77	232.60
776.09	232.56
776.42	232.52
776.74	232.53
777.07	232.49
777.39	232.45
777.72	232.39
778.04	232.39
778.36	232.34
778.69	232.29
779.01	232.26
779.33	232.06
779.66	231.80
779.98	231.75
780.31	231.72
780.63	231.75
780.95	231.75
781.28	231.71
781.60	231.66
781.92	231.63
782.25	231.60
782.57	231.55
782.89	231.50
783.22	231.46
783.54	231.38
783.86	231.35
784.19	231.30
784.51	231.33
784.83	231.27
785.16	231.22
785.48	231.20
785.80	231.16
786.12	231.16
786.45	231.14
786.77	231.14
787.09	231.10
787.42	231.00
787.74	230.97
788.06	230.95
788.38	230.93
788.71	230.89
789.03	230.88
789.35	230.89
789.67	230.85
789.99	230.83
790.32	230.79
790.64	230.78
790.96	230.92
791.28	230.84
791.61	230.80
791.93	230.78
792.25	230.76
792.57	230.86
792.89	230.80
793.21	230.79
793.54	230.74
793.86	230.71
794.18	230.69
794.50	230.63
794.82	230.60
795.14	230.60
795.47	230.61
795.79	230.59
796.11	230.51
796.43	230.49
796.75	230.46
797.07	230.46
797.39	230.43
797.71	230.27
798.04	230.26
798.36	230.24
798.68	230.23
799.00	230.21
799.32	230.09
799.64	230.10
799.96	230.06
800.28	230.07
800.60	230.04
800.92	230.04
801.24	230.01
801.56	230.01
801.89	229.96
802.21	229.95
802.53	229.90
802.85	229.94
803.17	230.01
803.49	229.94
803.81	229.90
804.13	229.87
804.45	229.83
804.77	229.83
805.09	229.83
805.41	229.78
805.73	229.73
806.05	229.68
806.37	229.65
806.69	229.62
807.01	229.59
807.33	229.59
807.65	229.51
807.97	229.57
808.28	229.54
808.60	229.51
808.92	229.47
809.24	229.56
809.56	229.50
809.88	229.43
810.20	229.43
810.52	229.46
810.84	229.43
811.16	229.40
811.48	229.37
811.80	229.41
812.12	229.40
812.43	229.44
812.75	229.43
813.07	229.40
813.39	229.38
813.71	229.35
814.03	229.33
814.35	229.31
814.67	229.22
814.98	229.20
815.30	229.18
815.62	229.15
815.94	229.02
816.26	229.04
816.58	228.99
816.89	228.98
817.21	228.93
817.53	228.93
817.85	228.93
818.17	228.90
818.48	228.82
