SpectraSuite Data File
++++++++++++++++++++++++++++++++++++
Date: Tue Oct 06 16:28:37 EDT 2015
User: lab3
Dark Spectrum Present: No
Reference Spectrum Present: No
Number of Sampled Component Spectra: 1
Spectrometers: USB2E7196
Integration Time (usec): 66000 (USB2E7196)
Spectra Averaged: 1000 (USB2E7196)
Boxcar Smoothing: 10 (USB2E7196)
Correct for Electrical Dark: No (USB2E7196)
Strobe/Lamp Enabled: No (USB2E7196)
Correct for Detector Non-linearity: No (USB2E7196)
Correct for Stray Light: No (USB2E7196)
Number of Pixels in Processed Spectrum: 2048
>>>>>Begin Processed Spectral Data<<<<<
339.09	0.00
339.48	215.49
339.86	216.89
340.24	218.18
340.63	219.77
341.01	223.89
341.39	222.32
341.78	224.18
342.16	225.10
342.54	225.47
342.93	213.90
343.31	224.70
343.69	225.23
344.07	225.69
344.46	226.14
344.84	226.54
345.22	226.72
345.60	226.99
345.99	227.19
346.37	227.33
346.75	227.44
347.13	227.53
347.52	227.61
347.90	227.74
348.28	227.79
348.66	227.88
349.05	227.87
349.43	227.94
349.81	228.01
350.19	228.08
350.57	228.16
350.96	228.25
351.34	228.36
351.72	228.47
352.10	228.58
352.48	228.66
352.87	228.72
353.25	228.78
353.63	228.84
354.01	228.90
354.39	228.99
354.77	229.06
355.15	229.19
355.54	229.24
355.92	229.25
356.30	229.32
356.68	229.49
357.06	229.57
357.44	229.61
357.82	229.68
358.20	229.89
358.58	229.95
358.97	230.01
359.35	230.11
359.73	230.20
360.11	230.26
360.49	230.31
360.87	230.36
361.25	230.43
361.63	230.53
362.01	230.58
362.39	230.61
362.77	230.66
363.15	230.68
363.53	230.72
363.91	230.76
364.29	230.78
364.67	230.64
365.05	230.66
365.43	230.70
365.81	230.72
366.19	230.66
366.57	230.74
366.95	230.75
367.33	230.71
367.71	230.71
368.09	230.74
368.47	230.74
368.85	230.72
369.23	230.75
369.61	230.68
369.99	230.71
370.37	230.72
370.75	230.84
371.13	230.80
371.51	230.75
371.89	230.74
372.27	230.74
372.65	230.72
373.03	230.67
373.41	230.64
373.78	230.59
374.16	230.47
374.54	230.37
374.92	230.32
375.30	230.28
375.68	230.19
376.06	230.14
376.44	230.09
376.82	230.06
377.19	230.01
377.57	229.96
377.95	229.86
378.33	229.78
378.71	229.57
379.09	229.53
379.47	229.50
379.84	229.43
380.22	229.35
380.60	229.27
380.98	229.24
381.36	229.18
381.73	229.11
382.11	229.11
382.49	229.08
382.87	229.01
383.25	228.98
383.62	229.15
384.00	229.07
384.38	229.04
384.76	229.04
385.13	229.05
385.51	229.02
385.89	228.97
386.27	228.96
386.64	228.95
387.02	228.90
387.40	228.85
387.78	228.84
388.15	228.83
388.53	228.81
388.91	228.76
389.29	228.73
389.66	228.74
390.04	228.70
390.42	228.71
390.79	228.71
391.17	228.69
391.55	228.49
391.92	228.49
392.30	228.51
392.68	228.46
393.05	228.44
393.43	228.45
393.81	228.46
394.18	228.44
394.56	228.46
394.94	228.51
395.31	228.52
395.69	228.59
396.06	228.65
396.44	228.69
396.82	228.72
397.19	228.85
397.57	228.89
397.95	228.95
398.32	228.94
398.70	229.01
399.07	229.11
399.45	229.17
399.82	229.23
400.20	229.28
400.58	229.36
400.95	229.39
401.33	229.53
401.70	229.75
402.08	229.89
402.45	230.02
402.83	230.19
403.20	230.37
403.58	230.50
403.95	230.69
404.33	230.91
404.71	231.11
405.08	231.43
405.46	231.67
405.83	231.95
406.21	232.25
406.58	232.57
406.96	232.89
407.33	233.27
407.70	233.70
408.08	234.27
408.45	234.78
408.83	235.32
409.20	235.83
409.58	236.29
409.95	236.93
410.33	237.60
410.70	238.25
411.08	239.01
411.45	239.82
411.82	240.65
412.20	241.60
412.57	242.72
412.95	243.61
413.32	244.76
413.69	245.95
414.07	247.20
414.44	248.58
414.82	249.98
415.19	251.63
415.56	253.29
415.94	255.05
416.31	257.01
416.68	258.97
417.06	261.24
417.43	263.37
417.81	265.82
418.18	268.30
418.55	271.02
418.93	273.85
419.30	276.82
419.67	279.95
420.04	283.17
420.42	286.53
420.79	290.42
421.16	294.34
421.54	298.31
421.91	302.49
422.28	306.82
422.66	311.48
423.03	315.91
423.40	320.54
423.77	325.49
424.15	330.57
424.52	335.82
424.89	341.50
425.26	347.15
425.64	352.39
426.01	358.29
426.38	364.31
426.75	370.51
427.13	376.83
427.50	383.46
427.87	390.35
428.24	397.28
428.61	403.92
428.99	411.08
429.36	418.92
429.73	426.39
430.10	433.86
430.47	441.50
430.85	449.39
431.22	457.81
431.59	466.45
431.96	474.87
432.33	484.24
432.70	493.14
433.08	503.65
433.45	513.59
433.82	523.38
434.19	534.34
434.56	545.12
434.93	555.61
435.30	566.01
435.68	577.81
436.05	589.31
436.42	600.85
436.79	611.40
437.16	622.84
437.53	635.11
437.90	647.38
438.27	659.43
438.64	672.44
439.01	684.25
439.38	695.09
439.75	705.59
440.13	717.55
440.50	728.94
440.87	738.07
441.24	748.07
441.61	759.07
441.98	767.20
442.35	776.88
442.72	786.75
443.09	796.12
443.46	802.26
443.83	807.00
444.20	810.93
444.57	816.59
444.94	820.04
445.31	823.57
445.68	826.63
446.05	829.00
446.42	828.85
446.79	828.49
447.16	828.24
447.53	828.03
447.90	824.74
448.27	821.58
448.64	816.43
449.01	812.97
449.37	805.58
449.74	798.87
450.11	790.14
450.48	780.50
450.85	770.85
451.22	762.55
451.59	754.36
451.96	746.98
452.33	736.18
452.70	726.58
453.07	714.91
453.43	703.25
453.80	691.86
454.17	680.98
454.54	670.92
454.91	659.53
455.28	648.78
455.65	638.61
456.02	627.85
456.38	619.21
456.75	608.13
457.12	599.16
457.49	590.13
457.86	581.58
458.23	574.01
458.59	565.69
458.96	557.14
459.33	549.64
459.70	541.99
460.07	536.17
460.43	529.28
460.80	522.84
461.17	517.25
461.54	511.20
461.91	505.51
462.27	499.74
462.64	495.02
463.01	489.63
463.38	484.16
463.74	479.25
464.11	474.89
464.48	470.94
464.85	466.69
465.21	463.43
465.58	459.79
465.95	455.71
466.32	452.46
466.68	449.27
467.05	446.03
467.42	442.89
467.78	439.53
468.15	436.44
468.52	434.18
468.88	431.17
469.25	428.42
469.62	426.25
469.98	423.88
470.35	421.76
470.72	419.85
471.08	417.93
471.45	416.30
471.82	414.49
472.18	412.57
472.55	411.34
472.92	409.78
473.28	408.60
473.65	407.29
474.02	406.04
474.38	404.99
474.75	404.38
475.11	403.55
475.48	403.13
475.85	402.70
476.21	402.43
476.58	402.26
476.94	402.43
477.31	402.48
477.67	402.55
478.04	402.85
478.41	403.28
478.77	403.88
479.14	404.26
479.50	405.04
479.87	406.06
480.23	407.03
480.60	407.99
480.96	408.92
481.33	410.36
481.69	411.79
482.06	413.21
482.42	414.48
482.79	416.06
483.15	417.94
483.52	420.08
483.88	422.09
484.25	424.24
484.61	426.49
484.98	428.91
485.34	431.64
485.71	434.47
486.07	437.51
486.44	440.52
486.80	443.91
487.17	447.38
487.53	451.12
487.90	455.05
488.26	459.34
488.62	463.85
488.99	468.34
489.35	473.05
489.72	478.12
490.08	483.47
490.44	488.96
490.81	494.64
491.17	500.46
491.54	506.74
491.90	513.15
492.26	519.98
492.63	527.14
492.99	534.63
493.36	542.27
493.72	550.29
494.08	558.49
494.45	567.08
494.81	576.07
495.17	585.33
495.54	595.06
495.90	605.23
496.26	615.59
496.63	626.23
496.99	637.27
497.35	648.81
497.72	660.61
498.08	672.74
498.44	685.19
498.80	698.30
499.17	711.71
499.53	725.56
499.89	739.86
500.26	754.28
500.62	769.09
500.98	784.74
501.34	800.39
501.71	816.87
502.07	833.60
502.43	850.74
502.79	868.08
503.16	885.95
503.52	903.96
503.88	922.41
504.24	941.27
504.60	960.38
504.97	980.11
505.33	1000.25
505.69	1021.42
506.05	1042.75
506.41	1063.98
506.78	1085.37
507.14	1107.28
507.50	1129.60
507.86	1152.36
508.22	1175.28
508.59	1198.01
508.95	1221.82
509.31	1246.02
509.67	1270.82
510.03	1295.52
510.39	1320.16
510.75	1344.83
511.12	1369.92
511.48	1395.04
511.84	1420.19
512.20	1445.61
512.56	1471.97
512.92	1498.17
513.28	1523.75
513.64	1549.77
514.00	1576.07
514.37	1602.55
514.73	1629.06
515.09	1654.87
515.45	1680.95
515.81	1707.11
516.17	1733.03
516.53	1758.30
516.89	1783.42
517.25	1808.76
517.61	1833.90
517.97	1859.59
518.33	1884.62
518.69	1909.48
519.05	1934.81
519.41	1960.22
519.77	1985.54
520.13	2009.40
520.49	2033.34
520.85	2057.60
521.21	2081.23
521.57	2105.13
521.93	2128.07
522.29	2151.57
522.65	2174.85
523.01	2197.83
523.37	2220.11
523.73	2243.05
524.09	2265.69
524.45	2287.86
524.81	2309.40
525.17	2330.69
525.53	2351.37
525.89	2372.32
526.25	2392.91
526.61	2411.90
526.97	2430.92
527.33	2449.80
527.68	2468.29
528.04	2486.37
528.40	2503.10
528.76	2520.09
529.12	2536.65
529.48	2553.69
529.84	2568.06
530.20	2582.92
530.56	2596.83
530.91	2611.03
531.27	2624.56
531.63	2637.06
531.99	2649.45
532.35	2661.46
532.71	2673.08
533.07	2684.90
533.42	2694.94
533.78	2705.20
534.14	2716.32
534.50	2726.27
534.86	2736.68
535.21	2745.21
535.57	2753.50
535.93	2761.68
536.29	2768.16
536.65	2774.43
537.00	2779.21
537.36	2785.38
537.72	2790.48
538.08	2795.10
538.44	2798.64
538.79	2801.94
539.15	2803.95
539.51	2805.23
539.87	2805.45
540.22	2804.09
540.58	2802.96
540.94	2802.74
541.29	2801.28
541.65	2798.59
542.01	2795.51
542.37	2790.96
542.72	2787.83
543.08	2783.18
543.44	2778.77
543.79	2773.80
544.15	2768.16
544.51	2762.83
544.87	2756.34
545.22	2749.04
545.58	2741.70
545.94	2734.52
546.29	2725.88
546.65	2717.57
547.01	2709.31
547.36	2701.39
547.72	2693.72
548.07	2684.38
548.43	2674.01
548.79	2663.46
549.14	2653.21
549.50	2643.05
549.86	2632.03
550.21	2619.55
550.57	2608.04
550.92	2594.90
551.28	2582.30
551.64	2569.96
551.99	2557.30
552.35	2544.31
552.70	2531.24
553.06	2518.56
553.41	2505.43
553.77	2492.12
554.13	2478.89
554.48	2464.61
554.84	2449.76
555.19	2435.50
555.55	2421.07
555.90	2406.99
556.26	2393.21
556.61	2378.39
556.97	2362.69
557.32	2347.43
557.68	2332.45
558.03	2317.32
558.39	2303.03
558.74	2289.30
559.10	2273.83
559.45	2258.69
559.81	2244.19
560.16	2229.38
560.52	2214.40
560.87	2199.57
561.23	2184.45
561.58	2169.83
561.94	2154.83
562.29	2139.26
562.64	2123.83
563.00	2108.68
563.35	2093.69
563.71	2078.37
564.06	2063.14
564.42	2048.44
564.77	2033.77
565.12	2018.91
565.48	2003.86
565.83	1989.17
566.19	1974.41
566.54	1959.89
566.89	1944.81
567.25	1929.62
567.60	1915.21
567.96	1900.06
568.31	1883.93
568.66	1868.73
569.02	1853.99
569.37	1839.80
569.72	1826.28
570.08	1812.28
570.43	1797.73
570.78	1783.07
571.14	1768.22
571.49	1753.47
571.84	1739.03
572.20	1723.58
572.55	1708.88
572.90	1694.18
573.26	1679.36
573.61	1664.01
573.96	1649.18
574.31	1634.23
574.67	1619.26
575.02	1604.00
575.37	1588.84
575.72	1574.29
576.08	1559.55
576.43	1544.30
576.78	1529.17
577.13	1514.24
577.49	1499.53
577.84	1485.27
578.19	1470.51
578.54	1455.87
578.90	1441.22
579.25	1426.48
579.60	1412.77
579.95	1398.85
580.30	1384.90
580.66	1370.71
581.01	1356.62
581.36	1342.74
581.71	1329.51
582.06	1316.26
582.42	1302.85
582.77	1289.95
583.12	1277.25
583.47	1264.49
583.82	1251.87
584.17	1238.90
584.53	1226.03
584.88	1213.42
585.23	1200.67
585.58	1188.30
585.93	1175.87
586.28	1164.38
586.63	1152.75
586.98	1140.76
587.34	1129.08
587.69	1117.27
588.04	1105.89
588.39	1094.72
588.74	1083.16
589.09	1071.78
589.44	1060.11
589.79	1049.04
590.14	1037.96
590.49	1026.98
590.84	1016.22
591.19	1005.71
591.54	995.35
591.89	984.55
592.25	974.14
592.60	963.58
592.95	953.24
593.30	943.21
593.65	932.84
594.00	922.75
594.35	913.57
594.70	903.73
595.05	894.50
595.40	885.02
595.75	875.44
596.10	866.45
596.45	857.47
596.80	848.80
597.15	840.14
597.50	831.51
597.85	823.05
598.19	814.64
598.54	806.20
598.89	798.20
599.24	790.61
599.59	782.83
599.94	775.64
600.29	768.42
600.64	761.09
600.99	753.69
601.34	746.49
601.69	738.82
602.04	731.99
602.39	725.01
602.74	718.24
603.08	711.62
603.43	704.97
603.78	698.26
604.13	691.69
604.48	685.15
604.83	678.81
605.18	672.56
605.53	666.42
605.87	660.27
606.22	654.23
606.57	648.12
606.92	641.93
607.27	635.77
607.62	629.85
607.96	624.17
608.31	618.86
608.66	613.51
609.01	608.37
609.36	603.19
609.70	597.95
610.05	592.78
610.40	587.76
610.75	582.73
611.10	577.92
611.44	573.09
611.79	568.36
612.14	563.58
612.49	558.87
612.83	554.41
613.18	549.98
613.53	545.55
613.88	541.30
614.22	537.35
614.57	533.29
614.92	529.31
615.27	525.45
615.61	521.51
615.96	517.61
616.31	513.72
616.65	509.99
617.00	506.34
617.35	502.72
617.70	499.13
618.04	495.64
618.39	492.22
618.74	489.04
619.08	485.83
619.43	482.70
619.78	479.54
620.12	476.39
620.47	473.44
620.82	470.54
621.16	467.62
621.51	464.78
621.85	461.97
622.20	459.23
622.55	456.40
622.89	453.66
623.24	451.07
623.59	448.52
623.93	446.04
624.28	443.71
624.62	441.57
624.97	439.41
625.32	437.15
625.66	434.88
626.01	432.58
626.35	430.43
626.70	428.22
627.04	426.20
627.39	424.10
627.73	422.09
628.08	420.15
628.43	418.21
628.77	416.18
629.12	414.30
629.46	412.49
629.81	410.83
630.15	409.08
630.50	407.32
630.84	405.64
631.19	403.98
631.53	402.37
631.88	400.58
632.22	398.93
632.57	397.53
632.91	396.08
633.26	394.70
633.60	393.31
633.95	392.01
634.29	390.58
634.64	389.23
634.98	387.76
635.32	386.44
635.67	385.25
636.01	384.07
636.36	382.89
636.70	381.83
637.05	380.57
637.39	379.47
637.73	378.36
638.08	377.31
638.42	376.31
638.77	375.18
639.11	374.03
639.45	372.89
639.80	371.73
640.14	370.63
640.49	369.52
640.83	368.40
641.17	367.33
641.52	366.29
641.86	365.28
642.20	364.43
642.55	363.37
642.89	362.34
643.23	361.39
643.58	360.54
643.92	359.53
644.26	358.62
644.61	357.74
644.95	356.82
645.29	355.85
645.64	354.83
645.98	353.92
646.32	353.12
646.66	352.28
647.01	351.42
647.35	350.67
647.69	349.90
648.04	349.19
648.38	348.42
648.72	347.69
649.06	346.93
649.41	346.13
649.75	345.39
650.09	344.68
650.43	343.92
650.78	343.15
651.12	342.43
651.46	341.70
651.80	340.99
652.14	340.33
652.49	339.72
652.83	339.05
653.17	338.35
653.51	337.68
653.85	337.09
654.20	336.47
654.54	335.74
654.88	335.06
655.22	334.41
655.56	333.74
655.90	333.09
656.25	332.47
656.59	331.85
656.93	331.28
657.27	330.77
657.61	330.17
657.95	329.62
658.29	329.04
658.64	328.50
658.98	327.89
659.32	327.30
659.66	326.74
660.00	326.23
660.34	325.72
660.68	325.15
661.02	324.53
661.36	323.95
661.70	323.41
662.05	322.88
662.39	322.37
662.73	321.92
663.07	321.52
663.41	321.06
663.75	320.57
664.09	320.06
664.43	319.43
664.77	318.92
665.11	318.35
665.45	317.83
665.79	317.34
666.13	316.82
666.47	316.29
666.81	315.72
667.15	315.11
667.49	314.65
667.83	314.24
668.17	313.78
668.51	313.36
668.85	312.95
669.19	312.58
669.53	312.03
669.87	311.50
670.21	310.94
670.55	310.42
670.89	310.01
671.23	309.58
671.57	309.20
671.91	308.83
672.25	308.50
672.58	308.17
672.92	307.72
673.26	307.37
673.60	307.01
673.94	306.64
674.28	306.31
674.62	305.93
674.96	305.49
675.30	305.11
675.64	304.67
675.97	304.21
676.31	303.73
676.65	303.33
676.99	303.01
677.33	302.59
677.67	302.21
678.01	301.73
678.34	301.31
678.68	300.91
679.02	300.46
679.36	300.01
679.70	299.54
680.04	299.14
680.37	298.73
680.71	298.35
681.05	298.00
681.39	297.57
681.73	297.10
682.06	296.67
682.40	296.27
682.74	295.92
683.08	295.63
683.42	295.27
683.75	294.91
684.09	294.42
684.43	294.04
684.77	293.62
685.10	293.23
685.44	292.84
685.78	292.43
686.12	292.03
686.45	291.61
686.79	291.19
687.13	290.80
687.46	290.34
687.80	289.93
688.14	289.44
688.48	289.04
688.81	288.64
689.15	288.29
689.49	287.85
689.82	287.41
690.16	286.88
690.50	286.44
690.83	286.01
691.17	285.57
691.51	285.16
691.84	284.78
692.18	284.36
692.52	283.90
692.85	283.47
693.19	283.11
693.52	282.69
693.86	282.26
694.20	281.83
694.53	281.43
694.87	280.98
695.21	280.56
695.54	280.14
695.88	279.70
696.21	279.21
696.55	278.80
696.88	278.36
697.22	277.96
697.56	277.55
697.89	277.10
698.23	276.70
698.56	276.27
698.90	275.86
699.23	275.42
699.57	275.04
699.90	274.64
700.24	274.19
700.58	273.82
700.91	273.50
701.25	273.27
701.58	272.96
701.92	272.63
702.25	272.27
702.59	271.88
702.92	271.51
703.26	271.14
703.59	270.76
703.93	270.54
704.26	270.17
704.60	269.80
704.93	269.43
705.26	269.05
705.60	268.72
705.93	268.32
706.27	268.03
706.60	267.72
706.94	267.43
707.27	267.04
707.61	266.67
707.94	266.27
708.27	265.75
708.61	265.32
708.94	264.93
709.28	264.57
709.61	264.22
709.94	263.89
710.28	263.57
710.61	263.25
710.95	262.76
711.28	262.55
711.61	262.21
711.95	261.92
712.28	261.59
712.61	261.24
712.95	261.01
713.28	260.75
713.61	260.39
713.95	260.02
714.28	259.72
714.61	259.40
714.95	259.09
715.28	258.79
715.61	258.50
715.95	258.23
716.28	257.93
716.61	257.68
716.95	257.37
717.28	257.09
717.61	256.80
717.94	256.54
718.28	256.15
718.61	255.86
718.94	255.56
719.27	255.29
719.61	255.06
719.94	254.76
720.27	254.41
720.60	254.16
720.94	253.91
721.27	253.68
721.60	253.46
721.93	253.19
722.27	253.00
722.60	252.77
722.93	252.49
723.26	252.26
723.59	251.98
723.93	251.76
724.26	251.54
724.59	251.30
724.92	251.09
725.25	250.92
725.59	250.71
725.92	250.51
726.25	250.29
726.58	250.08
726.91	249.84
727.24	249.64
727.57	249.42
727.91	249.17
728.24	248.98
728.57	248.76
728.90	248.58
729.23	248.32
729.56	248.20
729.89	248.02
730.22	247.81
730.55	247.62
730.89	247.43
731.22	247.23
731.55	247.04
731.88	246.86
732.21	246.64
732.54	246.44
732.87	246.27
733.20	246.12
733.53	245.93
733.86	245.78
734.19	245.59
734.52	245.45
734.85	245.42
735.18	245.23
735.51	245.11
735.84	244.96
736.17	244.84
736.50	244.58
736.83	244.62
737.16	244.47
737.49	244.32
737.82	244.15
738.15	244.02
738.48	243.87
738.81	243.70
739.14	243.53
739.47	243.37
739.80	243.20
740.13	243.06
740.46	242.89
740.79	242.72
741.12	242.56
741.45	242.37
741.78	242.12
742.11	242.01
742.44	241.82
742.77	241.69
743.10	241.52
743.43	241.38
743.75	241.05
744.08	241.18
744.41	241.03
744.74	240.88
745.07	240.70
745.40	240.60
745.73	240.53
746.06	240.41
746.39	240.31
746.71	240.17
747.04	240.03
747.37	239.90
747.70	239.79
748.03	239.68
748.36	239.60
748.68	239.48
749.01	239.31
749.34	239.20
749.67	239.09
750.00	239.00
750.33	239.02
750.65	238.92
750.98	238.55
751.31	238.45
751.64	238.36
751.97	238.36
752.29	238.24
752.62	238.05
752.95	237.93
753.28	237.79
753.60	237.68
753.93	237.62
754.26	237.54
754.59	237.38
754.91	237.26
755.24	237.14
755.57	237.04
755.90	236.93
756.22	236.82
756.55	236.69
756.88	236.54
757.20	236.32
757.53	236.17
757.86	236.08
758.19	236.01
758.51	235.91
758.84	235.73
759.17	235.61
759.49	235.54
759.82	235.54
760.15	235.48
760.47	235.39
760.80	235.26
761.13	235.19
761.45	235.11
761.78	235.03
762.11	234.96
762.43	234.87
762.76	234.78
763.08	234.72
763.41	234.66
763.74	234.60
764.06	234.53
764.39	234.46
764.71	234.37
765.04	234.27
765.37	234.18
765.69	234.11
766.02	234.03
766.34	233.96
766.67	233.81
767.00	233.77
767.32	233.79
767.65	233.84
767.97	233.76
768.30	233.71
768.62	233.65
768.95	233.56
769.27	233.49
769.60	233.46
769.92	233.36
770.25	233.27
770.57	233.18
770.90	233.12
771.22	233.05
771.55	233.01
771.87	232.97
772.20	232.91
772.52	233.01
772.85	233.17
773.17	233.11
773.50	233.05
773.82	232.98
774.15	232.84
774.47	232.67
774.80	232.62
775.12	232.56
775.45	232.51
775.77	232.47
776.09	232.43
776.42	232.39
776.74	232.40
777.07	232.35
777.39	232.32
777.72	232.27
778.04	232.25
778.36	232.19
778.69	232.14
779.01	232.11
779.33	231.92
779.66	231.67
779.98	231.63
780.31	231.60
780.63	231.63
780.95	231.62
781.28	231.60
781.60	231.53
781.92	231.49
782.25	231.46
782.57	231.43
782.89	231.39
783.22	231.34
783.54	231.26
783.86	231.25
784.19	231.20
784.51	231.22
784.83	231.18
785.16	231.14
785.48	231.12
785.80	231.09
786.12	231.07
786.45	231.04
786.77	231.02
787.09	230.97
787.42	230.87
787.74	230.85
788.06	230.82
788.38	230.80
788.71	230.75
789.03	230.74
789.35	230.72
789.67	230.68
789.99	230.65
790.32	230.62
790.64	230.62
790.96	230.77
791.28	230.68
791.61	230.65
791.93	230.63
792.25	230.59
792.57	230.70
792.89	230.65
793.21	230.64
793.54	230.60
793.86	230.56
794.18	230.55
794.50	230.50
794.82	230.47
795.14	230.47
795.47	230.50
795.79	230.48
796.11	230.43
796.43	230.40
796.75	230.38
797.07	230.37
797.39	230.33
797.71	230.16
798.04	230.15
798.36	230.14
798.68	230.12
799.00	230.13
799.32	230.01
799.64	230.02
799.96	230.00
800.28	230.02
800.60	230.00
800.92	229.98
801.24	229.95
801.56	229.95
801.89	229.90
802.21	229.88
802.53	229.83
802.85	229.84
803.17	229.90
803.49	229.85
803.81	229.82
804.13	229.78
804.45	229.74
804.77	229.73
805.09	229.70
805.41	229.67
805.73	229.61
806.05	229.57
806.37	229.54
806.69	229.51
807.01	229.48
807.33	229.47
807.65	229.40
807.97	229.46
808.28	229.43
808.60	229.41
808.92	229.37
809.24	229.47
809.56	229.43
809.88	229.35
810.20	229.35
810.52	229.37
810.84	229.35
811.16	229.34
811.48	229.31
811.80	229.36
812.12	229.34
812.43	229.36
812.75	229.35
813.07	229.32
813.39	229.31
813.71	229.28
814.03	229.25
814.35	229.26
814.67	229.17
814.98	229.15
815.30	229.14
815.62	229.10
815.94	228.98
816.26	228.99
816.58	228.95
816.89	228.95
817.21	228.89
817.53	228.88
817.85	228.87
818.17	228.87
818.48	228.79
818.80	228.81
