SpectraSuite Data File
++++++++++++++++++++++++++++++++++++
Date: Tue Oct 06 15:08:38 EDT 2015
User: lab3
Dark Spectrum Present: No
Reference Spectrum Present: No
Number of Sampled Component Spectra: 1
Spectrometers: USB2E7196
Integration Time (usec): 66000 (USB2E7196)
Spectra Averaged: 400 (USB2E7196)
Boxcar Smoothing: 10 (USB2E7196)
Correct for Electrical Dark: No (USB2E7196)
Strobe/Lamp Enabled: No (USB2E7196)
Correct for Detector Non-linearity: No (USB2E7196)
Correct for Stray Light: No (USB2E7196)
Number of Pixels in Processed Spectrum: 2048
>>>>>Begin Processed Spectral Data<<<<<
339.09	0.00
339.48	215.00
339.86	216.70
340.24	217.94
340.63	219.38
341.01	223.42
341.39	221.95
341.78	223.68
342.16	224.97
342.54	225.34
342.93	213.66
343.31	224.47
343.69	225.00
344.07	225.45
344.46	225.90
344.84	226.32
345.22	226.51
345.60	226.80
345.99	227.00
346.37	227.14
346.75	227.26
347.13	227.34
347.52	227.42
347.90	227.53
348.28	227.59
348.66	227.68
349.05	227.65
349.43	227.73
349.81	227.78
350.19	227.82
350.57	227.89
350.96	227.97
351.34	228.05
351.72	228.18
352.10	228.31
352.48	228.36
352.87	228.40
353.25	228.47
353.63	228.50
354.01	228.57
354.39	228.63
354.77	228.71
355.15	228.82
355.54	228.87
355.92	228.86
356.30	228.92
356.68	229.09
357.06	229.18
357.44	229.20
357.82	229.27
358.20	229.50
358.58	229.55
358.97	229.64
359.35	229.74
359.73	229.84
360.11	229.87
360.49	229.95
360.87	230.00
361.25	230.07
361.63	230.18
362.01	230.22
362.39	230.24
362.77	230.29
363.15	230.32
363.53	230.36
363.91	230.40
364.29	230.43
364.67	230.29
365.05	230.31
365.43	230.38
365.81	230.40
366.19	230.35
366.57	230.44
366.95	230.45
367.33	230.42
367.71	230.38
368.09	230.43
368.47	230.41
368.85	230.38
369.23	230.39
369.61	230.33
369.99	230.36
370.37	230.39
370.75	230.50
371.13	230.46
371.51	230.41
371.89	230.41
372.27	230.40
372.65	230.37
373.03	230.33
373.41	230.27
373.78	230.23
374.16	230.11
374.54	230.02
374.92	229.96
375.30	229.91
375.68	229.85
376.06	229.81
376.44	229.75
376.82	229.72
377.19	229.68
377.57	229.62
377.95	229.52
378.33	229.45
378.71	229.24
379.09	229.21
379.47	229.19
379.84	229.12
380.22	229.04
380.60	228.97
380.98	228.92
381.36	228.84
381.73	228.78
382.11	228.74
382.49	228.71
382.87	228.63
383.25	228.58
383.62	228.75
384.00	228.67
384.38	228.64
384.76	228.64
385.13	228.65
385.51	228.63
385.89	228.57
386.27	228.55
386.64	228.55
387.02	228.49
387.40	228.45
387.78	228.45
388.15	228.44
388.53	228.42
388.91	228.39
389.29	228.38
389.66	228.40
390.04	228.36
390.42	228.37
390.79	228.39
391.17	228.38
391.55	228.18
391.92	228.19
392.30	228.21
392.68	228.16
393.05	228.14
393.43	228.13
393.81	228.16
394.18	228.13
394.56	228.13
394.94	228.17
395.31	228.17
395.69	228.23
396.06	228.29
396.44	228.35
396.82	228.38
397.19	228.51
397.57	228.53
397.95	228.61
398.32	228.60
398.70	228.66
399.07	228.76
399.45	228.82
399.82	228.89
400.20	228.95
400.58	229.06
400.95	229.08
401.33	229.22
401.70	229.45
402.08	229.59
402.45	229.73
402.83	229.91
403.20	230.09
403.58	230.22
403.95	230.41
404.33	230.62
404.71	230.84
405.08	231.15
405.46	231.40
405.83	231.68
406.21	231.98
406.58	232.33
406.96	232.64
407.33	233.01
407.70	233.41
408.08	233.99
408.45	234.49
408.83	235.05
409.20	235.56
409.58	236.03
409.95	236.65
410.33	237.34
410.70	237.96
411.08	238.70
411.45	239.51
411.82	240.32
412.20	241.24
412.57	242.33
412.95	243.22
413.32	244.35
413.69	245.50
414.07	246.75
414.44	248.11
414.82	249.53
415.19	251.16
415.56	252.82
415.94	254.54
416.31	256.48
416.68	258.43
417.06	260.68
417.43	262.79
417.81	265.23
418.18	267.70
418.55	270.43
418.93	273.24
419.30	276.19
419.67	279.32
420.04	282.55
420.42	285.91
420.79	289.82
421.16	293.75
421.54	297.73
421.91	301.90
422.28	306.22
422.66	310.85
423.03	315.29
423.40	319.95
423.77	324.92
424.15	330.00
424.52	335.26
424.89	340.97
425.26	346.63
425.64	351.89
426.01	357.82
426.38	363.87
426.75	370.11
427.13	376.48
427.50	383.11
427.87	389.98
428.24	396.96
428.61	403.59
428.99	410.77
429.36	418.66
429.73	426.18
430.10	433.67
430.47	441.36
430.85	449.26
431.22	457.73
431.59	466.41
431.96	474.88
432.33	484.27
432.70	493.23
433.08	503.84
433.45	513.84
433.82	523.69
434.19	534.74
434.56	545.58
434.93	556.10
435.30	566.56
435.68	578.48
436.05	590.04
436.42	601.67
436.79	612.25
437.16	623.73
437.53	636.08
437.90	648.44
438.27	660.55
438.64	673.61
439.01	685.43
439.38	696.38
439.75	706.95
440.13	718.99
440.50	730.45
440.87	739.59
441.24	749.62
441.61	760.64
441.98	768.69
442.35	778.36
442.72	788.20
443.09	797.52
443.46	803.62
443.83	808.34
444.20	812.20
444.57	817.87
444.94	821.30
445.31	824.72
445.68	827.68
446.05	829.93
446.42	829.72
446.79	829.34
447.16	828.91
447.53	828.57
447.90	825.09
448.27	821.70
448.64	816.37
449.01	812.73
449.37	805.17
449.74	798.39
450.11	789.52
450.48	779.77
450.85	770.04
451.22	761.62
451.59	753.30
451.96	745.84
452.33	734.91
452.70	725.20
453.07	713.47
453.43	701.77
453.80	690.32
454.17	679.35
454.54	669.14
454.91	657.74
455.28	646.95
455.65	636.75
456.02	625.97
456.38	617.35
456.75	606.25
457.12	597.26
457.49	588.21
457.86	579.62
458.23	572.08
458.59	563.74
458.96	555.22
459.33	547.72
459.70	540.04
460.07	534.23
460.43	527.36
460.80	520.90
461.17	515.25
461.54	509.18
461.91	503.54
462.27	497.78
462.64	493.04
463.01	487.64
463.38	482.20
463.74	477.32
464.11	472.98
464.48	469.06
464.85	464.84
465.21	461.56
465.58	457.96
465.95	453.88
466.32	450.63
466.68	447.43
467.05	444.18
467.42	441.05
467.78	437.68
468.15	434.56
468.52	432.31
468.88	429.33
469.25	426.63
469.62	424.43
469.98	422.09
470.35	419.97
470.72	418.08
471.08	416.17
471.45	414.52
471.82	412.70
472.18	410.77
472.55	409.53
472.92	408.01
473.28	406.83
473.65	405.51
474.02	404.28
474.38	403.21
474.75	402.59
475.11	401.72
475.48	401.32
475.85	400.92
476.21	400.66
476.58	400.48
476.94	400.65
477.31	400.69
477.67	400.80
478.04	401.11
478.41	401.50
478.77	402.09
479.14	402.47
479.50	403.23
479.87	404.26
480.23	405.24
480.60	406.19
480.96	407.15
481.33	408.63
481.69	410.04
482.06	411.45
482.42	412.77
482.79	414.39
483.15	416.25
483.52	418.35
483.88	420.36
484.25	422.47
484.61	424.74
484.98	427.19
485.34	429.89
485.71	432.73
486.07	435.80
486.44	438.80
486.80	442.22
487.17	445.70
487.53	449.47
487.90	453.40
488.26	457.68
488.62	462.19
488.99	466.68
489.35	471.41
489.72	476.54
490.08	481.91
490.44	487.41
490.81	493.09
491.17	498.95
491.54	505.25
491.90	511.70
492.26	518.54
492.63	525.67
492.99	533.17
493.36	540.81
493.72	548.87
494.08	557.11
494.45	565.71
494.81	574.66
495.17	583.91
495.54	593.65
495.90	603.81
496.26	614.16
496.63	624.76
496.99	635.82
497.35	647.32
497.72	659.11
498.08	671.27
498.44	683.75
498.80	696.93
499.17	710.38
499.53	724.26
499.89	738.60
500.26	753.06
500.62	767.90
500.98	783.59
501.34	799.27
501.71	815.76
502.07	832.48
502.43	849.69
502.79	867.03
503.16	884.93
503.52	903.03
503.88	921.54
504.24	940.53
504.60	959.72
504.97	979.47
505.33	999.70
505.69	1020.91
506.05	1042.28
506.41	1063.52
506.78	1084.95
507.14	1106.99
507.50	1129.48
507.86	1152.42
508.22	1175.42
508.59	1198.22
508.95	1222.11
509.31	1246.35
509.67	1271.31
510.03	1296.21
510.39	1320.92
510.75	1345.84
511.12	1371.04
511.48	1396.29
511.84	1421.53
512.20	1446.95
512.56	1473.33
512.92	1499.61
513.28	1525.31
513.64	1551.39
514.00	1577.69
514.37	1604.27
514.73	1630.84
515.09	1656.64
515.45	1682.73
515.81	1708.99
516.17	1734.91
516.53	1760.09
516.89	1785.30
517.25	1810.67
517.61	1835.85
517.97	1861.57
518.33	1886.48
518.69	1911.41
519.05	1936.65
519.41	1961.88
519.77	1987.15
520.13	2011.16
520.49	2035.17
520.85	2059.53
521.21	2083.28
521.57	2107.35
521.93	2130.32
522.29	2153.95
522.65	2177.28
523.01	2200.35
523.37	2222.91
523.73	2246.13
524.09	2268.99
524.45	2291.43
524.81	2313.26
525.17	2334.70
525.53	2355.61
525.89	2377.02
526.25	2397.71
526.61	2417.09
526.97	2436.45
527.33	2455.69
527.68	2474.36
528.04	2492.61
528.40	2509.47
528.76	2526.72
529.12	2543.41
529.48	2560.69
529.84	2575.46
530.20	2590.74
530.56	2605.04
530.91	2619.40
531.27	2633.10
531.63	2646.07
531.99	2658.48
532.35	2670.52
532.71	2682.17
533.07	2694.11
533.42	2704.19
533.78	2714.71
534.14	2725.99
534.50	2736.11
534.86	2746.82
535.21	2755.44
535.57	2763.85
535.93	2772.41
536.29	2779.41
536.65	2786.17
537.00	2791.09
537.36	2797.08
537.72	2802.06
538.08	2806.60
538.44	2809.88
538.79	2813.28
539.15	2815.43
539.51	2817.32
539.87	2818.07
540.22	2817.12
540.58	2816.22
540.94	2816.13
541.29	2815.04
541.65	2812.30
542.01	2809.46
542.37	2804.98
542.72	2802.38
543.08	2798.06
543.44	2793.80
543.79	2788.56
544.15	2782.85
544.51	2777.78
544.87	2771.49
545.22	2764.47
545.58	2757.24
545.94	2750.36
546.29	2742.13
546.65	2733.96
547.01	2725.46
547.36	2717.32
547.72	2709.58
548.07	2700.35
548.43	2690.07
548.79	2679.27
549.14	2669.07
549.50	2658.99
549.86	2648.19
550.21	2635.55
550.57	2624.08
550.92	2610.76
551.28	2598.13
551.64	2585.85
551.99	2573.21
552.35	2560.33
552.70	2547.26
553.06	2534.78
553.41	2521.98
553.77	2508.45
554.13	2495.06
554.48	2480.93
554.84	2466.13
555.19	2452.01
555.55	2437.75
555.90	2423.63
556.26	2410.12
556.61	2395.57
556.97	2379.86
557.32	2364.40
557.68	2349.29
558.03	2333.95
558.39	2319.56
558.74	2305.71
559.10	2290.02
559.45	2274.77
559.81	2260.30
560.16	2245.47
560.52	2230.40
560.87	2215.42
561.23	2200.18
561.58	2185.41
561.94	2170.21
562.29	2154.74
562.64	2139.21
563.00	2123.90
563.35	2108.96
563.71	2093.48
564.06	2078.15
564.42	2063.37
564.77	2048.64
565.12	2033.95
565.48	2019.13
565.83	2004.52
566.19	1989.99
566.54	1975.73
566.89	1960.64
567.25	1945.26
567.60	1930.74
567.96	1915.62
568.31	1899.23
568.66	1883.84
569.02	1869.00
569.37	1854.71
569.72	1840.86
570.08	1826.65
570.43	1811.92
570.78	1796.91
571.14	1781.82
571.49	1766.85
571.84	1752.34
572.20	1736.85
572.55	1721.90
572.90	1706.83
573.26	1691.81
573.61	1676.06
573.96	1660.83
574.31	1645.77
574.67	1630.70
575.02	1615.32
575.37	1599.91
575.72	1585.18
576.08	1570.52
576.43	1555.22
576.78	1540.10
577.13	1525.04
577.49	1510.32
577.84	1495.98
578.19	1481.19
578.54	1466.44
578.90	1451.69
579.25	1436.83
579.60	1423.00
579.95	1408.96
580.30	1394.95
580.66	1380.68
581.01	1366.69
581.36	1352.80
581.71	1339.40
582.06	1325.94
582.42	1312.33
582.77	1299.24
583.12	1286.46
583.47	1273.45
583.82	1260.76
584.17	1247.67
584.53	1234.67
584.88	1221.93
585.23	1209.05
585.58	1196.61
585.93	1184.20
586.28	1172.57
586.63	1160.76
586.98	1148.72
587.34	1137.02
587.69	1125.14
588.04	1113.63
588.39	1102.39
588.74	1090.79
589.09	1079.37
589.44	1067.70
589.79	1056.61
590.14	1045.51
590.49	1034.51
590.84	1023.83
591.19	1013.19
591.54	1002.68
591.89	991.89
592.25	981.36
592.60	970.76
592.95	960.39
593.30	950.20
593.65	939.77
594.00	929.64
594.35	920.33
594.70	910.44
595.05	901.22
595.40	891.78
595.75	882.13
596.10	872.98
596.45	863.88
596.80	855.15
597.15	846.43
597.50	837.75
597.85	829.32
598.19	820.78
598.54	812.26
598.89	804.15
599.24	796.45
599.59	788.63
599.94	781.40
600.29	774.05
600.64	766.68
600.99	759.24
601.34	752.00
601.69	744.23
602.04	737.25
602.39	730.14
602.74	723.25
603.08	716.49
603.43	709.74
603.78	703.00
604.13	696.35
604.48	689.76
604.83	683.36
605.18	676.99
605.53	670.80
605.87	664.63
606.22	658.52
606.57	652.38
606.92	646.15
607.27	639.94
607.62	634.01
607.96	628.25
608.31	622.83
608.66	617.33
609.01	612.09
609.36	606.85
609.70	601.57
610.05	596.29
610.40	591.20
610.75	586.14
611.10	581.25
611.44	576.36
611.79	571.59
612.14	566.75
612.49	561.96
612.83	557.40
613.18	552.92
613.53	548.48
613.88	544.14
614.22	540.07
614.57	535.92
614.92	531.85
615.27	527.92
615.61	523.97
615.96	520.07
616.31	516.13
616.65	512.31
617.00	508.63
617.35	504.99
617.70	501.39
618.04	497.85
618.39	494.37
618.74	491.12
619.08	487.86
619.43	484.65
619.78	481.50
620.12	478.28
620.47	475.28
620.82	472.30
621.16	469.35
621.51	466.48
621.85	463.66
622.20	460.88
622.55	458.05
622.89	455.31
623.24	452.72
623.59	450.21
623.93	447.73
624.28	445.35
624.62	443.18
624.97	441.01
625.32	438.74
625.66	436.48
626.01	434.15
626.35	431.95
626.70	429.75
627.04	427.70
627.39	425.62
627.73	423.59
628.08	421.67
628.43	419.74
628.77	417.74
629.12	415.84
629.46	413.98
629.81	412.30
630.15	410.52
630.50	408.73
630.84	407.00
631.19	405.31
631.53	403.71
631.88	401.92
632.22	400.22
632.57	398.81
632.91	397.36
633.26	396.00
633.60	394.63
633.95	393.31
634.29	391.88
634.64	390.54
634.98	389.04
635.32	387.70
635.67	386.46
636.01	385.26
636.36	384.08
636.70	383.03
637.05	381.79
637.39	380.69
637.73	379.60
638.08	378.56
638.42	377.56
638.77	376.40
639.11	375.22
639.45	374.08
639.80	372.90
640.14	371.80
640.49	370.67
640.83	369.53
641.17	368.45
641.52	367.38
641.86	366.35
642.20	365.49
642.55	364.47
642.89	363.45
643.23	362.48
643.58	361.62
643.92	360.61
644.26	359.68
644.61	358.81
644.95	357.88
645.29	356.87
645.64	355.84
645.98	354.93
646.32	354.13
646.66	353.28
647.01	352.43
647.35	351.68
647.69	350.90
648.04	350.19
648.38	349.40
648.72	348.68
649.06	347.90
649.41	347.08
649.75	346.32
650.09	345.61
650.43	344.85
650.78	344.07
651.12	343.32
651.46	342.58
651.80	341.83
652.14	341.14
652.49	340.54
652.83	339.87
653.17	339.18
653.51	338.49
653.85	337.92
654.20	337.30
654.54	336.56
654.88	335.87
655.22	335.23
655.56	334.56
655.90	333.91
656.25	333.26
656.59	332.64
656.93	332.04
657.27	331.50
657.61	330.89
657.95	330.34
658.29	329.78
658.64	329.24
658.98	328.66
659.32	328.08
659.66	327.53
660.00	327.03
660.34	326.53
660.68	325.96
661.02	325.31
661.36	324.72
661.70	324.19
662.05	323.66
662.39	323.13
662.73	322.69
663.07	322.26
663.41	321.80
663.75	321.30
664.09	320.79
664.43	320.15
664.77	319.64
665.11	319.05
665.45	318.51
665.79	318.00
666.13	317.45
666.47	316.90
666.81	316.33
667.15	315.73
667.49	315.23
667.83	314.79
668.17	314.33
668.51	313.92
668.85	313.51
669.19	313.15
669.53	312.61
669.87	312.05
670.21	311.52
670.55	311.03
670.89	310.63
671.23	310.19
671.57	309.81
671.91	309.42
672.25	309.07
672.58	308.72
672.92	308.28
673.26	307.94
673.60	307.56
673.94	307.20
674.28	306.85
674.62	306.47
674.96	306.04
675.30	305.67
675.64	305.22
675.97	304.74
676.31	304.22
676.65	303.79
676.99	303.46
677.33	303.00
677.67	302.58
678.01	302.10
678.34	301.67
678.68	301.27
679.02	300.83
679.36	300.38
679.70	299.91
680.04	299.49
680.37	299.05
680.71	298.66
681.05	298.25
681.39	297.81
681.73	297.35
682.06	296.91
682.40	296.48
682.74	296.12
683.08	295.83
683.42	295.44
683.75	295.09
684.09	294.62
684.43	294.25
684.77	293.82
685.10	293.43
685.44	293.04
685.78	292.63
686.12	292.22
686.45	291.79
686.79	291.37
687.13	290.96
687.46	290.52
687.80	290.11
688.14	289.63
688.48	289.21
688.81	288.77
689.15	288.42
689.49	287.98
689.82	287.53
690.16	286.98
690.50	286.56
690.83	286.11
691.17	285.66
691.51	285.24
691.84	284.88
692.18	284.45
692.52	283.99
692.85	283.55
693.19	283.19
693.52	282.77
693.86	282.34
694.20	281.92
694.53	281.50
694.87	281.05
695.21	280.61
695.54	280.18
695.88	279.78
696.21	279.28
696.55	278.86
696.88	278.44
697.22	278.02
697.56	277.61
697.89	277.15
698.23	276.74
698.56	276.29
698.90	275.89
699.23	275.45
699.57	275.05
699.90	274.65
700.24	274.20
700.58	273.81
700.91	273.47
701.25	273.24
701.58	272.95
701.92	272.63
702.25	272.26
702.59	271.88
702.92	271.48
703.26	271.09
703.59	270.70
703.93	270.47
704.26	270.12
704.60	269.74
704.93	269.37
705.26	268.97
705.60	268.65
705.93	268.21
706.27	267.92
706.60	267.61
706.94	267.31
707.27	266.93
707.61	266.59
707.94	266.19
708.27	265.65
708.61	265.20
708.94	264.79
709.28	264.44
709.61	264.08
709.94	263.76
710.28	263.46
710.61	263.15
710.95	262.67
711.28	262.45
711.61	262.12
711.95	261.84
712.28	261.51
712.61	261.17
712.95	260.96
713.28	260.69
713.61	260.34
713.95	259.97
714.28	259.66
714.61	259.32
714.95	259.01
715.28	258.70
715.61	258.42
715.95	258.16
716.28	257.84
716.61	257.59
716.95	257.27
717.28	256.99
717.61	256.68
717.94	256.39
718.28	256.00
718.61	255.71
718.94	255.41
719.27	255.15
719.61	254.91
719.94	254.61
720.27	254.25
720.60	253.99
720.94	253.73
721.27	253.49
721.60	253.27
721.93	253.02
722.27	252.82
722.60	252.59
722.93	252.32
723.26	252.11
723.59	251.84
723.93	251.64
724.26	251.43
724.59	251.20
724.92	250.99
725.25	250.81
725.59	250.60
725.92	250.42
726.25	250.21
726.58	249.98
726.91	249.76
727.24	249.58
727.57	249.35
727.91	249.12
728.24	248.92
728.57	248.70
728.90	248.52
729.23	248.26
729.56	248.17
729.89	247.96
730.22	247.75
730.55	247.56
730.89	247.35
731.22	247.14
731.55	246.93
731.88	246.76
732.21	246.53
732.54	246.33
732.87	246.13
733.20	245.96
733.53	245.77
733.86	245.62
734.19	245.44
734.52	245.29
734.85	245.24
735.18	245.03
735.51	244.93
735.84	244.77
736.17	244.67
736.50	244.39
736.83	244.44
737.16	244.29
737.49	244.14
737.82	243.98
738.15	243.83
738.48	243.67
738.81	243.51
739.14	243.34
739.47	243.18
739.80	243.02
740.13	242.87
740.46	242.71
740.79	242.52
741.12	242.34
741.45	242.18
741.78	241.93
742.11	241.83
742.44	241.62
742.77	241.49
743.10	241.30
743.43	241.15
743.75	240.82
744.08	240.93
744.41	240.77
744.74	240.62
745.07	240.44
745.40	240.34
745.73	240.27
746.06	240.14
746.39	240.06
746.71	239.91
747.04	239.76
747.37	239.63
747.70	239.53
748.03	239.41
748.36	239.31
748.68	239.19
749.01	239.03
749.34	238.92
749.67	238.79
750.00	238.70
750.33	238.70
750.65	238.61
750.98	238.25
751.31	238.14
751.64	238.04
751.97	238.05
752.29	237.94
752.62	237.74
752.95	237.62
753.28	237.47
753.60	237.37
753.93	237.30
754.26	237.21
754.59	237.04
754.91	236.93
755.24	236.80
755.57	236.71
755.90	236.61
756.22	236.50
756.55	236.39
756.88	236.26
757.20	236.04
757.53	235.89
757.86	235.79
758.19	235.71
758.51	235.62
758.84	235.42
759.17	235.31
759.49	235.24
759.82	235.24
760.15	235.17
760.47	235.09
760.80	234.94
761.13	234.89
761.45	234.81
761.78	234.72
762.11	234.65
762.43	234.55
762.76	234.44
763.08	234.37
763.41	234.29
763.74	234.22
764.06	234.15
764.39	234.06
764.71	233.98
765.04	233.88
765.37	233.79
765.69	233.71
766.02	233.64
766.34	233.55
766.67	233.41
767.00	233.36
767.32	233.38
767.65	233.42
767.97	233.34
768.30	233.30
768.62	233.24
768.95	233.15
769.27	233.09
769.60	233.08
769.92	233.00
770.25	232.91
770.57	232.83
770.90	232.76
771.22	232.72
771.55	232.67
771.87	232.64
772.20	232.59
772.52	232.69
772.85	232.86
773.17	232.82
773.50	232.75
773.82	232.69
774.15	232.55
774.47	232.41
774.80	232.32
775.12	232.26
775.45	232.21
775.77	232.18
776.09	232.15
776.42	232.07
776.74	232.08
777.07	232.04
777.39	232.00
777.72	231.94
778.04	231.90
778.36	231.85
778.69	231.80
779.01	231.77
779.33	231.56
779.66	231.32
779.98	231.28
780.31	231.25
780.63	231.28
780.95	231.27
781.28	231.22
781.60	231.17
781.92	231.15
782.25	231.11
782.57	231.07
782.89	231.02
783.22	230.99
783.54	230.93
783.86	230.90
784.19	230.88
784.51	230.92
784.83	230.87
785.16	230.83
785.48	230.81
785.80	230.78
786.12	230.76
786.45	230.73
786.77	230.71
787.09	230.69
787.42	230.58
787.74	230.56
788.06	230.55
788.38	230.54
788.71	230.49
789.03	230.46
789.35	230.44
789.67	230.41
789.99	230.39
790.32	230.34
790.64	230.34
790.96	230.47
791.28	230.37
791.61	230.34
791.93	230.32
792.25	230.29
792.57	230.40
792.89	230.35
793.21	230.33
793.54	230.29
793.86	230.24
794.18	230.24
794.50	230.20
794.82	230.17
795.14	230.17
795.47	230.20
795.79	230.19
796.11	230.14
796.43	230.10
796.75	230.09
797.07	230.06
797.39	230.02
797.71	229.84
798.04	229.83
798.36	229.82
798.68	229.82
799.00	229.80
799.32	229.69
799.64	229.71
799.96	229.69
800.28	229.71
800.60	229.68
800.92	229.68
801.24	229.63
801.56	229.63
801.89	229.58
802.21	229.56
802.53	229.51
802.85	229.53
803.17	229.61
803.49	229.56
803.81	229.55
804.13	229.53
804.45	229.50
804.77	229.53
805.09	229.51
805.41	229.46
805.73	229.41
806.05	229.34
806.37	229.29
806.69	229.26
807.01	229.22
807.33	229.22
807.65	229.14
807.97	229.22
808.28	229.18
808.60	229.16
808.92	229.12
809.24	229.22
809.56	229.17
809.88	229.09
810.20	229.07
810.52	229.10
810.84	229.05
811.16	229.04
811.48	228.98
811.80	229.03
812.12	229.01
812.43	229.05
812.75	229.04
813.07	229.01
813.39	229.01
813.71	228.97
814.03	228.93
814.35	228.92
814.67	228.82
814.98	228.80
815.30	228.78
815.62	228.74
815.94	228.62
816.26	228.64
816.58	228.59
816.89	228.61
817.21	228.53
817.53	228.55
817.85	228.54
818.17	228.52
818.48	228.43
818.80	228.46
