SpectraSuite Data File
++++++++++++++++++++++++++++++++++++
Date: Tue Oct 06 16:22:59 EDT 2015
User: lab3
Dark Spectrum Present: No
Reference Spectrum Present: No
Number of Sampled Component Spectra: 1
Spectrometers: USB2E7196
Integration Time (usec): 66000 (USB2E7196)
Spectra Averaged: 1000 (USB2E7196)
Boxcar Smoothing: 10 (USB2E7196)
Correct for Electrical Dark: No (USB2E7196)
Strobe/Lamp Enabled: No (USB2E7196)
Correct for Detector Non-linearity: No (USB2E7196)
Correct for Stray Light: No (USB2E7196)
Number of Pixels in Processed Spectrum: 2048
>>>>>Begin Processed Spectral Data<<<<<
339.09	0.00
339.48	215.58
339.86	217.10
340.24	218.45
340.63	219.96
341.01	223.92
341.39	222.54
341.78	223.98
342.16	225.46
342.54	225.77
342.93	214.13
343.31	224.93
343.69	225.48
344.07	225.94
344.46	226.39
344.84	226.79
345.22	226.99
345.60	227.27
345.99	227.47
346.37	227.62
346.75	227.73
347.13	227.82
347.52	227.92
347.90	228.03
348.28	228.07
348.66	228.15
349.05	228.13
349.43	228.20
349.81	228.26
350.19	228.34
350.57	228.40
350.96	228.50
351.34	228.62
351.72	228.71
352.10	228.82
352.48	228.89
352.87	228.93
353.25	229.00
353.63	229.06
354.01	229.11
354.39	229.19
354.77	229.27
355.15	229.39
355.54	229.42
355.92	229.43
356.30	229.51
356.68	229.69
357.06	229.77
357.44	229.81
357.82	229.87
358.20	230.07
358.58	230.13
358.97	230.19
359.35	230.29
359.73	230.38
360.11	230.45
360.49	230.51
360.87	230.56
361.25	230.64
361.63	230.73
362.01	230.79
362.39	230.81
362.77	230.85
363.15	230.86
363.53	230.90
363.91	230.93
364.29	230.96
364.67	230.80
365.05	230.84
365.43	230.88
365.81	230.92
366.19	230.88
366.57	230.96
366.95	230.96
367.33	230.91
367.71	230.91
368.09	230.93
368.47	230.93
368.85	230.91
369.23	230.93
369.61	230.86
369.99	230.90
370.37	230.92
370.75	231.05
371.13	231.01
371.51	230.96
371.89	230.96
372.27	230.94
372.65	230.93
373.03	230.87
373.41	230.82
373.78	230.77
374.16	230.63
374.54	230.54
374.92	230.48
375.30	230.44
375.68	230.37
376.06	230.33
376.44	230.27
376.82	230.24
377.19	230.19
377.57	230.15
377.95	230.04
378.33	229.98
378.71	229.77
379.09	229.73
379.47	229.71
379.84	229.65
380.22	229.58
380.60	229.50
380.98	229.46
381.36	229.41
381.73	229.34
382.11	229.34
382.49	229.31
382.87	229.25
383.25	229.21
383.62	229.38
384.00	229.31
384.38	229.28
384.76	229.28
385.13	229.28
385.51	229.24
385.89	229.19
386.27	229.15
386.64	229.16
387.02	229.10
387.40	229.06
387.78	229.04
388.15	229.03
388.53	229.00
388.91	228.98
389.29	228.95
389.66	228.95
390.04	228.91
390.42	228.91
390.79	228.91
391.17	228.90
391.55	228.68
391.92	228.68
392.30	228.70
392.68	228.65
393.05	228.63
393.43	228.65
393.81	228.68
394.18	228.67
394.56	228.67
394.94	228.73
395.31	228.73
395.69	228.81
396.06	228.86
396.44	228.91
396.82	228.95
397.19	229.09
397.57	229.11
397.95	229.19
398.32	229.19
398.70	229.26
399.07	229.35
399.45	229.42
399.82	229.49
400.20	229.54
400.58	229.64
400.95	229.67
401.33	229.79
401.70	230.01
402.08	230.16
402.45	230.28
402.83	230.47
403.20	230.64
403.58	230.77
403.95	230.98
404.33	231.20
404.71	231.41
405.08	231.71
405.46	231.97
405.83	232.25
406.21	232.55
406.58	232.88
406.96	233.21
407.33	233.58
407.70	234.01
408.08	234.59
408.45	235.09
408.83	235.64
409.20	236.15
409.58	236.62
409.95	237.24
410.33	237.93
410.70	238.58
411.08	239.33
411.45	240.14
411.82	240.96
412.20	241.89
412.57	243.00
412.95	243.89
413.32	245.03
413.69	246.21
414.07	247.47
414.44	248.84
414.82	250.24
415.19	251.88
415.56	253.55
415.94	255.30
416.31	257.26
416.68	259.22
417.06	261.48
417.43	263.60
417.81	266.05
418.18	268.54
418.55	271.25
418.93	274.09
419.30	277.05
419.67	280.20
420.04	283.44
420.42	286.80
420.79	290.69
421.16	294.63
421.54	298.60
421.91	302.76
422.28	307.10
422.66	311.75
423.03	316.19
423.40	320.83
423.77	325.78
424.15	330.86
424.52	336.11
424.89	341.82
425.26	347.47
425.64	352.71
426.01	358.60
426.38	364.61
426.75	370.81
427.13	377.13
427.50	383.74
427.87	390.60
428.24	397.55
428.61	404.20
428.99	411.34
429.36	419.18
429.73	426.69
430.10	434.15
430.47	441.80
430.85	449.70
431.22	458.12
431.59	466.77
431.96	475.18
432.33	484.54
432.70	493.44
433.08	503.99
433.45	513.94
433.82	523.74
434.19	534.73
434.56	545.53
434.93	556.04
435.30	566.44
435.68	578.24
436.05	589.75
436.42	601.28
436.79	611.84
437.16	623.30
437.53	635.54
437.90	647.82
438.27	659.86
438.64	672.86
439.01	684.69
439.38	695.53
439.75	706.02
440.13	717.98
440.50	729.39
440.87	738.51
441.24	748.54
441.61	759.53
441.98	767.65
442.35	777.34
442.72	787.16
443.09	796.51
443.46	802.66
443.83	807.38
444.20	811.31
444.57	816.98
444.94	820.39
445.31	823.93
445.68	826.98
446.05	829.34
446.42	829.19
446.79	828.83
447.16	828.57
447.53	828.39
447.90	825.04
448.27	821.82
448.64	816.65
449.01	813.16
449.37	805.75
449.74	799.03
450.11	790.28
450.48	780.66
450.85	771.02
451.22	762.72
451.59	754.54
451.96	747.13
452.33	736.31
452.70	726.73
453.07	715.05
453.43	703.41
453.80	692.02
454.17	681.14
454.54	671.06
454.91	659.65
455.28	648.89
455.65	638.76
456.02	628.00
456.38	619.34
456.75	608.26
457.12	599.29
457.49	590.25
457.86	581.68
458.23	574.12
458.59	565.80
458.96	557.26
459.33	549.74
459.70	542.10
460.07	536.26
460.43	529.36
460.80	522.92
461.17	517.30
461.54	511.25
461.91	505.56
462.27	499.80
462.64	495.08
463.01	489.68
463.38	484.20
463.74	479.30
464.11	474.93
464.48	470.99
464.85	466.74
465.21	463.48
465.58	459.86
465.95	455.77
466.32	452.52
466.68	449.33
467.05	446.10
467.42	442.97
467.78	439.63
468.15	436.55
468.52	434.28
468.88	431.28
469.25	428.53
469.62	426.34
469.98	423.96
470.35	421.84
470.72	419.92
471.08	418.02
471.45	416.39
471.82	414.59
472.18	412.67
472.55	411.44
472.92	409.90
473.28	408.70
473.65	407.38
474.02	406.14
474.38	405.08
474.75	404.48
475.11	403.62
475.48	403.22
475.85	402.77
476.21	402.51
476.58	402.31
476.94	402.50
477.31	402.54
477.67	402.62
478.04	402.93
478.41	403.37
478.77	403.96
479.14	404.34
479.50	405.15
479.87	406.15
480.23	407.14
480.60	408.08
480.96	409.04
481.33	410.51
481.69	411.93
482.06	413.33
482.42	414.61
482.79	416.22
483.15	418.10
483.52	420.23
483.88	422.24
484.25	424.39
484.61	426.63
484.98	429.07
485.34	431.78
485.71	434.63
486.07	437.70
486.44	440.69
486.80	444.07
487.17	447.54
487.53	451.30
487.90	455.25
488.26	459.55
488.62	464.05
488.99	468.54
489.35	473.25
489.72	478.34
490.08	483.68
490.44	489.15
490.81	494.84
491.17	500.69
491.54	506.96
491.90	513.40
492.26	520.23
492.63	527.39
492.99	534.88
493.36	542.51
493.72	550.52
494.08	558.73
494.45	567.31
494.81	576.28
495.17	585.50
495.54	595.25
495.90	605.41
496.26	615.76
496.63	626.41
496.99	637.45
497.35	648.98
497.72	660.81
498.08	672.95
498.44	685.37
498.80	698.51
499.17	711.93
499.53	725.80
499.89	740.08
500.26	754.57
500.62	769.39
500.98	785.04
501.34	800.69
501.71	817.16
502.07	833.90
502.43	851.11
502.79	868.49
503.16	886.35
503.52	904.39
503.88	922.82
504.24	941.67
504.60	960.79
504.97	980.47
505.33	1000.59
505.69	1021.73
506.05	1043.12
506.41	1064.33
506.78	1085.73
507.14	1107.69
507.50	1130.02
507.86	1152.72
508.22	1175.64
508.59	1198.39
508.95	1222.20
509.31	1246.42
509.67	1271.23
510.03	1295.90
510.39	1320.55
510.75	1345.24
511.12	1370.32
511.48	1395.49
511.84	1420.63
512.20	1446.11
512.56	1472.58
512.92	1498.81
513.28	1524.43
513.64	1550.40
514.00	1576.64
514.37	1603.13
514.73	1629.61
515.09	1655.40
515.45	1681.49
515.81	1707.69
516.17	1733.55
516.53	1758.79
516.89	1783.96
517.25	1809.35
517.61	1834.50
517.97	1860.24
518.33	1885.29
518.69	1910.18
519.05	1935.48
519.41	1960.93
519.77	1986.21
520.13	2010.05
520.49	2034.04
520.85	2058.35
521.21	2081.97
521.57	2105.88
521.93	2128.79
522.29	2152.27
522.65	2175.65
523.01	2198.68
523.37	2220.95
523.73	2243.95
524.09	2266.68
524.45	2288.81
524.81	2310.41
525.17	2331.67
525.53	2352.32
525.89	2373.25
526.25	2393.83
526.61	2412.87
526.97	2431.89
527.33	2450.81
527.68	2469.27
528.04	2487.31
528.40	2504.00
528.76	2521.06
529.12	2537.74
529.48	2554.80
529.84	2569.20
530.20	2583.96
530.56	2597.82
530.91	2611.97
531.27	2625.57
531.63	2638.10
531.99	2650.56
532.35	2662.50
532.71	2674.10
533.07	2685.89
533.42	2695.88
533.78	2706.12
534.14	2717.21
534.50	2727.20
534.86	2737.58
535.21	2746.12
535.57	2754.43
535.93	2762.67
536.29	2769.15
536.65	2775.37
537.00	2780.11
537.36	2786.29
537.72	2791.45
538.08	2796.09
538.44	2799.66
538.79	2802.92
539.15	2804.89
539.51	2806.13
539.87	2806.38
540.22	2805.11
540.58	2804.09
540.94	2804.01
541.29	2802.58
541.65	2799.92
542.01	2796.80
542.37	2792.27
542.72	2789.19
543.08	2784.54
543.44	2780.08
543.79	2775.09
544.15	2769.45
544.51	2764.14
544.87	2757.65
545.22	2750.33
545.58	2743.03
545.94	2735.89
546.29	2727.25
546.65	2718.92
547.01	2710.64
547.36	2702.67
547.72	2694.97
548.07	2685.60
548.43	2675.12
548.79	2664.57
549.14	2654.31
549.50	2644.23
549.86	2633.21
550.21	2620.65
550.57	2609.09
550.92	2595.92
551.28	2583.33
551.64	2570.95
551.99	2558.29
552.35	2545.28
552.70	2532.19
553.06	2519.50
553.41	2506.38
553.77	2493.07
554.13	2479.89
554.48	2465.66
554.84	2450.82
555.19	2436.49
555.55	2421.99
555.90	2407.94
556.26	2394.19
556.61	2379.33
556.97	2363.57
557.32	2348.27
557.68	2333.34
558.03	2318.20
558.39	2303.98
558.74	2290.23
559.10	2274.81
559.45	2259.69
559.81	2245.25
560.16	2230.44
560.52	2215.46
560.87	2200.61
561.23	2185.45
561.58	2170.74
561.94	2155.71
562.29	2140.16
562.64	2124.76
563.00	2109.59
563.35	2094.57
563.71	2079.19
564.06	2064.00
564.42	2049.31
564.77	2034.68
565.12	2019.82
565.48	2004.77
565.83	1989.99
566.19	1975.23
566.54	1960.75
566.89	1945.63
567.25	1930.39
567.60	1916.02
567.96	1900.83
568.31	1884.64
568.66	1869.50
569.02	1854.80
569.37	1840.64
569.72	1827.12
570.08	1813.11
570.43	1798.56
570.78	1783.86
571.14	1768.99
571.49	1754.21
571.84	1739.73
572.20	1724.23
572.55	1709.52
572.90	1694.85
573.26	1680.08
573.61	1664.69
573.96	1649.85
574.31	1634.95
574.67	1619.99
575.02	1604.72
575.37	1589.53
575.72	1575.06
576.08	1560.33
576.43	1545.03
576.78	1529.86
577.13	1514.87
577.49	1500.22
577.84	1485.95
578.19	1471.22
578.54	1456.61
578.90	1441.97
579.25	1427.26
579.60	1413.59
579.95	1399.65
580.30	1385.70
580.66	1371.51
581.01	1357.43
581.36	1343.49
581.71	1330.27
582.06	1317.00
582.42	1303.63
582.77	1290.72
583.12	1277.98
583.47	1265.13
583.82	1252.56
584.17	1239.60
584.53	1226.72
584.88	1214.06
585.23	1201.32
585.58	1188.95
585.93	1176.52
586.28	1165.01
586.63	1153.32
586.98	1141.31
587.34	1129.63
587.69	1117.83
588.04	1106.39
588.39	1095.22
588.74	1083.64
589.09	1072.25
589.44	1060.61
589.79	1049.47
590.14	1038.42
590.49	1027.44
590.84	1016.71
591.19	1006.19
591.54	995.81
591.89	985.02
592.25	974.65
592.60	964.11
592.95	953.76
593.30	943.69
593.65	933.34
594.00	923.31
594.35	914.11
594.70	904.29
595.05	895.02
595.40	885.58
595.75	876.00
596.10	867.04
596.45	858.03
596.80	849.31
597.15	840.67
597.50	832.04
597.85	823.56
598.19	815.10
598.54	806.66
598.89	798.68
599.24	791.09
599.59	783.29
599.94	776.10
600.29	768.91
600.64	761.61
600.99	754.22
601.34	746.99
601.69	739.33
602.04	732.46
602.39	725.50
602.74	718.71
603.08	712.09
603.43	705.41
603.78	698.71
604.13	692.15
604.48	685.61
604.83	679.25
605.18	673.01
605.53	666.90
605.87	660.76
606.22	654.71
606.57	648.61
606.92	642.42
607.27	636.26
607.62	630.31
607.96	624.61
608.31	619.28
608.66	613.93
609.01	608.78
609.36	603.60
609.70	598.38
610.05	593.22
610.40	588.20
610.75	583.18
611.10	578.37
611.44	573.54
611.79	568.81
612.14	564.01
612.49	559.31
612.83	554.82
613.18	550.39
613.53	545.96
613.88	541.68
614.22	537.71
614.57	533.65
614.92	529.67
615.27	525.82
615.61	521.87
615.96	517.97
616.31	514.07
616.65	510.31
617.00	506.67
617.35	503.06
617.70	499.45
618.04	495.96
618.39	492.54
618.74	489.34
619.08	486.14
619.43	483.03
619.78	479.86
620.12	476.73
620.47	473.78
620.82	470.87
621.16	467.97
621.51	465.13
621.85	462.31
622.20	459.54
622.55	456.72
622.89	453.97
623.24	451.38
623.59	448.83
623.93	446.38
624.28	444.04
624.62	441.89
624.97	439.75
625.32	437.49
625.66	435.23
626.01	432.94
626.35	430.77
626.70	428.53
627.04	426.47
627.39	424.37
627.73	422.36
628.08	420.41
628.43	418.47
628.77	416.45
629.12	414.57
629.46	412.77
629.81	411.09
630.15	409.35
630.50	407.60
630.84	405.90
631.19	404.23
631.53	402.62
631.88	400.84
632.22	399.16
632.57	397.76
632.91	396.32
633.26	394.95
633.60	393.58
633.95	392.30
634.29	390.91
634.64	389.57
634.98	388.08
635.32	386.77
635.67	385.58
636.01	384.39
636.36	383.23
636.70	382.17
637.05	380.94
637.39	379.85
637.73	378.75
638.08	377.74
638.42	376.73
638.77	375.60
639.11	374.46
639.45	373.33
639.80	372.15
640.14	371.06
640.49	369.96
640.83	368.84
641.17	367.77
641.52	366.74
641.86	365.74
642.20	364.89
642.55	363.85
642.89	362.83
643.23	361.88
643.58	361.03
643.92	360.02
644.26	359.10
644.61	358.22
644.95	357.29
645.29	356.28
645.64	355.27
645.98	354.36
646.32	353.55
646.66	352.69
647.01	351.85
647.35	351.10
647.69	350.31
648.04	349.61
648.38	348.83
648.72	348.11
649.06	347.34
649.41	346.54
649.75	345.78
650.09	345.07
650.43	344.32
650.78	343.55
651.12	342.82
651.46	342.08
651.80	341.37
652.14	340.70
652.49	340.10
652.83	339.41
653.17	338.73
653.51	338.07
653.85	337.51
654.20	336.89
654.54	336.14
654.88	335.46
655.22	334.83
655.56	334.15
655.90	333.50
656.25	332.88
656.59	332.26
656.93	331.70
657.27	331.17
657.61	330.57
657.95	330.01
658.29	329.43
658.64	328.89
658.98	328.29
659.32	327.71
659.66	327.16
660.00	326.65
660.34	326.12
660.68	325.54
661.02	324.90
661.36	324.32
661.70	323.77
662.05	323.24
662.39	322.69
662.73	322.22
663.07	321.81
663.41	321.34
663.75	320.82
664.09	320.30
664.43	319.68
664.77	319.16
665.11	318.58
665.45	318.06
665.79	317.56
666.13	317.03
666.47	316.50
666.81	315.94
667.15	315.35
667.49	314.91
667.83	314.49
668.17	314.03
668.51	313.61
668.85	313.20
669.19	312.83
669.53	312.31
669.87	311.79
670.21	311.23
670.55	310.73
670.89	310.34
671.23	309.91
671.57	309.52
671.91	309.17
672.25	308.83
672.58	308.51
672.92	308.07
673.26	307.73
673.60	307.35
673.94	306.98
674.28	306.63
674.62	306.24
674.96	305.79
675.30	305.40
675.64	304.94
675.97	304.50
676.31	304.02
676.65	303.60
676.99	303.27
677.33	302.84
677.67	302.46
678.01	301.98
678.34	301.55
678.68	301.15
679.02	300.69
679.36	300.25
679.70	299.79
680.04	299.39
680.37	298.99
680.71	298.60
681.05	298.24
681.39	297.82
681.73	297.35
682.06	296.93
682.40	296.53
682.74	296.18
683.08	295.89
683.42	295.50
683.75	295.16
684.09	294.70
684.43	294.30
684.77	293.88
685.10	293.49
685.44	293.11
685.78	292.72
686.12	292.31
686.45	291.91
686.79	291.46
687.13	291.06
687.46	290.61
687.80	290.20
688.14	289.72
688.48	289.31
688.81	288.90
689.15	288.57
689.49	288.16
689.82	287.72
690.16	287.19
690.50	286.75
690.83	286.32
691.17	285.87
691.51	285.46
691.84	285.08
692.18	284.65
692.52	284.19
692.85	283.75
693.19	283.40
693.52	282.97
693.86	282.57
694.20	282.13
694.53	281.72
694.87	281.27
695.21	280.85
695.54	280.43
695.88	280.00
696.21	279.51
696.55	279.07
696.88	278.64
697.22	278.22
697.56	277.83
697.89	277.36
698.23	276.98
698.56	276.55
698.90	276.14
699.23	275.70
699.57	275.33
699.90	274.91
700.24	274.46
700.58	274.09
700.91	273.74
701.25	273.51
701.58	273.21
701.92	272.88
702.25	272.52
702.59	272.14
702.92	271.76
703.26	271.38
703.59	270.99
703.93	270.76
704.26	270.41
704.60	270.04
704.93	269.69
705.26	269.30
705.60	268.98
705.93	268.58
706.27	268.28
706.60	267.97
706.94	267.69
707.27	267.31
707.61	266.93
707.94	266.53
708.27	266.02
708.61	265.59
708.94	265.19
709.28	264.85
709.61	264.49
709.94	264.17
710.28	263.84
710.61	263.52
710.95	263.05
711.28	262.83
711.61	262.48
711.95	262.19
712.28	261.86
712.61	261.50
712.95	261.28
713.28	261.01
713.61	260.64
713.95	260.25
714.28	259.94
714.61	259.62
714.95	259.32
715.28	259.01
715.61	258.73
715.95	258.46
716.28	258.14
716.61	257.89
716.95	257.59
717.28	257.32
717.61	257.04
717.94	256.76
718.28	256.36
718.61	256.07
718.94	255.77
719.27	255.50
719.61	255.26
719.94	254.97
720.27	254.63
720.60	254.38
720.94	254.13
721.27	253.89
721.60	253.67
721.93	253.41
722.27	253.21
722.60	252.96
722.93	252.70
723.26	252.48
723.59	252.20
723.93	252.00
724.26	251.76
724.59	251.53
724.92	251.32
725.25	251.16
725.59	250.96
725.92	250.77
726.25	250.54
726.58	250.33
726.91	250.09
727.24	249.90
727.57	249.68
727.91	249.44
728.24	249.27
728.57	249.05
728.90	248.87
729.23	248.61
729.56	248.50
729.89	248.31
730.22	248.09
730.55	247.90
730.89	247.69
731.22	247.49
731.55	247.30
731.88	247.12
732.21	246.90
732.54	246.70
732.87	246.51
733.20	246.36
733.53	246.17
733.86	246.01
734.19	245.82
734.52	245.67
734.85	245.63
735.18	245.44
735.51	245.31
735.84	245.16
736.17	245.07
736.50	244.81
736.83	244.86
737.16	244.72
737.49	244.57
737.82	244.41
738.15	244.27
738.48	244.11
738.81	243.95
739.14	243.77
739.47	243.61
739.80	243.45
740.13	243.31
740.46	243.14
740.79	242.97
741.12	242.82
741.45	242.64
741.78	242.40
742.11	242.30
742.44	242.12
742.77	241.98
743.10	241.80
743.43	241.65
743.75	241.32
744.08	241.44
744.41	241.29
744.74	241.14
745.07	240.98
745.40	240.88
745.73	240.81
746.06	240.69
746.39	240.59
746.71	240.46
747.04	240.31
747.37	240.18
747.70	240.08
748.03	239.97
748.36	239.88
748.68	239.75
749.01	239.58
749.34	239.47
749.67	239.35
750.00	239.26
750.33	239.27
750.65	239.17
750.98	238.80
751.31	238.70
751.64	238.61
751.97	238.60
752.29	238.46
752.62	238.27
752.95	238.15
753.28	238.01
753.60	237.91
753.93	237.85
754.26	237.77
754.59	237.61
754.91	237.48
755.24	237.36
755.57	237.26
755.90	237.16
756.22	237.03
756.55	236.91
756.88	236.78
757.20	236.56
757.53	236.42
757.86	236.31
758.19	236.23
758.51	236.12
758.84	235.94
759.17	235.84
759.49	235.76
759.82	235.77
760.15	235.69
760.47	235.61
760.80	235.46
761.13	235.39
761.45	235.31
761.78	235.23
762.11	235.16
762.43	235.06
762.76	234.97
763.08	234.92
763.41	234.85
763.74	234.78
764.06	234.70
764.39	234.63
764.71	234.55
765.04	234.46
765.37	234.37
765.69	234.30
766.02	234.22
766.34	234.13
766.67	233.99
767.00	233.96
767.32	233.99
767.65	234.04
767.97	233.96
768.30	233.90
768.62	233.83
768.95	233.74
769.27	233.68
769.60	233.65
769.92	233.55
770.25	233.46
770.57	233.37
770.90	233.32
771.22	233.25
771.55	233.22
771.87	233.17
772.20	233.12
772.52	233.21
772.85	233.36
773.17	233.34
773.50	233.28
773.82	233.21
774.15	233.06
774.47	232.90
774.80	232.83
775.12	232.79
775.45	232.73
775.77	232.70
776.09	232.67
776.42	232.62
776.74	232.65
777.07	232.60
777.39	232.56
777.72	232.50
778.04	232.48
778.36	232.41
778.69	232.37
779.01	232.34
779.33	232.15
779.66	231.91
779.98	231.85
780.31	231.82
780.63	231.86
780.95	231.85
781.28	231.81
781.60	231.77
781.92	231.73
782.25	231.70
782.57	231.67
782.89	231.63
783.22	231.58
783.54	231.50
783.86	231.49
784.19	231.45
784.51	231.48
784.83	231.43
785.16	231.40
785.48	231.37
785.80	231.34
786.12	231.32
786.45	231.31
786.77	231.28
787.09	231.24
787.42	231.14
787.74	231.11
788.06	231.10
788.38	231.08
788.71	231.03
789.03	231.00
789.35	230.99
789.67	230.94
789.99	230.92
790.32	230.88
790.64	230.86
790.96	231.00
791.28	230.91
791.61	230.86
791.93	230.86
792.25	230.82
792.57	230.92
792.89	230.86
793.21	230.84
793.54	230.81
793.86	230.76
794.18	230.75
794.50	230.69
794.82	230.67
795.14	230.66
795.47	230.68
795.79	230.67
796.11	230.60
796.43	230.58
796.75	230.55
797.07	230.54
797.39	230.51
797.71	230.34
798.04	230.34
798.36	230.33
798.68	230.30
799.00	230.28
799.32	230.18
799.64	230.19
799.96	230.17
800.28	230.18
800.60	230.16
800.92	230.16
801.24	230.14
801.56	230.13
801.89	230.10
802.21	230.09
802.53	230.03
802.85	230.05
803.17	230.12
803.49	230.07
803.81	230.04
804.13	230.00
804.45	229.96
804.77	229.95
805.09	229.94
805.41	229.91
805.73	229.87
806.05	229.80
806.37	229.77
806.69	229.73
807.01	229.69
807.33	229.69
807.65	229.62
807.97	229.68
808.28	229.64
808.60	229.61
808.92	229.57
809.24	229.67
809.56	229.63
809.88	229.55
810.20	229.56
810.52	229.58
810.84	229.54
811.16	229.52
811.48	229.49
811.80	229.53
812.12	229.52
812.43	229.54
812.75	229.54
813.07	229.53
813.39	229.53
813.71	229.50
814.03	229.46
814.35	229.46
814.67	229.37
814.98	229.36
815.30	229.34
815.62	229.30
815.94	229.17
816.26	229.18
816.58	229.13
816.89	229.13
817.21	229.08
817.53	229.09
817.85	229.08
818.17	229.07
818.48	228.99
818.80	229.01
