SpectraSuite Data File
++++++++++++++++++++++++++++++++++++
Date: Wed Oct 07 05:52:49 EDT 2015
User: lab3
Dark Spectrum Present: No
Reference Spectrum Present: No
Number of Sampled Component Spectra: 1
Spectrometers: USB2E7196
Integration Time (usec): 66000 (USB2E7196)
Spectra Averaged: 10000 (USB2E7196)
Boxcar Smoothing: 10 (USB2E7196)
Correct for Electrical Dark: No (USB2E7196)
Strobe/Lamp Enabled: No (USB2E7196)
Correct for Detector Non-linearity: No (USB2E7196)
Correct for Stray Light: No (USB2E7196)
Number of Pixels in Processed Spectrum: 2048
>>>>>Begin Processed Spectral Data<<<<<
339.09	0.00
339.48	213.04
339.86	214.54
340.24	215.88
340.63	217.33
341.01	221.43
341.39	220.01
341.78	221.48
342.16	222.85
342.54	223.10
342.93	211.66
343.31	222.35
343.69	222.89
344.07	223.35
344.46	223.80
344.84	224.21
345.22	224.41
345.60	224.69
345.99	224.90
346.37	225.05
346.75	225.17
347.13	225.26
347.52	225.35
347.90	225.48
348.28	225.54
348.66	225.62
349.05	225.61
349.43	225.69
349.81	225.77
350.19	225.84
350.57	225.93
350.96	226.03
351.34	226.14
351.72	226.26
352.10	226.38
352.48	226.45
352.87	226.50
353.25	226.57
353.63	226.62
354.01	226.69
354.39	226.77
354.77	226.85
355.15	226.97
355.54	227.02
355.92	227.02
356.30	227.10
356.68	227.28
357.06	227.37
357.44	227.40
357.82	227.46
358.20	227.68
358.58	227.73
358.97	227.80
359.35	227.90
359.73	228.00
360.11	228.05
360.49	228.12
360.87	228.17
361.25	228.24
361.63	228.35
362.01	228.41
362.39	228.44
362.77	228.49
363.15	228.51
363.53	228.54
363.91	228.58
364.29	228.61
364.67	228.46
365.05	228.48
365.43	228.53
365.81	228.57
366.19	228.52
366.57	228.61
366.95	228.60
367.33	228.56
367.71	228.55
368.09	228.58
368.47	228.58
368.85	228.57
369.23	228.59
369.61	228.51
369.99	228.55
370.37	228.56
370.75	228.68
371.13	228.64
371.51	228.60
371.89	228.58
372.27	228.56
372.65	228.55
373.03	228.51
373.41	228.46
373.78	228.40
374.16	228.27
374.54	228.17
374.92	228.12
375.30	228.07
375.68	228.00
376.06	227.96
376.44	227.90
376.82	227.86
377.19	227.81
377.57	227.76
377.95	227.65
378.33	227.59
378.71	227.38
379.09	227.34
379.47	227.32
379.84	227.26
380.22	227.19
380.60	227.11
380.98	227.06
381.36	227.02
381.73	226.95
382.11	226.95
382.49	226.91
382.87	226.85
383.25	226.81
383.62	226.99
384.00	226.91
384.38	226.89
384.76	226.89
385.13	226.91
385.51	226.87
385.89	226.82
386.27	226.79
386.64	226.79
387.02	226.74
387.40	226.70
387.78	226.68
388.15	226.66
388.53	226.64
388.91	226.62
389.29	226.58
389.66	226.59
390.04	226.55
390.42	226.56
390.79	226.56
391.17	226.55
391.55	226.33
391.92	226.33
392.30	226.34
392.68	226.30
393.05	226.28
393.43	226.29
393.81	226.32
394.18	226.30
394.56	226.32
394.94	226.37
395.31	226.38
395.69	226.46
396.06	226.51
396.44	226.56
396.82	226.58
397.19	226.72
397.57	226.74
397.95	226.82
398.32	226.81
398.70	226.89
399.07	227.00
399.45	227.06
399.82	227.14
400.20	227.20
400.58	227.29
400.95	227.31
401.33	227.44
401.70	227.67
402.08	227.82
402.45	227.96
402.83	228.13
403.20	228.31
403.58	228.45
403.95	228.66
404.33	228.89
404.71	229.11
405.08	229.43
405.46	229.69
405.83	229.98
406.21	230.28
406.58	230.61
406.96	230.95
407.33	231.34
407.70	231.78
408.08	232.38
408.45	232.90
408.83	233.47
409.20	233.99
409.58	234.47
409.95	235.11
410.33	235.81
410.70	236.48
411.08	237.27
411.45	238.10
411.82	238.95
412.20	239.92
412.57	241.06
412.95	241.98
413.32	243.16
413.69	244.39
414.07	245.68
414.44	247.10
414.82	248.54
415.19	250.23
415.56	251.95
415.94	253.74
416.31	255.75
416.68	257.76
417.06	260.08
417.43	262.26
417.81	264.78
418.18	267.34
418.55	270.13
418.93	273.03
419.30	276.06
419.67	279.28
420.04	282.59
420.42	286.05
420.79	290.04
421.16	294.07
421.54	298.14
421.91	302.41
422.28	306.84
422.66	311.60
423.03	316.12
423.40	320.88
423.77	325.96
424.15	331.16
424.52	336.55
424.89	342.40
425.26	348.19
425.64	353.56
426.01	359.60
426.38	365.77
426.75	372.12
427.13	378.61
427.50	385.41
427.87	392.47
428.24	399.57
428.61	406.39
428.99	413.74
429.36	421.82
429.73	429.53
430.10	437.23
430.47	445.11
430.85	453.26
431.22	461.91
431.59	470.81
431.96	479.50
432.33	489.18
432.70	498.36
433.08	509.26
433.45	519.52
433.82	529.68
434.19	541.07
434.56	552.28
434.93	563.16
435.30	573.95
435.68	586.18
436.05	598.16
436.42	610.16
436.79	621.13
437.16	633.07
437.53	645.79
437.90	658.54
438.27	671.06
438.64	684.61
439.01	696.94
439.38	708.24
439.75	719.19
440.13	731.67
440.50	743.52
440.87	753.03
441.24	763.49
441.61	774.95
441.98	783.45
442.35	793.54
442.72	803.80
443.09	813.58
443.46	820.00
443.83	824.89
444.20	828.98
444.57	834.82
444.94	838.35
445.31	842.01
445.68	845.20
446.05	847.64
446.42	847.49
446.79	847.07
447.16	846.75
447.53	846.50
447.90	842.96
448.27	839.65
448.64	834.30
449.01	830.67
449.37	822.90
449.74	815.85
450.11	806.69
450.48	796.64
450.85	786.52
451.22	777.85
451.59	769.28
451.96	761.53
452.33	750.30
452.70	740.27
453.07	728.12
453.43	715.95
453.80	704.09
454.17	692.70
454.54	682.22
454.91	670.36
455.28	659.16
455.65	648.58
456.02	637.33
456.38	628.28
456.75	616.71
457.12	607.39
457.49	597.98
457.86	589.07
458.23	581.21
458.59	572.57
458.96	563.70
459.33	555.92
459.70	547.99
460.07	541.94
460.43	534.82
460.80	528.16
461.17	522.38
461.54	516.14
461.91	510.27
462.27	504.30
462.64	499.42
463.01	493.87
463.38	488.27
463.74	483.23
464.11	478.73
464.48	474.67
464.85	470.29
465.21	466.94
465.58	463.22
465.95	459.01
466.32	455.66
466.68	452.39
467.05	449.09
467.42	445.89
467.78	442.46
468.15	439.29
468.52	436.96
468.88	433.86
469.25	431.04
469.62	428.81
469.98	426.39
470.35	424.24
470.72	422.27
471.08	420.30
471.45	418.65
471.82	416.79
472.18	414.85
472.55	413.59
472.92	412.02
473.28	410.79
473.65	409.48
474.02	408.20
474.38	407.11
474.75	406.46
475.11	405.58
475.48	405.15
475.85	404.67
476.21	404.39
476.58	404.17
476.94	404.31
477.31	404.31
477.67	404.35
478.04	404.61
478.41	405.01
478.77	405.58
479.14	405.92
479.50	406.68
479.87	407.68
480.23	408.64
480.60	409.55
480.96	410.46
481.33	411.89
481.69	413.28
482.06	414.65
482.42	415.90
482.79	417.47
483.15	419.33
483.52	421.43
483.88	423.42
484.25	425.55
484.61	427.78
484.98	430.19
485.34	432.90
485.71	435.72
486.07	438.76
486.44	441.76
486.80	445.14
487.17	448.58
487.53	452.32
487.90	456.25
488.26	460.53
488.62	465.06
488.99	469.57
489.35	474.32
489.72	479.43
490.08	484.81
490.44	490.30
490.81	496.00
491.17	501.88
491.54	508.20
491.90	514.65
492.26	521.55
492.63	528.80
492.99	536.38
493.36	544.13
493.72	552.25
494.08	560.61
494.45	569.37
494.81	578.53
495.17	587.93
495.54	597.86
495.90	608.24
496.26	618.80
496.63	629.70
496.99	640.97
497.35	652.78
497.72	664.89
498.08	677.32
498.44	690.13
498.80	703.64
499.17	717.42
499.53	731.68
499.89	746.37
500.26	761.32
500.62	776.62
500.98	792.83
501.34	809.07
501.71	826.07
502.07	843.42
502.43	861.24
502.79	879.34
503.16	897.91
503.52	916.69
503.88	935.91
504.24	955.60
504.60	975.54
504.97	996.14
505.33	1017.27
505.69	1039.52
506.05	1061.97
506.41	1084.40
506.78	1107.02
507.14	1130.15
507.50	1153.80
507.86	1177.83
508.22	1202.09
508.59	1226.24
508.95	1251.43
509.31	1277.20
509.67	1303.64
510.03	1330.07
510.39	1356.34
510.75	1382.71
511.12	1409.40
511.48	1436.48
511.84	1463.46
512.20	1490.80
512.56	1519.29
512.92	1547.61
513.28	1575.19
513.64	1603.27
514.00	1631.75
514.37	1660.47
514.73	1689.28
515.09	1717.42
515.45	1745.78
515.81	1774.50
516.17	1802.94
516.53	1830.72
516.89	1858.14
517.25	1885.88
517.61	1913.39
517.97	1941.59
518.33	1969.31
518.69	1996.95
519.05	2024.88
519.41	2053.01
519.77	2081.31
520.13	2107.99
520.49	2134.60
520.85	2161.68
521.21	2188.09
521.57	2214.83
521.93	2240.43
522.29	2266.77
522.65	2292.91
523.01	2318.80
523.37	2343.84
523.73	2369.70
524.09	2395.21
524.45	2420.61
524.81	2445.33
525.17	2469.95
525.53	2493.54
525.89	2517.63
526.25	2541.44
526.61	2563.43
526.97	2585.51
527.33	2607.23
527.68	2628.94
528.04	2650.26
528.40	2670.47
528.76	2690.68
529.12	2710.32
529.48	2730.78
529.84	2748.43
530.20	2766.35
530.56	2783.64
530.91	2800.98
531.27	2817.57
531.63	2833.28
531.99	2848.53
532.35	2863.63
532.71	2878.30
533.07	2893.52
533.42	2906.67
533.78	2919.90
534.14	2934.36
534.50	2947.67
534.86	2961.51
535.21	2972.91
535.57	2984.23
535.93	2995.10
536.29	3004.26
536.65	3013.28
537.00	3021.02
537.36	3029.90
537.72	3037.97
538.08	3045.57
538.44	3051.82
538.79	3057.96
539.15	3062.84
539.51	3066.92
539.87	3069.64
540.22	3070.63
540.58	3071.89
540.94	3073.77
541.29	3074.71
541.65	3074.13
542.01	3073.17
542.37	3070.46
542.72	3069.58
543.08	3066.84
543.44	3064.25
543.79	3061.61
544.15	3058.11
544.51	3054.39
544.87	3049.82
545.22	3044.18
545.58	3038.06
545.94	3032.38
546.29	3025.20
546.65	3018.07
547.01	3011.16
547.36	3004.88
547.72	2998.76
548.07	2990.84
548.43	2981.74
548.79	2972.23
549.14	2963.00
549.50	2953.92
549.86	2943.97
550.21	2932.17
550.57	2921.73
550.92	2909.65
551.28	2897.61
551.64	2885.94
551.99	2874.13
552.35	2861.81
552.70	2849.44
553.06	2837.60
553.41	2825.29
553.77	2812.62
554.13	2800.04
554.48	2786.29
554.84	2771.24
555.19	2756.63
555.55	2742.08
555.90	2728.08
556.26	2714.33
556.61	2699.47
556.97	2683.45
557.32	2667.86
557.68	2652.73
558.03	2637.14
558.39	2622.44
558.74	2608.53
559.10	2592.74
559.45	2576.78
559.81	2561.51
560.16	2545.78
560.52	2529.77
560.87	2514.10
561.23	2497.94
561.58	2482.39
561.94	2466.48
562.29	2450.14
562.64	2434.01
563.00	2417.84
563.35	2401.93
563.71	2385.57
564.06	2369.39
564.42	2353.74
564.77	2338.24
565.12	2322.32
565.48	2306.06
565.83	2289.88
566.19	2273.60
566.54	2257.48
566.89	2241.02
567.25	2224.64
567.60	2209.18
567.96	2193.13
568.31	2175.48
568.66	2158.59
569.02	2142.37
569.37	2126.69
569.72	2111.60
570.08	2096.09
570.43	2079.92
570.78	2063.47
571.14	2047.03
571.49	2030.54
571.84	2014.27
572.20	1996.73
572.55	1979.93
572.90	1963.34
573.26	1946.95
573.61	1929.86
573.96	1913.31
574.31	1896.63
574.67	1879.51
575.02	1862.06
575.37	1844.56
575.72	1828.03
576.08	1811.34
576.43	1793.65
576.78	1776.30
577.13	1759.19
577.49	1742.27
577.84	1725.92
578.19	1709.14
578.54	1692.27
578.90	1675.28
579.25	1658.12
579.60	1642.31
579.95	1626.18
580.30	1610.00
580.66	1593.51
581.01	1577.17
581.36	1560.84
581.71	1545.43
582.06	1530.11
582.42	1514.60
582.77	1499.48
583.12	1484.58
583.47	1469.78
583.82	1455.19
584.17	1439.95
584.53	1424.83
584.88	1410.07
585.23	1395.13
585.58	1380.61
585.93	1365.93
586.28	1352.33
586.63	1338.64
586.98	1324.37
587.34	1310.58
587.69	1296.62
588.04	1282.93
588.39	1269.51
588.74	1255.76
589.09	1242.11
589.44	1228.11
589.79	1214.82
590.14	1201.54
590.49	1188.28
590.84	1175.25
591.19	1162.62
591.54	1150.19
591.89	1137.38
592.25	1124.86
592.60	1112.23
592.95	1099.73
593.30	1087.74
593.65	1075.41
594.00	1063.38
594.35	1052.27
594.70	1040.46
595.05	1029.24
595.40	1017.95
595.75	1006.49
596.10	995.69
596.45	984.80
596.80	974.44
597.15	963.98
597.50	953.49
597.85	943.41
598.19	933.30
598.54	923.15
598.89	913.50
599.24	904.28
599.59	894.79
599.94	886.03
600.29	877.34
600.64	868.40
600.99	859.35
601.34	850.68
601.69	841.49
602.04	833.24
602.39	824.89
602.74	816.77
603.08	808.76
603.43	800.75
603.78	792.78
604.13	784.81
604.48	776.84
604.83	769.21
605.18	761.56
605.53	754.12
605.87	746.68
606.22	739.36
606.57	731.95
606.92	724.53
607.27	717.12
607.62	709.85
607.96	702.86
608.31	696.41
608.66	689.79
609.01	683.48
609.36	677.13
609.70	670.77
610.05	664.37
610.40	658.18
610.75	651.95
611.10	645.96
611.44	639.97
611.79	634.16
612.14	628.23
612.49	622.37
612.83	616.83
613.18	611.36
613.53	605.89
613.88	600.54
614.22	595.59
614.57	590.55
614.92	585.65
615.27	580.86
615.61	575.93
615.96	571.10
616.31	566.24
616.65	561.53
617.00	556.93
617.35	552.44
617.70	547.95
618.04	543.60
618.39	539.33
618.74	535.34
619.08	531.29
619.43	527.40
619.78	523.48
620.12	519.48
620.47	515.70
620.82	512.02
621.16	508.39
621.51	504.80
621.85	501.21
622.20	497.67
622.55	494.15
622.89	490.67
623.24	487.36
623.59	484.13
623.93	480.97
624.28	477.94
624.62	475.11
624.97	472.31
625.32	469.42
625.66	466.51
626.01	463.55
626.35	460.78
626.70	457.95
627.04	455.32
627.39	452.67
627.73	450.10
628.08	447.56
628.43	445.03
628.77	442.45
629.12	439.96
629.46	437.60
629.81	435.39
630.15	433.09
630.50	430.82
630.84	428.61
631.19	426.43
631.53	424.37
631.88	422.11
632.22	419.94
632.57	418.07
632.91	416.16
633.26	414.32
633.60	412.49
633.95	410.75
634.29	408.90
634.64	407.09
634.98	405.18
635.32	403.45
635.67	401.90
636.01	400.33
636.36	398.82
636.70	397.37
637.05	395.76
637.39	394.33
637.73	392.88
638.08	391.50
638.42	390.16
638.77	388.68
639.11	387.18
639.45	385.74
639.80	384.26
640.14	382.84
640.49	381.43
640.83	380.02
641.17	378.68
641.52	377.35
641.86	376.08
642.20	374.94
642.55	373.62
642.89	372.33
643.23	371.09
643.58	370.01
643.92	368.75
644.26	367.60
644.61	366.48
644.95	365.33
645.29	364.13
645.64	362.91
645.98	361.80
646.32	360.82
646.66	359.76
647.01	358.73
647.35	357.81
647.69	356.83
648.04	355.95
648.38	354.98
648.72	354.06
649.06	353.15
649.41	352.21
649.75	351.33
650.09	350.47
650.43	349.60
650.78	348.67
651.12	347.83
651.46	346.99
651.80	346.17
652.14	345.39
652.49	344.68
652.83	343.90
653.17	343.10
653.51	342.31
653.85	341.66
654.20	340.94
654.54	340.13
654.88	339.37
655.22	338.67
655.56	337.93
655.90	337.25
656.25	336.57
656.59	335.90
656.93	335.27
657.27	334.70
657.61	334.05
657.95	333.46
658.29	332.83
658.64	332.24
658.98	331.58
659.32	330.93
659.66	330.32
660.00	329.77
660.34	329.21
660.68	328.59
661.02	327.92
661.36	327.29
661.70	326.71
662.05	326.14
662.39	325.58
662.73	325.12
663.07	324.69
663.41	324.22
663.75	323.71
664.09	323.19
664.43	322.56
664.77	322.04
665.11	321.46
665.45	320.94
665.79	320.43
666.13	319.92
666.47	319.39
666.81	318.83
667.15	318.23
667.49	317.76
667.83	317.35
668.17	316.89
668.51	316.49
668.85	316.10
669.19	315.77
669.53	315.26
669.87	314.72
670.21	314.16
670.55	313.65
670.89	313.24
671.23	312.78
671.57	312.38
671.91	312.04
672.25	311.71
672.58	311.37
672.92	310.95
673.26	310.61
673.60	310.27
673.94	309.90
674.28	309.58
674.62	309.22
674.96	308.79
675.30	308.43
675.64	308.00
675.97	307.55
676.31	307.07
676.65	306.67
676.99	306.35
677.33	305.92
677.67	305.54
678.01	305.06
678.34	304.67
678.68	304.29
679.02	303.84
679.36	303.39
679.70	302.94
680.04	302.55
680.37	302.13
680.71	301.74
681.05	301.39
681.39	300.98
681.73	300.53
682.06	300.11
682.40	299.72
682.74	299.36
683.08	299.06
683.42	298.68
683.75	298.34
684.09	297.88
684.43	297.50
684.77	297.10
685.10	296.73
685.44	296.32
685.78	295.91
686.12	295.52
686.45	295.10
686.79	294.67
687.13	294.27
687.46	293.83
687.80	293.42
688.14	292.95
688.48	292.53
688.81	292.11
689.15	291.75
689.49	291.30
689.82	290.86
690.16	290.32
690.50	289.88
690.83	289.42
691.17	288.97
691.51	288.54
691.84	288.14
692.18	287.69
692.52	287.23
692.85	286.80
693.19	286.42
693.52	286.00
693.86	285.55
694.20	285.12
694.53	284.70
694.87	284.23
695.21	283.77
695.54	283.33
695.88	282.86
696.21	282.36
696.55	281.92
696.88	281.46
697.22	281.05
697.56	280.64
697.89	280.17
698.23	279.75
698.56	279.30
698.90	278.89
699.23	278.43
699.57	278.02
699.90	277.59
700.24	277.12
700.58	276.71
700.91	276.34
701.25	276.08
701.58	275.76
701.92	275.41
702.25	275.02
702.59	274.61
702.92	274.22
703.26	273.81
703.59	273.39
703.93	273.12
704.26	272.72
704.60	272.29
704.93	271.89
705.26	271.47
705.60	271.11
705.93	270.65
706.27	270.33
706.60	269.98
706.94	269.66
707.27	269.23
707.61	268.84
707.94	268.42
708.27	267.85
708.61	267.38
708.94	266.95
709.28	266.56
709.61	266.17
709.94	265.82
710.28	265.47
710.61	265.14
710.95	264.62
711.28	264.38
711.61	264.02
711.95	263.71
712.28	263.34
712.61	262.96
712.95	262.71
713.28	262.41
713.61	262.02
713.95	261.62
714.28	261.30
714.61	260.93
714.95	260.59
715.28	260.25
715.61	259.93
715.95	259.63
716.28	259.30
716.61	259.01
716.95	258.67
717.28	258.36
717.61	258.03
717.94	257.74
718.28	257.31
718.61	257.01
718.94	256.68
719.27	256.39
719.61	256.11
719.94	255.79
720.27	255.41
720.60	255.13
720.94	254.84
721.27	254.57
721.60	254.32
721.93	254.04
722.27	253.82
722.60	253.55
722.93	253.23
723.26	252.99
723.59	252.68
723.93	252.44
724.26	252.20
724.59	251.94
724.92	251.70
725.25	251.50
725.59	251.25
725.92	251.03
726.25	250.78
726.58	250.54
726.91	250.28
727.24	250.07
727.57	249.82
727.91	249.55
728.24	249.34
728.57	249.09
728.90	248.88
729.23	248.59
729.56	248.46
729.89	248.24
730.22	248.01
730.55	247.80
730.89	247.58
731.22	247.35
731.55	247.14
731.88	246.93
732.21	246.69
732.54	246.46
732.87	246.25
733.20	246.07
733.53	245.88
733.86	245.70
734.19	245.48
734.52	245.33
734.85	245.28
735.18	245.07
735.51	244.94
735.84	244.76
736.17	244.63
736.50	244.35
736.83	244.38
737.16	244.20
737.49	244.03
737.82	243.84
738.15	243.68
738.48	243.49
738.81	243.31
739.14	243.12
739.47	242.94
739.80	242.75
740.13	242.59
740.46	242.39
740.79	242.19
741.12	242.01
741.45	241.81
741.78	241.53
742.11	241.40
742.44	241.18
742.77	241.04
743.10	240.84
743.43	240.67
743.75	240.32
744.08	240.44
744.41	240.26
744.74	240.10
745.07	239.91
745.40	239.80
745.73	239.73
746.06	239.59
746.39	239.48
746.71	239.32
747.04	239.16
747.37	239.01
747.70	238.90
748.03	238.77
748.36	238.67
748.68	238.53
749.01	238.34
749.34	238.22
749.67	238.09
750.00	237.98
750.33	237.99
750.65	237.88
750.98	237.49
751.31	237.37
751.64	237.27
751.97	237.26
752.29	237.11
752.62	236.90
752.95	236.77
753.28	236.63
753.60	236.50
753.93	236.43
754.26	236.33
754.59	236.16
754.91	236.02
755.24	235.88
755.57	235.78
755.90	235.66
756.22	235.53
756.55	235.38
756.88	235.23
757.20	234.99
757.53	234.83
757.86	234.72
758.19	234.62
758.51	234.50
758.84	234.30
759.17	234.18
759.49	234.10
759.82	234.08
760.15	234.00
760.47	233.91
760.80	233.76
761.13	233.68
761.45	233.59
761.78	233.50
762.11	233.42
762.43	233.30
762.76	233.21
763.08	233.14
763.41	233.07
763.74	233.00
764.06	232.92
764.39	232.84
764.71	232.75
765.04	232.65
765.37	232.56
765.69	232.48
766.02	232.40
766.34	232.31
766.67	232.16
767.00	232.12
767.32	232.14
767.65	232.18
767.97	232.09
768.30	232.03
768.62	231.96
768.95	231.87
769.27	231.80
769.60	231.76
769.92	231.67
770.25	231.56
770.57	231.46
770.90	231.40
771.22	231.32
771.55	231.27
771.87	231.22
772.20	231.16
772.52	231.25
772.85	231.41
773.17	231.36
773.50	231.29
773.82	231.20
774.15	231.05
774.47	230.88
774.80	230.81
775.12	230.75
775.45	230.70
775.77	230.65
776.09	230.61
776.42	230.56
776.74	230.57
777.07	230.52
777.39	230.48
777.72	230.42
778.04	230.40
778.36	230.34
778.69	230.29
779.01	230.26
779.33	230.06
779.66	229.81
779.98	229.75
780.31	229.72
780.63	229.76
780.95	229.75
781.28	229.71
781.60	229.65
781.92	229.62
782.25	229.57
782.57	229.54
782.89	229.49
783.22	229.43
783.54	229.35
783.86	229.33
784.19	229.28
784.51	229.31
784.83	229.25
785.16	229.21
785.48	229.18
785.80	229.14
786.12	229.12
786.45	229.08
786.77	229.06
787.09	229.02
787.42	228.91
787.74	228.88
788.06	228.87
788.38	228.83
788.71	228.79
789.03	228.77
789.35	228.76
789.67	228.71
789.99	228.70
790.32	228.65
790.64	228.64
790.96	228.79
791.28	228.70
791.61	228.66
791.93	228.65
792.25	228.61
792.57	228.71
792.89	228.65
793.21	228.64
793.54	228.59
793.86	228.55
794.18	228.53
794.50	228.47
794.82	228.45
795.14	228.44
795.47	228.45
795.79	228.43
796.11	228.36
796.43	228.34
796.75	228.31
797.07	228.30
797.39	228.26
797.71	228.09
798.04	228.07
798.36	228.06
798.68	228.04
799.00	228.03
799.32	227.92
799.64	227.93
799.96	227.90
800.28	227.92
800.60	227.90
800.92	227.89
801.24	227.86
801.56	227.86
801.89	227.82
802.21	227.80
802.53	227.76
802.85	227.78
803.17	227.85
803.49	227.79
803.81	227.76
804.13	227.72
804.45	227.68
804.77	227.68
805.09	227.66
805.41	227.62
805.73	227.57
806.05	227.51
806.37	227.48
806.69	227.44
807.01	227.40
807.33	227.40
807.65	227.31
807.97	227.37
808.28	227.33
808.60	227.31
808.92	227.26
809.24	227.36
809.56	227.30
809.88	227.22
810.20	227.22
810.52	227.24
810.84	227.20
811.16	227.17
811.48	227.14
811.80	227.19
812.12	227.17
812.43	227.19
812.75	227.19
813.07	227.16
813.39	227.15
813.71	227.11
814.03	227.08
814.35	227.08
814.67	227.00
814.98	226.97
815.30	226.96
815.62	226.92
815.94	226.79
816.26	226.79
816.58	226.74
816.89	226.75
817.21	226.68
817.53	226.68
817.85	226.68
818.17	226.67
818.48	226.58
