SpectraSuite Data File
++++++++++++++++++++++++++++++++++++
Date: Tue Oct 06 19:08:34 EDT 2015
User: lab3
Dark Spectrum Present: No
Reference Spectrum Present: No
Number of Sampled Component Spectra: 1
Spectrometers: USB2E7196
Integration Time (usec): 66000 (USB2E7196)
Spectra Averaged: 3000 (USB2E7196)
Boxcar Smoothing: 10 (USB2E7196)
Correct for Electrical Dark: No (USB2E7196)
Strobe/Lamp Enabled: No (USB2E7196)
Correct for Detector Non-linearity: No (USB2E7196)
Correct for Stray Light: No (USB2E7196)
Number of Pixels in Processed Spectrum: 2048
>>>>>Begin Processed Spectral Data<<<<<
339.09	0.00
339.48	214.86
339.86	216.37
340.24	217.66
340.63	219.09
341.01	223.24
341.39	221.77
341.78	223.27
342.16	224.63
342.54	224.86
342.93	213.37
343.31	224.15
343.69	224.69
344.07	225.15
344.46	225.59
344.84	225.99
345.22	226.19
345.60	226.47
345.99	226.67
346.37	226.81
346.75	226.93
347.13	227.02
347.52	227.11
347.90	227.22
348.28	227.27
348.66	227.36
349.05	227.35
349.43	227.42
349.81	227.50
350.19	227.56
350.57	227.64
350.96	227.73
351.34	227.84
351.72	227.94
352.10	228.06
352.48	228.13
352.87	228.19
353.25	228.25
353.63	228.30
354.01	228.36
354.39	228.44
354.77	228.52
355.15	228.64
355.54	228.68
355.92	228.69
356.30	228.78
356.68	228.96
357.06	229.03
357.44	229.07
357.82	229.13
358.20	229.34
358.58	229.40
358.97	229.46
359.35	229.56
359.73	229.65
360.11	229.70
360.49	229.77
360.87	229.82
361.25	229.90
361.63	230.01
362.01	230.07
362.39	230.09
362.77	230.15
363.15	230.17
363.53	230.21
363.91	230.25
364.29	230.26
364.67	230.11
365.05	230.14
365.43	230.19
365.81	230.22
366.19	230.17
366.57	230.25
366.95	230.25
367.33	230.21
367.71	230.20
368.09	230.24
368.47	230.23
368.85	230.22
369.23	230.24
369.61	230.16
369.99	230.19
370.37	230.21
370.75	230.32
371.13	230.28
371.51	230.22
371.89	230.21
372.27	230.20
372.65	230.18
373.03	230.14
373.41	230.09
373.78	230.04
374.16	229.91
374.54	229.81
374.92	229.76
375.30	229.72
375.68	229.64
376.06	229.59
376.44	229.53
376.82	229.50
377.19	229.46
377.57	229.41
377.95	229.31
378.33	229.24
378.71	229.04
379.09	229.01
379.47	228.99
379.84	228.93
380.22	228.86
380.60	228.77
380.98	228.73
381.36	228.68
381.73	228.62
382.11	228.61
382.49	228.57
382.87	228.51
383.25	228.47
383.62	228.65
384.00	228.58
384.38	228.55
384.76	228.54
385.13	228.55
385.51	228.51
385.89	228.45
386.27	228.42
386.64	228.42
387.02	228.36
387.40	228.31
387.78	228.29
388.15	228.28
388.53	228.25
388.91	228.23
389.29	228.19
389.66	228.20
390.04	228.16
390.42	228.17
390.79	228.17
391.17	228.15
391.55	227.94
391.92	227.93
392.30	227.94
392.68	227.90
393.05	227.88
393.43	227.89
393.81	227.92
394.18	227.90
394.56	227.91
394.94	227.97
395.31	227.98
395.69	228.05
396.06	228.10
396.44	228.14
396.82	228.17
397.19	228.30
397.57	228.33
397.95	228.40
398.32	228.40
398.70	228.47
399.07	228.58
399.45	228.64
399.82	228.71
400.20	228.76
400.58	228.86
400.95	228.88
401.33	229.00
401.70	229.23
402.08	229.37
402.45	229.50
402.83	229.67
403.20	229.83
403.58	229.95
403.95	230.16
404.33	230.38
404.71	230.59
405.08	230.89
405.46	231.13
405.83	231.40
406.21	231.69
406.58	232.01
406.96	232.32
407.33	232.69
407.70	233.10
408.08	233.67
408.45	234.17
408.83	234.69
409.20	235.18
409.58	235.62
409.95	236.23
410.33	236.89
410.70	237.51
411.08	238.25
411.45	239.04
411.82	239.83
412.20	240.74
412.57	241.82
412.95	242.67
413.32	243.79
413.69	244.94
414.07	246.15
414.44	247.48
414.82	248.84
415.19	250.44
415.56	252.06
415.94	253.74
416.31	255.64
416.68	257.54
417.06	259.74
417.43	261.81
417.81	264.18
418.18	266.60
418.55	269.24
418.93	271.97
419.30	274.84
419.67	277.88
420.04	281.01
420.42	284.28
420.79	288.05
421.16	291.85
421.54	295.70
421.91	299.74
422.28	303.93
422.66	308.44
423.03	312.72
423.40	317.21
423.77	322.01
424.15	326.93
424.52	332.03
424.89	337.54
425.26	343.01
425.64	348.09
426.01	353.78
426.38	359.60
426.75	365.60
427.13	371.71
427.50	378.12
427.87	384.78
428.24	391.48
428.61	397.89
428.99	404.81
429.36	412.40
429.73	419.63
430.10	426.85
430.47	434.22
430.85	441.85
431.22	449.98
431.59	458.32
431.96	466.45
432.33	475.50
432.70	484.10
433.08	494.27
433.45	503.86
433.82	513.32
434.19	523.94
434.56	534.41
434.93	544.57
435.30	554.62
435.68	566.01
436.05	577.14
436.42	588.28
436.79	598.47
437.16	609.57
437.53	621.43
437.90	633.28
438.27	644.93
438.64	657.51
439.01	668.93
439.38	679.41
439.75	689.57
440.13	701.12
440.50	712.10
440.87	720.91
441.24	730.62
441.61	741.25
441.98	749.14
442.35	758.49
442.72	768.01
443.09	777.11
443.46	783.07
443.83	787.64
444.20	791.44
444.57	796.91
444.94	800.19
445.31	803.61
445.68	806.59
446.05	808.88
446.42	808.76
446.79	808.41
447.16	808.19
447.53	808.01
447.90	804.78
448.27	801.75
448.64	796.79
449.01	793.45
449.37	786.29
449.74	779.77
450.11	771.30
450.48	761.97
450.85	752.61
451.22	744.56
451.59	736.62
451.96	729.47
452.33	719.02
452.70	709.73
453.07	698.42
453.43	687.13
453.80	676.08
454.17	665.50
454.54	655.74
454.91	644.67
455.28	634.24
455.65	624.40
456.02	613.97
456.38	605.57
456.75	594.78
457.12	586.07
457.49	577.29
457.86	568.98
458.23	561.64
458.59	553.56
458.96	545.28
459.33	538.01
459.70	530.60
460.07	524.94
460.43	518.26
460.80	512.02
461.17	506.58
461.54	500.73
461.91	495.21
462.27	489.61
462.64	485.02
463.01	479.79
463.38	474.51
463.74	469.73
464.11	465.49
464.48	461.66
464.85	457.55
465.21	454.38
465.58	450.87
465.95	446.90
466.32	443.73
466.68	440.63
467.05	437.49
467.42	434.44
467.78	431.19
468.15	428.19
468.52	426.00
468.88	423.09
469.25	420.42
469.62	418.31
469.98	416.03
470.35	413.99
470.72	412.13
471.08	410.27
471.45	408.70
471.82	406.96
472.18	405.13
472.55	403.93
472.92	402.45
473.28	401.30
473.65	400.06
474.02	398.86
474.38	397.86
474.75	397.26
475.11	396.46
475.48	396.07
475.85	395.64
476.21	395.39
476.58	395.21
476.94	395.38
477.31	395.42
477.67	395.48
478.04	395.79
478.41	396.20
478.77	396.78
479.14	397.15
479.50	397.90
479.87	398.88
480.23	399.82
480.60	400.72
480.96	401.63
481.33	403.02
481.69	404.38
482.06	405.73
482.42	406.96
482.79	408.50
483.15	410.31
483.52	412.36
483.88	414.29
484.25	416.35
484.61	418.50
484.98	420.83
485.34	423.46
485.71	426.20
486.07	429.14
486.44	432.02
486.80	435.28
487.17	438.62
487.53	442.24
487.90	446.04
488.26	450.19
488.62	454.54
488.99	458.87
489.35	463.43
489.72	468.33
490.08	473.50
490.44	478.77
490.81	484.25
491.17	489.90
491.54	495.97
491.90	502.15
492.26	508.77
492.63	515.70
492.99	522.94
493.36	530.30
493.72	538.07
494.08	546.03
494.45	554.38
494.81	563.10
495.17	572.06
495.54	581.51
495.90	591.37
496.26	601.42
496.63	611.77
496.99	622.49
497.35	633.72
497.72	645.22
498.08	657.05
498.44	669.18
498.80	681.98
499.17	695.07
499.53	708.61
499.89	722.57
500.26	736.72
500.62	751.20
500.98	766.53
501.34	781.84
501.71	797.97
502.07	814.39
502.43	831.25
502.79	848.32
503.16	865.87
503.52	883.61
503.88	901.78
504.24	920.39
504.60	939.23
504.97	958.69
505.33	978.60
505.69	999.55
506.05	1020.70
506.41	1041.76
506.78	1062.97
507.14	1084.75
507.50	1106.96
507.86	1129.56
508.22	1152.40
508.59	1175.13
508.95	1198.89
509.31	1223.08
509.67	1247.87
510.03	1272.62
510.39	1297.28
510.75	1322.04
511.12	1347.19
511.48	1372.51
511.84	1397.81
512.20	1423.46
512.56	1450.15
512.92	1476.62
513.28	1502.50
513.64	1528.83
514.00	1555.48
514.37	1582.37
514.73	1609.32
515.09	1635.60
515.45	1662.21
515.81	1688.97
516.17	1715.50
516.53	1741.40
516.89	1767.15
517.25	1793.16
517.61	1818.99
517.97	1845.45
518.33	1871.34
518.69	1897.11
519.05	1923.30
519.41	1949.65
519.77	1976.00
520.13	2000.85
520.49	2025.76
520.85	2051.03
521.21	2075.68
521.57	2100.64
521.93	2124.65
522.29	2149.23
522.65	2173.69
523.01	2197.81
523.37	2221.20
523.73	2245.29
524.09	2269.16
524.45	2292.68
524.81	2315.56
525.17	2338.27
525.53	2360.27
525.89	2382.62
526.25	2404.61
526.61	2425.02
526.97	2445.42
527.33	2465.66
527.68	2485.66
528.04	2505.36
528.40	2523.81
528.76	2542.45
529.12	2560.63
529.48	2579.39
529.84	2595.39
530.20	2611.79
530.56	2627.42
530.91	2643.29
531.27	2658.58
531.63	2672.85
531.99	2687.01
532.35	2700.85
532.71	2714.22
533.07	2727.92
533.42	2739.76
533.78	2751.79
534.14	2764.77
534.50	2776.63
534.86	2788.99
535.21	2799.32
535.57	2809.46
535.93	2819.39
536.29	2827.48
536.65	2835.53
537.00	2842.16
537.36	2850.20
537.72	2857.28
538.08	2863.86
538.44	2869.32
538.79	2874.45
539.15	2878.30
539.51	2881.29
539.87	2883.10
540.22	2883.44
540.58	2884.02
540.94	2885.44
541.29	2885.66
541.65	2884.58
542.01	2883.17
542.37	2880.09
542.72	2878.54
543.08	2875.29
543.44	2872.31
543.79	2869.06
544.15	2865.01
544.51	2861.09
544.87	2856.14
545.22	2850.23
545.58	2844.20
545.94	2838.31
546.29	2830.94
546.65	2823.86
547.01	2816.91
547.36	2810.42
547.72	2804.07
548.07	2796.01
548.43	2786.85
548.79	2777.49
549.14	2768.39
549.50	2759.34
549.86	2749.46
550.21	2737.97
550.57	2727.61
550.92	2715.53
551.28	2703.89
551.64	2692.50
551.99	2680.80
552.35	2668.67
552.70	2656.48
553.06	2644.68
553.41	2632.42
553.77	2620.02
554.13	2607.59
554.48	2594.07
554.84	2579.74
555.19	2565.87
555.55	2551.91
555.90	2538.44
556.26	2525.22
556.61	2510.89
556.97	2495.58
557.32	2480.73
557.68	2466.26
558.03	2451.49
558.39	2437.66
558.74	2424.36
559.10	2409.20
559.45	2394.22
559.81	2379.96
560.16	2365.29
560.52	2350.40
560.87	2335.73
561.23	2320.68
561.58	2306.23
561.94	2291.31
562.29	2275.87
562.64	2260.59
563.00	2245.41
563.35	2230.34
563.71	2214.94
564.06	2199.68
564.42	2185.02
564.77	2170.37
565.12	2155.37
565.48	2140.16
565.83	2125.16
566.19	2110.08
566.54	2095.24
566.89	2079.95
567.25	2064.55
567.60	2049.99
567.96	2034.68
568.31	2018.17
568.66	2002.64
569.02	1987.56
569.37	1973.08
569.72	1959.24
570.08	1944.88
570.43	1929.95
570.78	1914.88
571.14	1899.63
571.49	1884.43
571.84	1869.47
572.20	1853.32
572.55	1838.01
572.90	1822.77
573.26	1807.50
573.61	1791.65
573.96	1776.38
574.31	1760.92
574.67	1745.25
575.02	1729.29
575.37	1713.40
575.72	1698.26
576.08	1682.74
576.43	1666.62
576.78	1650.67
577.13	1634.91
577.49	1619.43
577.84	1604.41
578.19	1588.89
578.54	1573.44
578.90	1557.91
579.25	1542.26
579.60	1527.80
579.95	1513.03
580.30	1498.19
580.66	1483.11
581.01	1468.09
581.36	1453.21
581.71	1439.11
582.06	1425.00
582.42	1410.73
582.77	1396.93
583.12	1383.33
583.47	1369.72
583.82	1356.27
584.17	1342.38
584.53	1328.55
584.88	1315.00
585.23	1301.29
585.58	1288.02
585.93	1274.63
586.28	1262.24
586.63	1249.67
586.98	1236.70
587.34	1224.10
587.69	1211.33
588.04	1198.92
588.39	1186.77
588.74	1174.20
589.09	1161.78
589.44	1149.11
589.79	1136.99
590.14	1124.93
590.49	1112.92
590.84	1101.18
591.19	1089.71
591.54	1078.36
591.89	1066.61
592.25	1055.24
592.60	1043.74
592.95	1032.36
593.30	1021.38
593.65	1010.09
594.00	999.09
594.35	988.99
594.70	978.19
595.05	968.02
595.40	957.64
595.75	947.14
596.10	937.25
596.45	927.36
596.80	917.80
597.15	908.23
597.50	898.66
597.85	889.32
598.19	879.98
598.54	870.68
598.89	861.88
599.24	853.48
599.59	844.89
599.94	836.93
600.29	828.98
600.64	820.84
600.99	812.58
601.34	804.59
601.69	796.12
602.04	788.54
602.39	780.83
602.74	773.33
603.08	765.99
603.43	758.61
603.78	751.21
604.13	743.88
604.48	736.63
604.83	729.59
605.18	722.63
605.53	715.81
605.87	708.95
606.22	702.19
606.57	695.35
606.92	688.43
607.27	681.55
607.62	674.89
607.96	668.46
608.31	662.51
608.66	656.49
609.01	650.71
609.36	644.89
609.70	639.03
610.05	633.17
610.40	627.50
610.75	621.80
611.10	616.32
611.44	610.86
611.79	605.50
612.14	600.07
612.49	594.73
612.83	589.66
613.18	584.64
613.53	579.62
613.88	574.75
614.22	570.23
614.57	565.62
614.92	561.09
615.27	556.71
615.61	552.20
615.96	547.71
616.31	543.26
616.65	538.95
617.00	534.77
617.35	530.65
617.70	526.53
618.04	522.54
618.39	518.65
618.74	515.00
619.08	511.31
619.43	507.74
619.78	504.11
620.12	500.47
620.47	497.06
620.82	493.72
621.16	490.40
621.51	487.12
621.85	483.86
622.20	480.68
622.55	477.42
622.89	474.24
623.24	471.25
623.59	468.30
623.93	465.43
624.28	462.70
624.62	460.14
624.97	457.61
625.32	454.98
625.66	452.32
626.01	449.64
626.35	447.12
626.70	444.52
627.04	442.12
627.39	439.68
627.73	437.33
628.08	435.03
628.43	432.74
628.77	430.38
629.12	428.13
629.46	426.00
629.81	424.01
630.15	421.94
630.50	419.89
630.84	417.88
631.19	415.91
631.53	414.02
631.88	411.96
632.22	410.01
632.57	408.33
632.91	406.62
633.26	404.98
633.60	403.34
633.95	401.79
634.29	400.13
634.64	398.53
634.98	396.79
635.32	395.24
635.67	393.84
636.01	392.43
636.36	391.07
636.70	389.79
637.05	388.34
637.39	387.05
637.73	385.74
638.08	384.51
638.42	383.32
638.77	382.00
639.11	380.66
639.45	379.35
639.80	377.99
640.14	376.72
640.49	375.43
640.83	374.15
641.17	372.92
641.52	371.72
641.86	370.56
642.20	369.54
642.55	368.34
642.89	367.16
643.23	366.05
643.58	365.06
643.92	363.90
644.26	362.85
644.61	361.83
644.95	360.78
645.29	359.66
645.64	358.50
645.98	357.47
646.32	356.56
646.66	355.58
647.01	354.64
647.35	353.78
647.69	352.89
648.04	352.07
648.38	351.19
648.72	350.36
649.06	349.50
649.41	348.62
649.75	347.79
650.09	347.00
650.43	346.17
650.78	345.32
651.12	344.52
651.46	343.72
651.80	342.94
652.14	342.22
652.49	341.55
652.83	340.83
653.17	340.07
653.51	339.34
653.85	338.71
654.20	338.03
654.54	337.25
654.88	336.50
655.22	335.83
655.56	335.13
655.90	334.44
656.25	333.78
656.59	333.13
656.93	332.52
657.27	331.95
657.61	331.32
657.95	330.74
658.29	330.14
658.64	329.56
658.98	328.92
659.32	328.29
659.66	327.70
660.00	327.15
660.34	326.59
660.68	325.99
661.02	325.34
661.36	324.73
661.70	324.18
662.05	323.64
662.39	323.08
662.73	322.62
663.07	322.19
663.41	321.72
663.75	321.20
664.09	320.69
664.43	320.06
664.77	319.54
665.11	318.95
665.45	318.42
665.79	317.94
666.13	317.42
666.47	316.89
666.81	316.33
667.15	315.74
667.49	315.29
667.83	314.88
668.17	314.44
668.51	314.02
668.85	313.61
669.19	313.26
669.53	312.73
669.87	312.19
670.21	311.65
670.55	311.15
670.89	310.75
671.23	310.31
671.57	309.93
671.91	309.58
672.25	309.25
672.58	308.92
672.92	308.48
673.26	308.14
673.60	307.79
673.94	307.43
674.28	307.11
674.62	306.75
674.96	306.32
675.30	305.94
675.64	305.51
675.97	305.07
676.31	304.59
676.65	304.19
676.99	303.89
677.33	303.47
677.67	303.10
678.01	302.64
678.34	302.24
678.68	301.86
679.02	301.42
679.36	300.99
679.70	300.55
680.04	300.17
680.37	299.77
680.71	299.40
681.05	299.05
681.39	298.64
681.73	298.19
682.06	297.77
682.40	297.38
682.74	297.04
683.08	296.76
683.42	296.41
683.75	296.07
684.09	295.62
684.43	295.25
684.77	294.84
685.10	294.46
685.44	294.08
685.78	293.68
686.12	293.30
686.45	292.91
686.79	292.48
687.13	292.08
687.46	291.65
687.80	291.25
688.14	290.79
688.48	290.39
688.81	289.98
689.15	289.64
689.49	289.22
689.82	288.79
690.16	288.27
690.50	287.82
690.83	287.39
691.17	286.95
691.51	286.54
691.84	286.17
692.18	285.75
692.52	285.30
692.85	284.88
693.19	284.52
693.52	284.10
693.86	283.69
694.20	283.27
694.53	282.86
694.87	282.41
695.21	281.98
695.54	281.56
695.88	281.12
696.21	280.64
696.55	280.21
696.88	279.79
697.22	279.38
697.56	279.00
697.89	278.55
698.23	278.16
698.56	277.72
698.90	277.33
699.23	276.89
699.57	276.50
699.90	276.10
700.24	275.65
700.58	275.26
700.91	274.92
701.25	274.69
701.58	274.39
701.92	274.06
702.25	273.70
702.59	273.31
702.92	272.94
703.26	272.55
703.59	272.17
703.93	271.93
704.26	271.57
704.60	271.18
704.93	270.80
705.26	270.40
705.60	270.07
705.93	269.64
706.27	269.35
706.60	269.02
706.94	268.72
707.27	268.32
707.61	267.96
707.94	267.55
708.27	267.03
708.61	266.59
708.94	266.18
709.28	265.82
709.61	265.46
709.94	265.14
710.28	264.81
710.61	264.50
710.95	264.01
711.28	263.79
711.61	263.44
711.95	263.15
712.28	262.81
712.61	262.46
712.95	262.24
713.28	261.97
713.61	261.61
713.95	261.24
714.28	260.93
714.61	260.58
714.95	260.27
715.28	259.95
715.61	259.66
715.95	259.38
716.28	259.07
716.61	258.81
716.95	258.49
717.28	258.19
717.61	257.89
717.94	257.61
718.28	257.20
718.61	256.91
718.94	256.60
719.27	256.33
719.61	256.09
719.94	255.77
720.27	255.40
720.60	255.14
720.94	254.87
721.27	254.62
721.60	254.40
721.93	254.13
722.27	253.92
722.60	253.66
722.93	253.38
723.26	253.16
723.59	252.87
723.93	252.65
724.26	252.43
724.59	252.18
724.92	251.96
725.25	251.79
725.59	251.57
725.92	251.36
726.25	251.13
726.58	250.90
726.91	250.67
727.24	250.47
727.57	250.24
727.91	249.99
728.24	249.79
728.57	249.55
728.90	249.35
729.23	249.08
729.56	248.95
729.89	248.75
730.22	248.52
730.55	248.32
730.89	248.11
731.22	247.90
731.55	247.70
731.88	247.50
732.21	247.27
732.54	247.07
732.87	246.88
733.20	246.70
733.53	246.52
733.86	246.35
734.19	246.15
734.52	246.01
734.85	245.97
735.18	245.77
735.51	245.65
735.84	245.50
736.17	245.39
736.50	245.13
736.83	245.17
737.16	245.00
737.49	244.84
737.82	244.67
738.15	244.52
738.48	244.36
738.81	244.18
739.14	243.99
739.47	243.81
739.80	243.65
740.13	243.50
740.46	243.31
740.79	243.12
741.12	242.94
741.45	242.75
741.78	242.49
742.11	242.38
742.44	242.17
742.77	242.03
743.10	241.84
743.43	241.69
743.75	241.34
744.08	241.47
744.41	241.32
744.74	241.16
745.07	240.98
745.40	240.87
745.73	240.80
746.06	240.68
746.39	240.58
746.71	240.43
747.04	240.27
747.37	240.13
747.70	240.03
748.03	239.90
748.36	239.81
748.68	239.68
749.01	239.50
749.34	239.39
749.67	239.26
750.00	239.16
750.33	239.17
750.65	239.07
750.98	238.69
751.31	238.58
751.64	238.49
751.97	238.47
752.29	238.34
752.62	238.15
752.95	238.02
753.28	237.88
753.60	237.76
753.93	237.69
754.26	237.60
754.59	237.44
754.91	237.32
755.24	237.19
755.57	237.08
755.90	236.97
756.22	236.85
756.55	236.71
756.88	236.56
757.20	236.34
757.53	236.19
757.86	236.08
758.19	235.99
758.51	235.88
758.84	235.70
759.17	235.58
759.49	235.49
759.82	235.48
760.15	235.40
760.47	235.31
760.80	235.16
761.13	235.09
761.45	235.00
761.78	234.91
762.11	234.84
762.43	234.72
762.76	234.64
763.08	234.58
763.41	234.51
763.74	234.45
764.06	234.36
764.39	234.29
764.71	234.20
765.04	234.10
765.37	234.00
765.69	233.92
766.02	233.84
766.34	233.75
766.67	233.61
767.00	233.57
767.32	233.60
767.65	233.65
767.97	233.57
768.30	233.51
768.62	233.45
768.95	233.36
769.27	233.29
769.60	233.25
769.92	233.15
770.25	233.05
770.57	232.96
770.90	232.90
771.22	232.83
771.55	232.78
771.87	232.74
772.20	232.67
772.52	232.77
772.85	232.93
773.17	232.88
773.50	232.82
773.82	232.73
774.15	232.58
774.47	232.42
774.80	232.35
775.12	232.29
775.45	232.24
775.77	232.20
776.09	232.16
776.42	232.11
776.74	232.12
777.07	232.07
777.39	232.04
777.72	231.98
778.04	231.96
778.36	231.89
778.69	231.85
779.01	231.83
779.33	231.63
779.66	231.38
779.98	231.33
780.31	231.30
780.63	231.34
780.95	231.34
781.28	231.29
781.60	231.24
781.92	231.20
782.25	231.16
782.57	231.13
782.89	231.08
783.22	231.03
783.54	230.96
783.86	230.94
784.19	230.90
784.51	230.92
784.83	230.86
785.16	230.83
785.48	230.80
785.80	230.76
786.12	230.74
786.45	230.72
786.77	230.70
787.09	230.65
787.42	230.55
787.74	230.52
788.06	230.50
788.38	230.47
788.71	230.42
789.03	230.40
789.35	230.39
789.67	230.35
789.99	230.33
790.32	230.29
790.64	230.28
790.96	230.42
791.28	230.33
791.61	230.30
791.93	230.28
792.25	230.24
792.57	230.34
792.89	230.28
793.21	230.27
793.54	230.23
793.86	230.19
794.18	230.17
794.50	230.12
794.82	230.09
795.14	230.10
795.47	230.11
795.79	230.09
796.11	230.03
796.43	230.00
796.75	229.98
797.07	229.95
797.39	229.92
797.71	229.74
798.04	229.74
798.36	229.73
798.68	229.70
799.00	229.70
799.32	229.59
799.64	229.61
799.96	229.58
800.28	229.60
800.60	229.57
800.92	229.57
801.24	229.54
801.56	229.54
801.89	229.49
802.21	229.49
802.53	229.44
802.85	229.46
803.17	229.54
803.49	229.48
803.81	229.46
804.13	229.43
804.45	229.39
804.77	229.39
805.09	229.37
805.41	229.34
805.73	229.28
806.05	229.22
806.37	229.18
806.69	229.15
807.01	229.12
807.33	229.11
807.65	229.03
807.97	229.09
808.28	229.06
808.60	229.03
808.92	228.98
809.24	229.08
809.56	229.03
809.88	228.94
810.20	228.94
810.52	228.97
810.84	228.92
811.16	228.90
811.48	228.87
811.80	228.91
812.12	228.90
812.43	228.93
812.75	228.94
813.07	228.91
813.39	228.90
813.71	228.86
814.03	228.83
814.35	228.83
814.67	228.74
814.98	228.72
815.30	228.72
815.62	228.67
815.94	228.54
816.26	228.54
816.58	228.50
816.89	228.50
817.21	228.44
817.53	228.44
817.85	228.43
818.17	228.42
818.48	228.34
