SpectraSuite Data File
++++++++++++++++++++++++++++++++++++
Date: Tue Oct 06 11:13:48 EDT 2015
User: lab3
Dark Spectrum Present: No
Reference Spectrum Present: No
Number of Sampled Component Spectra: 1
Spectrometers: USB2E7196
Integration Time (usec): 66000 (USB2E7196)
Spectra Averaged: 1000 (USB2E7196)
Boxcar Smoothing: 10 (USB2E7196)
Correct for Electrical Dark: No (USB2E7196)
Strobe/Lamp Enabled: No (USB2E7196)
Correct for Detector Non-linearity: No (USB2E7196)
Correct for Stray Light: No (USB2E7196)
Number of Pixels in Processed Spectrum: 2048
>>>>>Begin Processed Spectral Data<<<<<
339.09	0.00
339.48	216.14
339.86	217.59
340.24	218.73
340.63	220.31
341.01	224.34
341.39	223.18
341.78	224.47
342.16	225.86
342.54	225.97
342.93	214.55
343.31	225.38
343.69	225.92
344.07	226.38
344.46	226.83
344.84	227.24
345.22	227.44
345.60	227.69
345.99	227.89
346.37	228.02
346.75	228.13
347.13	228.20
347.52	228.28
347.90	228.40
348.28	228.46
348.66	228.55
349.05	228.52
349.43	228.58
349.81	228.64
350.19	228.69
350.57	228.76
350.96	228.86
351.34	228.96
351.72	229.06
352.10	229.18
352.48	229.25
352.87	229.29
353.25	229.35
353.63	229.41
354.01	229.48
354.39	229.56
354.77	229.65
355.15	229.78
355.54	229.81
355.92	229.82
356.30	229.88
356.68	230.04
357.06	230.12
357.44	230.16
357.82	230.23
358.20	230.45
358.58	230.51
358.97	230.57
359.35	230.65
359.73	230.74
360.11	230.79
360.49	230.85
360.87	230.91
361.25	230.97
361.63	231.08
362.01	231.13
362.39	231.15
362.77	231.19
363.15	231.21
363.53	231.24
363.91	231.28
364.29	231.31
364.67	231.17
365.05	231.21
365.43	231.25
365.81	231.27
366.19	231.20
366.57	231.28
366.95	231.28
367.33	231.24
367.71	231.24
368.09	231.27
368.47	231.27
368.85	231.25
369.23	231.29
369.61	231.20
369.99	231.24
370.37	231.26
370.75	231.38
371.13	231.34
371.51	231.30
371.89	231.30
372.27	231.28
372.65	231.26
373.03	231.22
373.41	231.18
373.78	231.13
374.16	231.03
374.54	230.93
374.92	230.88
375.30	230.86
375.68	230.78
376.06	230.74
376.44	230.69
376.82	230.65
377.19	230.61
377.57	230.57
377.95	230.48
378.33	230.41
378.71	230.21
379.09	230.17
379.47	230.16
379.84	230.09
380.22	230.03
380.60	229.95
380.98	229.91
381.36	229.85
381.73	229.78
382.11	229.76
382.49	229.73
382.87	229.66
383.25	229.62
383.62	229.79
384.00	229.70
384.38	229.66
384.76	229.64
385.13	229.65
385.51	229.62
385.89	229.56
386.27	229.53
386.64	229.53
387.02	229.48
387.40	229.42
387.78	229.41
388.15	229.40
388.53	229.37
388.91	229.34
389.29	229.31
389.66	229.31
390.04	229.27
390.42	229.29
390.79	229.29
391.17	229.28
391.55	229.07
391.92	229.08
392.30	229.10
392.68	229.07
393.05	229.05
393.43	229.05
393.81	229.06
394.18	229.03
394.56	229.04
394.94	229.11
395.31	229.12
395.69	229.19
396.06	229.24
396.44	229.28
396.82	229.31
397.19	229.45
397.57	229.47
397.95	229.53
398.32	229.51
398.70	229.58
399.07	229.68
399.45	229.74
399.82	229.83
400.20	229.87
400.58	229.97
400.95	229.99
401.33	230.13
401.70	230.36
402.08	230.50
402.45	230.63
402.83	230.79
403.20	230.95
403.58	231.09
403.95	231.29
404.33	231.52
404.71	231.73
405.08	232.04
405.46	232.29
405.83	232.57
406.21	232.87
406.58	233.20
406.96	233.52
407.33	233.90
407.70	234.30
408.08	234.88
408.45	235.38
408.83	235.92
409.20	236.42
409.58	236.88
409.95	237.50
410.33	238.18
410.70	238.83
411.08	239.58
411.45	240.37
411.82	241.18
412.20	242.11
412.57	243.20
412.95	244.07
413.32	245.20
413.69	246.38
414.07	247.62
414.44	249.00
414.82	250.40
415.19	252.03
415.56	253.70
415.94	255.43
416.31	257.36
416.68	259.30
417.06	261.56
417.43	263.68
417.81	266.11
418.18	268.59
418.55	271.29
418.93	274.13
419.30	277.09
419.67	280.23
420.04	283.45
420.42	286.83
420.79	290.72
421.16	294.67
421.54	298.64
421.91	302.81
422.28	307.13
422.66	311.78
423.03	316.19
423.40	320.83
423.77	325.80
424.15	330.87
424.52	336.14
424.89	341.85
425.26	347.51
425.64	352.78
426.01	358.69
426.38	364.73
426.75	370.92
427.13	377.25
427.50	383.87
427.87	390.73
428.24	397.65
428.61	404.27
428.99	411.39
429.36	419.29
429.73	426.83
430.10	434.33
430.47	442.00
430.85	449.97
431.22	458.46
431.59	467.15
431.96	475.61
432.33	485.03
432.70	493.99
433.08	504.62
433.45	514.66
433.82	524.49
434.19	535.49
434.56	546.31
434.93	556.80
435.30	567.21
435.68	579.04
436.05	590.60
436.42	602.17
436.79	612.76
437.16	624.12
437.53	636.36
437.90	648.66
438.27	660.62
438.64	673.50
439.01	685.22
439.38	696.08
439.75	706.55
440.13	718.50
440.50	729.86
440.87	738.85
441.24	748.68
441.61	759.55
441.98	767.56
442.35	777.04
442.72	786.73
443.09	796.04
443.46	802.15
443.83	806.74
444.20	810.50
444.57	816.04
444.94	819.44
445.31	822.87
445.68	825.74
446.05	827.90
446.42	827.65
446.79	827.18
447.16	826.76
447.53	826.52
447.90	823.12
448.27	819.75
448.64	814.50
449.01	811.06
449.37	803.65
449.74	797.00
450.11	788.35
450.48	778.79
450.85	769.12
451.22	760.73
451.59	752.56
451.96	745.28
452.33	734.59
452.70	725.00
453.07	713.39
453.43	701.89
453.80	690.68
454.17	679.93
454.54	669.92
454.91	658.59
455.28	647.83
455.65	637.59
456.02	626.91
456.38	618.31
456.75	607.20
457.12	598.21
457.49	589.11
457.86	580.56
458.23	573.06
458.59	564.78
458.96	556.28
459.33	548.82
459.70	541.19
460.07	535.32
460.43	528.46
460.80	522.00
461.17	516.33
461.54	510.32
461.91	504.68
462.27	498.96
462.64	494.27
463.01	488.87
463.38	483.53
463.74	478.70
464.11	474.42
464.48	470.55
464.85	466.35
465.21	463.12
465.58	459.53
465.95	455.44
466.32	452.17
466.68	448.98
467.05	445.74
467.42	442.58
467.78	439.22
468.15	436.12
468.52	433.84
468.88	430.85
469.25	428.11
469.62	425.93
469.98	423.53
470.35	421.38
470.72	419.48
471.08	417.48
471.45	415.81
471.82	413.93
472.18	411.97
472.55	410.72
472.92	409.17
473.28	407.95
473.65	406.64
474.02	405.43
474.38	404.39
474.75	403.78
475.11	402.90
475.48	402.49
475.85	402.07
476.21	401.83
476.58	401.67
476.94	401.87
477.31	401.91
477.67	402.03
478.04	402.33
478.41	402.74
478.77	403.35
479.14	403.71
479.50	404.48
479.87	405.47
480.23	406.45
480.60	407.42
480.96	408.39
481.33	409.81
481.69	411.22
482.06	412.65
482.42	413.96
482.79	415.57
483.15	417.45
483.52	419.55
483.88	421.56
484.25	423.74
484.61	426.03
484.98	428.45
485.34	431.21
485.71	434.07
486.07	437.11
486.44	440.12
486.80	443.51
487.17	446.96
487.53	450.76
487.90	454.72
488.26	459.01
488.62	463.54
488.99	468.10
489.35	472.92
489.72	478.07
490.08	483.49
490.44	489.00
490.81	494.71
491.17	500.58
491.54	506.83
491.90	513.20
492.26	519.96
492.63	527.06
492.99	534.44
493.36	542.11
493.72	550.18
494.08	558.41
494.45	567.07
494.81	576.11
495.17	585.31
495.54	595.03
495.90	605.20
496.26	615.61
496.63	626.24
496.99	637.24
497.35	648.69
497.72	660.51
498.08	672.72
498.44	685.23
498.80	698.52
499.17	712.15
499.53	726.22
499.89	740.71
500.26	755.30
500.62	770.14
500.98	785.69
501.34	801.39
501.71	817.84
502.07	834.56
502.43	851.74
502.79	869.04
503.16	886.79
503.52	904.67
503.88	923.01
504.24	941.79
504.60	960.83
504.97	980.33
505.33	1000.23
505.69	1021.21
506.05	1042.19
506.41	1063.00
506.78	1084.10
507.14	1105.99
507.50	1128.35
507.86	1151.24
508.22	1174.20
508.59	1196.97
508.95	1220.48
509.31	1244.50
509.67	1269.00
510.03	1293.42
510.39	1318.12
510.75	1342.90
511.12	1367.97
511.48	1392.92
511.84	1417.88
512.20	1443.20
512.56	1469.13
512.92	1494.83
513.28	1520.01
513.64	1545.68
514.00	1571.36
514.37	1597.33
514.73	1623.09
515.09	1648.20
515.45	1673.45
515.81	1698.72
516.17	1724.00
516.53	1748.70
516.89	1773.32
517.25	1798.08
517.61	1822.66
517.97	1847.46
518.33	1871.56
518.69	1895.45
519.05	1919.53
519.41	1943.69
519.77	1967.69
520.13	1991.10
520.49	2014.49
520.85	2038.08
521.21	2061.11
521.57	2084.67
521.93	2106.97
522.29	2129.64
522.65	2151.86
523.01	2174.00
523.37	2195.36
523.73	2217.13
524.09	2238.87
524.45	2260.41
524.81	2281.23
525.17	2301.63
525.53	2321.37
525.89	2341.69
526.25	2361.28
526.61	2379.83
526.97	2398.39
527.33	2416.67
527.68	2433.88
528.04	2450.52
528.40	2466.10
528.76	2482.22
529.12	2496.98
529.48	2512.37
529.84	2526.42
530.20	2541.40
530.56	2555.20
530.91	2569.31
531.27	2582.28
531.63	2594.25
531.99	2605.61
532.35	2615.85
532.71	2625.92
533.07	2636.34
533.42	2645.10
533.78	2654.64
534.14	2664.63
534.50	2673.21
534.86	2681.83
535.21	2688.46
535.57	2695.45
535.93	2702.67
536.29	2708.59
536.65	2714.65
537.00	2718.68
537.36	2723.05
537.72	2725.86
538.08	2728.54
538.44	2729.82
538.79	2731.80
539.15	2733.00
539.51	2733.78
539.87	2734.58
540.22	2733.77
540.58	2733.25
540.94	2732.61
541.29	2730.71
541.65	2727.25
542.01	2723.85
542.37	2719.34
542.72	2716.81
543.08	2712.61
543.44	2708.24
543.79	2702.44
544.15	2696.19
544.51	2690.84
544.87	2683.69
545.22	2675.99
545.58	2668.06
545.94	2660.88
546.29	2652.28
546.65	2643.42
547.01	2634.59
547.36	2625.49
547.72	2616.31
548.07	2605.82
548.43	2595.05
548.79	2583.44
549.14	2572.59
549.50	2561.59
549.86	2550.18
550.21	2537.14
550.57	2525.25
550.92	2511.30
551.28	2498.20
551.64	2485.75
551.99	2473.08
552.35	2460.41
552.70	2447.69
553.06	2435.43
553.41	2422.31
553.77	2408.41
554.13	2394.67
554.48	2380.40
554.84	2365.82
555.19	2351.86
555.55	2337.41
555.90	2322.94
556.26	2309.39
556.61	2294.86
556.97	2279.52
557.32	2264.49
557.68	2249.54
558.03	2234.17
558.39	2219.81
558.74	2205.65
559.10	2189.59
559.45	2174.04
559.81	2159.32
560.16	2144.32
560.52	2128.99
560.87	2114.30
561.23	2099.17
561.58	2084.39
561.94	2068.80
562.29	2053.40
562.64	2038.00
563.00	2022.88
563.35	2008.43
563.71	1993.60
564.06	1978.56
564.42	1964.05
564.77	1949.49
565.12	1935.38
565.48	1921.29
565.83	1907.24
566.19	1893.12
566.54	1879.35
566.89	1864.49
567.25	1849.26
567.60	1835.03
567.96	1820.39
568.31	1805.05
568.66	1790.46
569.02	1776.08
569.37	1761.98
569.72	1748.01
570.08	1734.14
570.43	1719.93
570.78	1705.04
571.14	1690.07
571.49	1675.70
571.84	1662.07
572.20	1647.33
572.55	1632.77
572.90	1617.70
573.26	1602.58
573.61	1587.30
573.96	1572.73
574.31	1558.72
574.67	1544.96
575.02	1530.35
575.37	1515.51
575.72	1500.92
576.08	1486.83
576.43	1472.52
576.78	1458.36
577.13	1444.32
577.49	1430.36
577.84	1416.42
578.19	1402.48
578.54	1388.76
578.90	1375.03
579.25	1360.69
579.60	1347.40
579.95	1334.15
580.30	1320.91
580.66	1307.72
581.01	1294.79
581.36	1281.64
581.71	1268.42
582.06	1255.17
582.42	1242.13
582.77	1229.51
583.12	1217.14
583.47	1204.60
583.82	1192.32
584.17	1179.95
584.53	1167.74
584.88	1155.68
585.23	1143.60
585.58	1131.87
585.93	1120.25
586.28	1109.07
586.63	1097.90
586.98	1086.59
587.34	1075.58
587.69	1064.46
588.04	1053.73
588.39	1043.08
588.74	1032.22
589.09	1021.73
589.44	1011.04
589.79	1000.85
590.14	990.80
590.49	980.79
590.84	971.03
591.19	961.30
591.54	951.64
591.89	941.58
592.25	931.76
592.60	921.87
592.95	912.25
593.30	902.58
593.65	892.82
594.00	883.37
594.35	874.67
594.70	865.47
595.05	856.92
595.40	848.15
595.75	839.13
596.10	830.75
596.45	822.24
596.80	814.02
597.15	805.81
597.50	797.65
597.85	789.75
598.19	781.81
598.54	773.85
598.89	766.10
599.24	758.76
599.59	751.47
599.94	744.70
600.29	737.71
600.64	730.83
600.99	723.91
601.34	717.16
601.69	709.86
602.04	703.11
602.39	696.50
602.74	690.07
603.08	683.81
603.43	677.56
603.78	671.39
604.13	665.36
604.48	659.29
604.83	653.41
605.18	647.59
605.53	641.91
605.87	636.17
606.22	630.64
606.57	625.03
606.92	619.35
607.27	613.75
607.62	608.44
607.96	603.22
608.31	598.32
608.66	593.34
609.01	588.57
609.36	583.94
609.70	579.16
610.05	574.35
610.40	569.70
610.75	565.01
611.10	560.61
611.44	556.12
611.79	551.79
612.14	547.49
612.49	543.15
612.83	538.94
613.18	534.92
613.53	530.96
613.88	527.07
614.22	523.36
614.57	519.52
614.92	515.76
615.27	512.06
615.61	508.40
615.96	504.81
616.31	501.24
616.65	497.69
617.00	494.27
617.35	490.94
617.70	487.66
618.04	484.50
618.39	481.33
618.74	478.34
619.08	475.25
619.43	472.22
619.78	469.27
620.12	466.41
620.47	463.69
620.82	460.93
621.16	458.23
621.51	455.67
621.85	453.17
622.20	450.69
622.55	448.23
622.89	445.80
623.24	443.51
623.59	441.23
623.93	439.03
624.28	436.91
624.62	435.01
624.97	433.09
625.32	431.02
625.66	428.92
626.01	426.88
626.35	424.97
626.70	423.03
627.04	421.23
627.39	419.36
627.73	417.54
628.08	415.81
628.43	414.14
628.77	412.38
629.12	410.75
629.46	409.13
629.81	407.63
630.15	406.02
630.50	404.43
630.84	402.95
631.19	401.51
631.53	400.11
631.88	398.48
632.22	396.94
632.57	395.73
632.91	394.51
633.26	393.33
633.60	392.13
633.95	390.97
634.29	389.70
634.64	388.54
634.98	387.24
635.32	386.10
635.67	385.00
636.01	383.94
636.36	382.91
636.70	381.99
637.05	380.88
637.39	379.94
637.73	379.02
638.08	378.13
638.42	377.22
638.77	376.23
639.11	375.21
639.45	374.22
639.80	373.19
640.14	372.22
640.49	371.22
640.83	370.23
641.17	369.28
641.52	368.37
641.86	367.46
642.20	366.73
642.55	365.82
642.89	364.92
643.23	364.06
643.58	363.29
643.92	362.33
644.26	361.47
644.61	360.68
644.95	359.86
645.29	358.96
645.64	358.05
645.98	357.20
646.32	356.49
646.66	355.75
647.01	354.96
647.35	354.23
647.69	353.47
648.04	352.76
648.38	352.01
648.72	351.33
649.06	350.65
649.41	349.90
649.75	349.20
650.09	348.55
650.43	347.86
650.78	347.13
651.12	346.47
651.46	345.83
651.80	345.17
652.14	344.50
652.49	343.88
652.83	343.24
653.17	342.62
653.51	341.99
653.85	341.44
654.20	340.85
654.54	340.18
654.88	339.56
655.22	338.96
655.56	338.26
655.90	337.59
656.25	336.93
656.59	336.29
656.93	335.71
657.27	335.17
657.61	334.57
657.95	334.03
658.29	333.46
658.64	332.95
658.98	332.34
659.32	331.72
659.66	331.16
660.00	330.63
660.34	330.10
660.68	329.52
661.02	328.86
661.36	328.28
661.70	327.73
662.05	327.17
662.39	326.68
662.73	326.27
663.07	325.85
663.41	325.34
663.75	324.80
664.09	324.27
664.43	323.66
664.77	323.15
665.11	322.52
665.45	321.97
665.79	321.41
666.13	320.86
666.47	320.34
666.81	319.79
667.15	319.17
667.49	318.66
667.83	318.21
668.17	317.71
668.51	317.23
668.85	316.78
669.19	316.43
669.53	315.90
669.87	315.39
670.21	314.89
670.55	314.44
670.89	314.08
671.23	313.61
671.57	313.19
671.91	312.79
672.25	312.41
672.58	312.03
672.92	311.56
673.26	311.17
673.60	310.74
673.94	310.32
674.28	309.96
674.62	309.57
674.96	309.08
675.30	308.68
675.64	308.25
675.97	307.76
676.31	307.21
676.65	306.73
676.99	306.34
677.33	305.83
677.67	305.37
678.01	304.80
678.34	304.34
678.68	303.86
679.02	303.37
679.36	302.91
679.70	302.42
680.04	301.98
680.37	301.54
680.71	301.11
681.05	300.69
681.39	300.23
681.73	299.73
682.06	299.26
682.40	298.81
682.74	298.41
683.08	298.07
683.42	297.64
683.75	297.22
684.09	296.69
684.43	296.24
684.77	295.77
685.10	295.37
685.44	294.96
685.78	294.55
686.12	294.11
686.45	293.64
686.79	293.17
687.13	292.75
687.46	292.29
687.80	291.83
688.14	291.32
688.48	290.86
688.81	290.41
689.15	290.03
689.49	289.58
689.82	289.10
690.16	288.55
690.50	288.08
690.83	287.62
691.17	287.17
691.51	286.72
691.84	286.33
692.18	285.87
692.52	285.40
692.85	284.95
693.19	284.57
693.52	284.15
693.86	283.72
694.20	283.26
694.53	282.83
694.87	282.35
695.21	281.89
695.54	281.46
695.88	281.00
696.21	280.49
696.55	280.04
696.88	279.60
697.22	279.14
697.56	278.74
697.89	278.26
698.23	277.83
698.56	277.38
698.90	276.95
699.23	276.49
699.57	276.08
699.90	275.64
700.24	275.15
700.58	274.73
700.91	274.35
701.25	274.10
701.58	273.76
701.92	273.45
702.25	273.10
702.59	272.69
702.92	272.31
703.26	271.93
703.59	271.53
703.93	271.28
704.26	270.91
704.60	270.50
704.93	270.11
705.26	269.70
705.60	269.36
705.93	268.92
706.27	268.61
706.60	268.28
706.94	267.97
707.27	267.57
707.61	267.20
707.94	266.79
708.27	266.26
708.61	265.81
708.94	265.39
709.28	265.02
709.61	264.65
709.94	264.31
710.28	263.98
710.61	263.68
710.95	263.21
711.28	263.02
711.61	262.70
711.95	262.43
712.28	262.11
712.61	261.76
712.95	261.55
713.28	261.29
713.61	260.92
713.95	260.55
714.28	260.27
714.61	259.95
714.95	259.67
715.28	259.37
715.61	259.07
715.95	258.81
716.28	258.49
716.61	258.23
716.95	257.91
717.28	257.62
717.61	257.30
717.94	257.00
718.28	256.60
718.61	256.31
718.94	255.99
719.27	255.74
719.61	255.51
719.94	255.19
720.27	254.84
720.60	254.59
720.94	254.34
721.27	254.09
721.60	253.87
721.93	253.60
722.27	253.40
722.60	253.20
722.93	252.92
723.26	252.72
723.59	252.45
723.93	252.26
724.26	252.05
724.59	251.82
724.92	251.61
725.25	251.45
725.59	251.23
725.92	251.05
726.25	250.82
726.58	250.60
726.91	250.38
727.24	250.19
727.57	249.98
727.91	249.74
728.24	249.55
728.57	249.33
728.90	249.15
729.23	248.90
729.56	248.77
729.89	248.59
730.22	248.38
730.55	248.18
730.89	247.98
731.22	247.77
731.55	247.58
731.88	247.40
732.21	247.18
732.54	246.97
732.87	246.78
733.20	246.62
733.53	246.43
733.86	246.27
734.19	246.06
734.52	245.90
734.85	245.86
735.18	245.66
735.51	245.55
735.84	245.39
736.17	245.27
736.50	245.01
736.83	245.05
737.16	244.89
737.49	244.74
737.82	244.56
738.15	244.42
738.48	244.27
738.81	244.10
739.14	243.92
739.47	243.77
739.80	243.61
740.13	243.48
740.46	243.31
740.79	243.14
741.12	243.01
741.45	242.84
741.78	242.60
742.11	242.51
742.44	242.31
742.77	242.20
743.10	242.03
743.43	241.88
743.75	241.56
744.08	241.69
744.41	241.54
744.74	241.40
745.07	241.23
745.40	241.13
745.73	241.07
746.06	240.95
746.39	240.86
746.71	240.71
747.04	240.56
747.37	240.43
747.70	240.34
748.03	240.22
748.36	240.12
748.68	240.01
749.01	239.85
749.34	239.74
749.67	239.62
750.00	239.54
750.33	239.57
750.65	239.48
750.98	239.12
751.31	239.03
751.64	238.94
751.97	238.95
752.29	238.82
752.62	238.62
752.95	238.51
753.28	238.36
753.60	238.26
753.93	238.20
754.26	238.10
754.59	237.95
754.91	237.82
755.24	237.70
755.57	237.66
755.90	237.55
756.22	237.43
756.55	237.29
756.88	237.15
757.20	236.92
757.53	236.78
757.86	236.67
758.19	236.59
758.51	236.48
758.84	236.29
759.17	236.19
759.49	236.13
759.82	236.12
760.15	236.06
760.47	235.98
760.80	235.85
761.13	235.79
761.45	235.72
761.78	235.65
762.11	235.58
762.43	235.41
762.76	235.32
763.08	235.27
763.41	235.22
763.74	235.15
764.06	235.08
764.39	235.01
764.71	234.93
765.04	234.83
765.37	234.75
765.69	234.68
766.02	234.60
766.34	234.52
766.67	234.38
767.00	234.33
767.32	234.36
767.65	234.40
767.97	234.32
768.30	234.26
768.62	234.19
768.95	234.10
769.27	234.04
769.60	234.00
769.92	233.91
770.25	233.82
770.57	233.73
770.90	233.67
771.22	233.58
771.55	233.54
771.87	233.51
772.20	233.43
772.52	233.53
772.85	233.70
773.17	233.65
773.50	233.59
773.82	233.51
774.15	233.37
774.47	233.22
774.80	233.15
775.12	233.10
775.45	233.05
775.77	233.02
776.09	233.00
776.42	232.97
776.74	232.98
777.07	232.93
777.39	232.89
777.72	232.84
778.04	232.83
778.36	232.76
778.69	232.71
779.01	232.70
779.33	232.51
779.66	232.26
779.98	232.20
780.31	232.18
780.63	232.23
780.95	232.23
781.28	232.18
781.60	232.13
781.92	232.10
782.25	232.07
782.57	232.04
782.89	231.98
783.22	231.94
783.54	231.85
783.86	231.84
784.19	231.80
784.51	231.82
784.83	231.77
785.16	231.73
785.48	231.71
785.80	231.67
786.12	231.67
786.45	231.63
786.77	231.61
787.09	231.57
787.42	231.48
787.74	231.44
788.06	231.43
788.38	231.39
788.71	231.35
789.03	231.33
789.35	231.33
789.67	231.27
789.99	231.26
790.32	231.22
790.64	231.21
790.96	231.35
791.28	231.27
791.61	231.24
791.93	231.23
792.25	231.20
792.57	231.30
792.89	231.25
793.21	231.25
793.54	231.22
793.86	231.18
794.18	231.15
794.50	231.10
794.82	231.07
795.14	231.07
795.47	231.09
795.79	231.06
796.11	230.99
796.43	230.97
796.75	230.96
797.07	230.96
797.39	230.92
797.71	230.76
798.04	230.75
798.36	230.75
798.68	230.72
799.00	230.71
799.32	230.60
799.64	230.61
799.96	230.58
800.28	230.58
800.60	230.56
800.92	230.56
801.24	230.53
801.56	230.53
801.89	230.50
802.21	230.48
802.53	230.44
802.85	230.47
803.17	230.54
803.49	230.47
803.81	230.44
804.13	230.41
804.45	230.38
804.77	230.36
805.09	230.34
805.41	230.30
805.73	230.26
806.05	230.19
806.37	230.16
806.69	230.14
807.01	230.11
807.33	230.11
807.65	230.03
807.97	230.09
808.28	230.05
808.60	230.04
808.92	230.00
809.24	230.10
809.56	230.04
809.88	229.97
810.20	229.96
810.52	229.99
810.84	229.95
811.16	229.92
811.48	229.90
811.80	229.95
812.12	229.94
812.43	229.95
812.75	229.96
813.07	229.92
813.39	229.92
813.71	229.89
814.03	229.85
814.35	229.86
814.67	229.78
814.98	229.75
815.30	229.74
815.62	229.70
815.94	229.57
816.26	229.58
816.58	229.54
816.89	229.55
817.21	229.49
817.53	229.50
817.85	229.50
818.17	229.48
818.48	229.39
818.80	229.41
