SpectraSuite Data File
++++++++++++++++++++++++++++++++++++
Date: Tue Oct 06 17:12:33 EDT 2015
User: lab3
Dark Spectrum Present: No
Reference Spectrum Present: No
Number of Sampled Component Spectra: 1
Spectrometers: USB2E7196
Integration Time (usec): 66000 (USB2E7196)
Spectra Averaged: 1000 (USB2E7196)
Boxcar Smoothing: 10 (USB2E7196)
Correct for Electrical Dark: No (USB2E7196)
Strobe/Lamp Enabled: No (USB2E7196)
Correct for Detector Non-linearity: No (USB2E7196)
Correct for Stray Light: No (USB2E7196)
Number of Pixels in Processed Spectrum: 2048
>>>>>Begin Processed Spectral Data<<<<<
339.09	0.00
339.48	215.26
339.86	216.66
340.24	218.04
340.63	219.52
341.01	223.57
341.39	222.24
341.78	223.86
342.16	225.00
342.54	225.28
342.93	213.75
343.31	224.55
343.69	225.09
344.07	225.56
344.46	226.01
344.84	226.42
345.22	226.61
345.60	226.88
345.99	227.08
346.37	227.23
346.75	227.35
347.13	227.45
347.52	227.55
347.90	227.68
348.28	227.74
348.66	227.83
349.05	227.82
349.43	227.89
349.81	227.97
350.19	228.02
350.57	228.09
350.96	228.19
351.34	228.29
351.72	228.40
352.10	228.52
352.48	228.58
352.87	228.64
353.25	228.72
353.63	228.77
354.01	228.84
354.39	228.92
354.77	229.00
355.15	229.12
355.54	229.15
355.92	229.16
356.30	229.23
356.68	229.42
357.06	229.50
357.44	229.54
357.82	229.59
358.20	229.80
358.58	229.87
358.97	229.93
359.35	230.03
359.73	230.12
360.11	230.17
360.49	230.22
360.87	230.28
361.25	230.33
361.63	230.45
362.01	230.49
362.39	230.51
362.77	230.57
363.15	230.59
363.53	230.63
363.91	230.67
364.29	230.70
364.67	230.55
365.05	230.58
365.43	230.61
365.81	230.65
366.19	230.60
366.57	230.68
366.95	230.68
367.33	230.63
367.71	230.62
368.09	230.66
368.47	230.65
368.85	230.64
369.23	230.66
369.61	230.58
369.99	230.63
370.37	230.64
370.75	230.75
371.13	230.70
371.51	230.66
371.89	230.65
372.27	230.64
372.65	230.62
373.03	230.58
373.41	230.54
373.78	230.48
374.16	230.35
374.54	230.26
374.92	230.21
375.30	230.19
375.68	230.13
376.06	230.09
376.44	230.04
376.82	230.01
377.19	229.97
377.57	229.92
377.95	229.81
378.33	229.75
378.71	229.55
379.09	229.51
379.47	229.47
379.84	229.40
380.22	229.33
380.60	229.26
380.98	229.21
381.36	229.16
381.73	229.09
382.11	229.08
382.49	229.05
382.87	228.99
383.25	228.93
383.62	229.09
384.00	229.02
384.38	228.99
384.76	228.99
385.13	229.00
385.51	228.97
385.89	228.91
386.27	228.88
386.64	228.90
387.02	228.85
387.40	228.81
387.78	228.80
388.15	228.78
388.53	228.75
388.91	228.73
389.29	228.70
389.66	228.71
390.04	228.67
390.42	228.68
390.79	228.68
391.17	228.68
391.55	228.46
391.92	228.46
392.30	228.48
392.68	228.43
393.05	228.40
393.43	228.41
393.81	228.46
394.18	228.44
394.56	228.44
394.94	228.50
395.31	228.50
395.69	228.57
396.06	228.62
396.44	228.67
396.82	228.67
397.19	228.80
397.57	228.82
397.95	228.89
398.32	228.88
398.70	228.95
399.07	229.06
399.45	229.13
399.82	229.19
400.20	229.24
400.58	229.32
400.95	229.35
401.33	229.48
401.70	229.70
402.08	229.85
402.45	229.99
402.83	230.16
403.20	230.33
403.58	230.46
403.95	230.67
404.33	230.89
404.71	231.13
405.08	231.43
405.46	231.69
405.83	231.96
406.21	232.27
406.58	232.59
406.96	232.91
407.33	233.29
407.70	233.72
408.08	234.28
408.45	234.79
408.83	235.33
409.20	235.83
409.58	236.28
409.95	236.91
410.33	237.58
410.70	238.21
411.08	238.97
411.45	239.78
411.82	240.60
412.20	241.53
412.57	242.62
412.95	243.51
413.32	244.66
413.69	245.84
414.07	247.09
414.44	248.45
414.82	249.84
415.19	251.48
415.56	253.15
415.94	254.90
416.31	256.86
416.68	258.82
417.06	261.07
417.43	263.20
417.81	265.64
418.18	268.14
418.55	270.86
418.93	273.70
419.30	276.68
419.67	279.82
420.04	283.07
420.42	286.47
420.79	290.38
421.16	294.34
421.54	298.32
421.91	302.50
422.28	306.86
422.66	311.55
423.03	315.99
423.40	320.67
423.77	325.68
424.15	330.80
424.52	336.11
424.89	341.86
425.26	347.58
425.64	352.89
426.01	358.84
426.38	364.92
426.75	371.17
427.13	377.57
427.50	384.27
427.87	391.22
428.24	398.23
428.61	404.95
428.99	412.17
429.36	420.16
429.73	427.79
430.10	435.38
430.47	443.14
430.85	451.19
431.22	459.73
431.59	468.49
431.96	477.05
432.33	486.58
432.70	495.64
433.08	506.35
433.45	516.46
433.82	526.46
434.19	537.65
434.56	548.67
434.93	559.39
435.30	569.99
435.68	582.03
436.05	593.79
436.42	605.57
436.79	616.35
437.16	628.04
437.53	640.53
437.90	653.04
438.27	665.31
438.64	678.55
439.01	690.60
439.38	701.66
439.75	712.35
440.13	724.52
440.50	736.10
440.87	745.36
441.24	755.53
441.61	766.65
441.98	774.88
442.35	784.65
442.72	794.58
443.09	804.05
443.46	810.20
443.83	814.88
444.20	818.76
444.57	824.35
444.94	827.65
445.31	831.06
445.68	833.96
446.05	836.18
446.42	835.84
446.79	835.24
447.16	834.76
447.53	834.35
447.90	830.74
448.27	827.28
448.64	821.85
449.01	818.09
449.37	810.37
449.74	803.33
450.11	794.26
450.48	784.28
450.85	774.28
451.22	765.66
451.59	757.19
451.96	749.52
452.33	738.45
452.70	728.59
453.07	716.65
453.43	704.76
453.80	693.09
454.17	681.97
454.54	671.70
454.91	660.11
455.28	649.16
455.65	638.82
456.02	627.88
456.38	619.10
456.75	607.85
457.12	598.77
457.49	589.65
457.86	580.98
458.23	573.32
458.59	564.92
458.96	556.30
459.33	548.74
459.70	541.04
460.07	535.15
460.43	528.23
460.80	521.76
461.17	516.13
461.54	510.08
461.91	504.37
462.27	498.56
462.64	493.81
463.01	488.38
463.38	482.92
463.74	478.02
464.11	473.62
464.48	469.66
464.85	465.39
465.21	462.09
465.58	458.46
465.95	454.37
466.32	451.09
466.68	447.89
467.05	444.65
467.42	441.48
467.78	438.11
468.15	435.01
468.52	432.73
468.88	429.68
469.25	426.93
469.62	424.73
469.98	422.36
470.35	420.24
470.72	418.33
471.08	416.40
471.45	414.75
471.82	412.94
472.18	411.03
472.55	409.80
472.92	408.26
473.28	407.06
473.65	405.76
474.02	404.53
474.38	403.50
474.75	402.89
475.11	402.07
475.48	401.67
475.85	401.25
476.21	401.00
476.58	400.83
476.94	401.00
477.31	401.05
477.67	401.14
478.04	401.47
478.41	401.89
478.77	402.50
479.14	402.90
479.50	403.69
479.87	404.72
480.23	405.71
480.60	406.67
480.96	407.63
481.33	409.08
481.69	410.52
482.06	411.92
482.42	413.20
482.79	414.81
483.15	416.70
483.52	418.82
483.88	420.84
484.25	423.01
484.61	425.28
484.98	427.72
485.34	430.46
485.71	433.32
486.07	436.39
486.44	439.42
486.80	442.80
487.17	446.30
487.53	450.08
487.90	454.04
488.26	458.37
488.62	462.92
488.99	467.44
489.35	472.21
489.72	477.31
490.08	482.69
490.44	488.20
490.81	493.94
491.17	499.84
491.54	506.18
491.90	512.65
492.26	519.56
492.63	526.79
492.99	534.35
493.36	542.05
493.72	550.17
494.08	558.50
494.45	567.25
494.81	576.37
495.17	585.75
495.54	595.64
495.90	605.94
496.26	616.45
496.63	627.27
496.99	638.47
497.35	650.22
497.72	662.23
498.08	674.58
498.44	687.24
498.80	700.62
499.17	714.26
499.53	728.39
499.89	742.95
500.26	757.71
500.62	772.81
500.98	788.80
501.34	804.80
501.71	821.58
502.07	838.63
502.43	856.18
502.79	873.93
503.16	892.23
503.52	910.74
503.88	929.67
504.24	949.00
504.60	968.62
504.97	988.87
505.33	1009.61
505.69	1031.42
506.05	1053.43
506.41	1075.32
506.78	1097.36
507.14	1120.00
507.50	1143.08
507.86	1166.60
508.22	1190.36
508.59	1213.92
508.95	1238.55
509.31	1263.67
509.67	1289.48
510.03	1315.14
510.39	1340.75
510.75	1366.42
511.12	1392.42
511.48	1418.62
511.84	1444.82
512.20	1471.33
512.56	1498.86
512.92	1526.26
513.28	1552.99
513.64	1580.12
514.00	1607.60
514.37	1635.38
514.73	1663.13
515.09	1690.23
515.45	1717.65
515.81	1745.23
516.17	1772.54
516.53	1799.18
516.89	1825.61
517.25	1852.34
517.61	1878.91
517.97	1906.06
518.33	1932.59
518.69	1959.05
519.05	1985.90
519.41	2012.92
519.77	2039.90
520.13	2065.36
520.49	2090.86
520.85	2116.72
521.21	2142.04
521.57	2167.67
521.93	2192.25
522.29	2217.45
522.65	2242.47
523.01	2267.19
523.37	2291.20
523.73	2315.92
524.09	2340.38
524.45	2364.52
524.81	2387.95
525.17	2411.22
525.53	2433.69
525.89	2456.62
526.25	2479.09
526.61	2499.97
526.97	2520.82
527.33	2541.55
527.68	2562.01
528.04	2582.10
528.40	2600.92
528.76	2619.91
529.12	2638.40
529.48	2657.52
529.84	2673.84
530.20	2690.55
530.56	2706.38
530.91	2722.42
531.27	2737.92
531.63	2752.39
531.99	2766.62
532.35	2780.56
532.71	2793.98
533.07	2807.76
533.42	2819.67
533.78	2831.74
534.14	2844.76
534.50	2856.69
534.86	2869.16
535.21	2879.53
535.57	2889.60
535.93	2899.63
536.29	2907.79
536.65	2915.82
537.00	2922.31
537.36	2930.18
537.72	2937.09
538.08	2943.42
538.44	2948.60
538.79	2953.51
539.15	2957.14
539.51	2960.03
539.87	2961.64
540.22	2961.72
540.58	2962.04
540.94	2963.12
541.29	2963.10
541.65	2961.75
542.01	2959.92
542.37	2956.39
542.72	2954.50
543.08	2951.00
543.44	2947.60
543.79	2943.79
544.15	2939.19
544.51	2934.84
544.87	2929.40
545.22	2923.05
545.58	2916.56
545.94	2910.27
546.29	2902.46
546.65	2894.87
547.01	2887.39
547.36	2880.36
547.72	2873.55
548.07	2864.94
548.43	2855.16
548.79	2845.22
549.14	2835.45
549.50	2825.92
549.86	2815.46
550.21	2803.29
550.57	2792.35
550.92	2779.60
551.28	2767.27
551.64	2755.28
551.99	2742.91
552.35	2730.19
552.70	2717.27
553.06	2704.83
553.41	2692.00
553.77	2678.86
554.13	2665.76
554.48	2651.55
554.84	2636.47
555.19	2621.93
555.55	2607.28
555.90	2593.17
556.26	2579.31
556.61	2564.40
556.97	2548.39
557.32	2532.85
557.68	2517.66
558.03	2502.07
558.39	2487.48
558.74	2473.55
559.10	2457.65
559.45	2442.07
559.81	2427.15
560.16	2411.92
560.52	2396.45
560.87	2381.10
561.23	2365.40
561.58	2350.25
561.94	2334.66
562.29	2318.63
562.64	2302.64
563.00	2286.88
563.35	2271.29
563.71	2255.26
564.06	2239.40
564.42	2224.11
564.77	2208.84
565.12	2193.27
565.48	2177.48
565.83	2161.95
566.19	2146.35
566.54	2131.12
566.89	2115.28
567.25	2099.29
567.60	2084.15
567.96	2068.28
568.31	2051.12
568.66	2034.95
569.02	2019.34
569.37	2004.32
569.72	1989.85
570.08	1974.94
570.43	1959.42
570.78	1943.72
571.14	1927.86
571.49	1912.05
571.84	1896.54
572.20	1879.86
572.55	1864.01
572.90	1848.23
573.26	1832.42
573.61	1815.98
573.96	1800.03
574.31	1783.98
574.67	1767.78
575.02	1751.28
575.37	1734.83
575.72	1719.16
576.08	1703.25
576.43	1686.65
576.78	1670.20
577.13	1654.06
577.49	1638.16
577.84	1622.75
578.19	1606.77
578.54	1590.87
578.90	1574.90
579.25	1558.78
579.60	1543.93
579.95	1528.76
580.30	1513.55
580.66	1498.08
581.01	1482.70
581.36	1467.45
581.71	1453.01
582.06	1438.56
582.42	1423.89
582.77	1409.75
583.12	1395.86
583.47	1381.86
583.82	1368.11
584.17	1353.88
584.53	1339.71
584.88	1325.89
585.23	1311.84
585.58	1298.26
585.93	1284.58
586.28	1271.88
586.63	1259.05
586.98	1245.80
587.34	1232.97
587.69	1219.93
588.04	1207.26
588.39	1194.86
588.74	1182.05
589.09	1169.36
589.44	1156.45
589.79	1144.13
590.14	1131.83
590.49	1119.57
590.84	1107.64
591.19	1095.90
591.54	1084.34
591.89	1072.36
592.25	1060.73
592.60	1049.02
592.95	1037.46
593.30	1026.27
593.65	1014.80
594.00	1003.59
594.35	993.29
594.70	982.29
595.05	971.98
595.40	961.45
595.75	950.78
596.10	940.73
596.45	930.68
596.80	920.97
597.15	911.25
597.50	901.52
597.85	892.08
598.19	882.60
598.54	873.15
598.89	864.23
599.24	855.71
599.59	846.98
599.94	838.88
600.29	830.83
600.64	822.61
600.99	814.25
601.34	806.22
601.69	797.64
602.04	789.96
602.39	782.15
602.74	774.54
603.08	767.07
603.43	759.60
603.78	752.09
604.13	744.66
604.48	737.36
604.83	730.23
605.18	723.19
605.53	716.29
605.87	709.38
606.22	702.57
606.57	695.68
606.92	688.72
607.27	681.81
607.62	675.07
607.96	668.59
608.31	662.58
608.66	656.47
609.01	650.64
609.36	644.77
609.70	638.86
610.05	632.97
610.40	627.27
610.75	621.56
611.10	616.09
611.44	610.62
611.79	605.25
612.14	599.82
612.49	594.47
612.83	589.39
613.18	584.37
613.53	579.35
613.88	574.49
614.22	569.97
614.57	565.34
614.92	560.82
615.27	556.44
615.61	551.96
615.96	547.51
616.31	543.07
616.65	538.80
617.00	534.61
617.35	530.49
617.70	526.41
618.04	522.43
618.39	518.56
618.74	514.91
619.08	511.25
619.43	507.72
619.78	504.09
620.12	500.48
620.47	497.07
620.82	493.74
621.16	490.42
621.51	487.18
621.85	483.95
622.20	480.77
622.55	477.55
622.89	474.41
623.24	471.44
623.59	468.51
623.93	465.67
624.28	462.98
624.62	460.48
624.97	458.00
625.32	455.41
625.66	452.79
626.01	450.14
626.35	447.63
626.70	445.07
627.04	442.72
627.39	440.34
627.73	438.03
628.08	435.78
628.43	433.55
628.77	431.22
629.12	429.02
629.46	426.95
629.81	425.04
630.15	423.01
630.50	421.01
630.84	419.07
631.19	417.16
631.53	415.31
631.88	413.29
632.22	411.37
632.57	409.75
632.91	408.06
633.26	406.48
633.60	404.89
633.95	403.39
634.29	401.77
634.64	400.21
634.98	398.54
635.32	397.02
635.67	395.65
636.01	394.29
636.36	392.97
636.70	391.73
637.05	390.31
637.39	389.05
637.73	387.80
638.08	386.62
638.42	385.45
638.77	384.16
639.11	382.85
639.45	381.59
639.80	380.26
640.14	379.04
640.49	377.78
640.83	376.54
641.17	375.36
641.52	374.20
641.86	373.06
642.20	372.07
642.55	370.91
642.89	369.76
643.23	368.70
643.58	367.74
643.92	366.62
644.26	365.61
644.61	364.62
644.95	363.60
645.29	362.51
645.64	361.41
645.98	360.43
646.32	359.54
646.66	358.61
647.01	357.69
647.35	356.88
647.69	356.02
648.04	355.23
648.38	354.36
648.72	353.54
649.06	352.73
649.41	351.88
649.75	351.08
650.09	350.32
650.43	349.51
650.78	348.69
651.12	347.89
651.46	347.10
651.80	346.34
652.14	345.64
652.49	344.98
652.83	344.26
653.17	343.52
653.51	342.80
653.85	342.18
654.20	341.53
654.54	340.76
654.88	340.04
655.22	339.37
655.56	338.69
655.90	338.03
656.25	337.37
656.59	336.73
656.93	336.13
657.27	335.58
657.61	334.96
657.95	334.37
658.29	333.78
658.64	333.21
658.98	332.57
659.32	331.95
659.66	331.36
660.00	330.82
660.34	330.28
660.68	329.68
661.02	329.02
661.36	328.41
661.70	327.84
662.05	327.28
662.39	326.75
662.73	326.28
663.07	325.85
663.41	325.39
663.75	324.86
664.09	324.34
664.43	323.70
664.77	323.15
665.11	322.57
665.45	322.03
665.79	321.52
666.13	320.99
666.47	320.45
666.81	319.87
667.15	319.26
667.49	318.78
667.83	318.36
668.17	317.92
668.51	317.49
668.85	317.08
669.19	316.72
669.53	316.18
669.87	315.62
670.21	315.06
670.55	314.52
670.89	314.11
671.23	313.64
671.57	313.26
671.91	312.90
672.25	312.55
672.58	312.22
672.92	311.78
673.26	311.44
673.60	311.08
673.94	310.73
674.28	310.39
674.62	310.01
674.96	309.58
675.30	309.18
675.64	308.72
675.97	308.25
676.31	307.75
676.65	307.31
676.99	306.99
677.33	306.55
677.67	306.16
678.01	305.68
678.34	305.27
678.68	304.86
679.02	304.39
679.36	303.95
679.70	303.47
680.04	303.07
680.37	302.64
680.71	302.24
681.05	301.87
681.39	301.44
681.73	300.96
682.06	300.52
682.40	300.11
682.74	299.75
683.08	299.46
683.42	299.07
683.75	298.73
684.09	298.26
684.43	297.87
684.77	297.44
685.10	297.04
685.44	296.63
685.78	296.21
686.12	295.81
686.45	295.38
686.79	294.95
687.13	294.54
687.46	294.09
687.80	293.67
688.14	293.18
688.48	292.76
688.81	292.34
689.15	292.00
689.49	291.56
689.82	291.12
690.16	290.57
690.50	290.10
690.83	289.65
691.17	289.20
691.51	288.76
691.84	288.37
692.18	287.94
692.52	287.49
692.85	287.04
693.19	286.66
693.52	286.22
693.86	285.79
694.20	285.35
694.53	284.92
694.87	284.46
695.21	284.00
695.54	283.56
695.88	283.11
696.21	282.60
696.55	282.15
696.88	281.69
697.22	281.26
697.56	280.86
697.89	280.38
698.23	279.98
698.56	279.52
698.90	279.09
699.23	278.62
699.57	278.21
699.90	277.79
700.24	277.32
700.58	276.93
700.91	276.57
701.25	276.31
701.58	275.98
701.92	275.64
702.25	275.26
702.59	274.85
702.92	274.45
703.26	274.04
703.59	273.64
703.93	273.38
704.26	273.01
704.60	272.60
704.93	272.22
705.26	271.81
705.60	271.46
705.93	271.03
706.27	270.72
706.60	270.39
706.94	270.07
707.27	269.66
707.61	269.28
707.94	268.86
708.27	268.32
708.61	267.88
708.94	267.45
709.28	267.07
709.61	266.70
709.94	266.37
710.28	266.03
710.61	265.71
710.95	265.20
711.28	264.96
711.61	264.60
711.95	264.30
712.28	263.95
712.61	263.58
712.95	263.35
713.28	263.07
713.61	262.68
713.95	262.29
714.28	261.98
714.61	261.62
714.95	261.32
715.28	260.98
715.61	260.67
715.95	260.37
716.28	260.05
716.61	259.77
716.95	259.46
717.28	259.17
717.61	258.85
717.94	258.58
718.28	258.17
718.61	257.87
718.94	257.54
719.27	257.25
719.61	257.00
719.94	256.69
720.27	256.33
720.60	256.06
720.94	255.79
721.27	255.54
721.60	255.29
721.93	255.00
722.27	254.80
722.60	254.54
722.93	254.26
723.26	254.01
723.59	253.72
723.93	253.49
724.26	253.25
724.59	253.00
724.92	252.76
725.25	252.58
725.59	252.36
725.92	252.16
726.25	251.92
726.58	251.68
726.91	251.42
727.24	251.20
727.57	250.97
727.91	250.71
728.24	250.50
728.57	250.26
728.90	250.07
729.23	249.79
729.56	249.66
729.89	249.45
730.22	249.24
730.55	249.03
730.89	248.81
731.22	248.60
731.55	248.38
731.88	248.19
732.21	247.95
732.54	247.73
732.87	247.54
733.20	247.37
733.53	247.18
733.86	247.02
734.19	246.81
734.52	246.66
734.85	246.61
735.18	246.40
735.51	246.30
735.84	246.12
736.17	245.99
736.50	245.73
736.83	245.77
737.16	245.61
737.49	245.44
737.82	245.26
738.15	245.10
738.48	244.94
738.81	244.76
739.14	244.58
739.47	244.39
739.80	244.21
740.13	244.06
740.46	243.87
740.79	243.68
741.12	243.52
741.45	243.33
741.78	243.07
742.11	242.96
742.44	242.74
742.77	242.60
743.10	242.42
743.43	242.26
743.75	241.92
744.08	242.02
744.41	241.86
744.74	241.70
745.07	241.52
745.40	241.41
745.73	241.33
746.06	241.21
746.39	241.11
746.71	240.96
747.04	240.80
747.37	240.65
747.70	240.55
748.03	240.42
748.36	240.31
748.68	240.17
749.01	239.99
749.34	239.88
749.67	239.76
750.00	239.65
750.33	239.65
750.65	239.54
750.98	239.16
751.31	239.06
751.64	238.96
751.97	238.95
752.29	238.81
752.62	238.62
752.95	238.49
753.28	238.34
753.60	238.22
753.93	238.14
754.26	238.05
754.59	237.89
754.91	237.75
755.24	237.63
755.57	237.53
755.90	237.42
756.22	237.28
756.55	237.14
756.88	237.01
757.20	236.79
757.53	236.64
757.86	236.53
758.19	236.44
758.51	236.33
758.84	236.14
759.17	236.03
759.49	235.94
759.82	235.92
760.15	235.85
760.47	235.76
760.80	235.62
761.13	235.54
761.45	235.44
761.78	235.35
762.11	235.27
762.43	235.16
762.76	235.07
763.08	235.00
763.41	234.94
763.74	234.86
764.06	234.76
764.39	234.69
764.71	234.61
765.04	234.51
765.37	234.41
765.69	234.34
766.02	234.26
766.34	234.18
766.67	234.04
767.00	233.99
767.32	234.02
767.65	234.07
767.97	233.98
768.30	233.93
768.62	233.86
768.95	233.76
769.27	233.68
769.60	233.65
769.92	233.56
770.25	233.46
770.57	233.36
770.90	233.30
771.22	233.22
771.55	233.17
771.87	233.12
772.20	233.06
772.52	233.16
772.85	233.32
773.17	233.25
773.50	233.18
773.82	233.10
774.15	232.96
774.47	232.80
774.80	232.72
775.12	232.66
775.45	232.63
775.77	232.60
776.09	232.58
776.42	232.53
776.74	232.53
777.07	232.48
777.39	232.46
777.72	232.39
778.04	232.38
778.36	232.32
778.69	232.27
779.01	232.24
779.33	232.05
779.66	231.80
779.98	231.77
780.31	231.73
780.63	231.77
780.95	231.76
781.28	231.71
781.60	231.67
781.92	231.64
782.25	231.59
782.57	231.55
782.89	231.50
783.22	231.46
783.54	231.39
783.86	231.38
784.19	231.32
784.51	231.36
784.83	231.30
785.16	231.27
785.48	231.24
785.80	231.21
786.12	231.18
786.45	231.16
786.77	231.12
787.09	231.09
787.42	230.98
787.74	230.94
788.06	230.92
788.38	230.89
788.71	230.84
789.03	230.82
789.35	230.81
789.67	230.76
789.99	230.75
790.32	230.69
790.64	230.68
790.96	230.83
791.28	230.73
791.61	230.69
791.93	230.68
792.25	230.64
792.57	230.73
792.89	230.68
793.21	230.65
793.54	230.61
793.86	230.57
794.18	230.55
794.50	230.51
794.82	230.49
795.14	230.48
795.47	230.49
795.79	230.46
796.11	230.40
796.43	230.38
796.75	230.35
797.07	230.33
797.39	230.30
797.71	230.12
798.04	230.11
798.36	230.10
798.68	230.06
799.00	230.04
799.32	229.94
799.64	229.96
799.96	229.95
800.28	229.97
800.60	229.95
800.92	229.94
801.24	229.91
801.56	229.90
801.89	229.86
802.21	229.84
802.53	229.80
802.85	229.82
803.17	229.87
803.49	229.82
803.81	229.79
804.13	229.75
804.45	229.71
804.77	229.71
805.09	229.70
805.41	229.67
805.73	229.63
806.05	229.56
806.37	229.53
806.69	229.49
807.01	229.46
807.33	229.45
807.65	229.37
807.97	229.45
808.28	229.41
808.60	229.40
808.92	229.36
809.24	229.45
809.56	229.40
809.88	229.33
810.20	229.33
810.52	229.36
810.84	229.31
811.16	229.27
811.48	229.25
811.80	229.29
812.12	229.27
812.43	229.28
812.75	229.28
813.07	229.24
813.39	229.24
813.71	229.19
814.03	229.17
814.35	229.17
814.67	229.07
814.98	229.03
815.30	229.02
815.62	228.98
815.94	228.85
816.26	228.86
816.58	228.81
816.89	228.81
817.21	228.75
817.53	228.76
817.85	228.76
818.17	228.73
818.48	228.66
