SpectraSuite Data File
++++++++++++++++++++++++++++++++++++
Date: Tue Oct 06 13:36:43 EDT 2015
User: lab3
Dark Spectrum Present: No
Reference Spectrum Present: No
Number of Sampled Component Spectra: 1
Spectrometers: USB2E7196
Integration Time (usec): 66000 (USB2E7196)
Spectra Averaged: 1000 (USB2E7196)
Boxcar Smoothing: 10 (USB2E7196)
Correct for Electrical Dark: No (USB2E7196)
Strobe/Lamp Enabled: No (USB2E7196)
Correct for Detector Non-linearity: No (USB2E7196)
Correct for Stray Light: No (USB2E7196)
Number of Pixels in Processed Spectrum: 2048
>>>>>Begin Processed Spectral Data<<<<<
339.09	0.00
339.48	215.94
339.86	217.56
340.24	219.05
340.63	220.21
341.01	224.25
341.39	223.01
341.78	224.39
342.16	225.76
342.54	226.06
342.93	214.46
343.31	225.30
343.69	225.85
344.07	226.31
344.46	226.73
344.84	227.13
345.22	227.32
345.60	227.60
345.99	227.80
346.37	227.94
346.75	228.06
347.13	228.14
347.52	228.23
347.90	228.35
348.28	228.40
348.66	228.48
349.05	228.47
349.43	228.54
349.81	228.60
350.19	228.66
350.57	228.73
350.96	228.82
351.34	228.92
351.72	229.01
352.10	229.12
352.48	229.20
352.87	229.25
353.25	229.31
353.63	229.36
354.01	229.42
354.39	229.51
354.77	229.59
355.15	229.71
355.54	229.75
355.92	229.75
356.30	229.82
356.68	230.00
357.06	230.07
357.44	230.11
357.82	230.15
358.20	230.37
358.58	230.43
358.97	230.49
359.35	230.58
359.73	230.67
360.11	230.71
360.49	230.78
360.87	230.83
361.25	230.89
361.63	231.00
362.01	231.04
362.39	231.05
362.77	231.09
363.15	231.10
363.53	231.13
363.91	231.17
364.29	231.20
364.67	231.04
365.05	231.07
365.43	231.10
365.81	231.15
366.19	231.09
366.57	231.15
366.95	231.15
367.33	231.11
367.71	231.10
368.09	231.13
368.47	231.11
368.85	231.09
369.23	231.12
369.61	231.04
369.99	231.08
370.37	231.09
370.75	231.21
371.13	231.17
371.51	231.12
371.89	231.10
372.27	231.08
372.65	231.07
373.03	231.03
373.41	230.98
373.78	230.93
374.16	230.81
374.54	230.71
374.92	230.65
375.30	230.62
375.68	230.55
376.06	230.51
376.44	230.46
376.82	230.43
377.19	230.39
377.57	230.34
377.95	230.25
378.33	230.18
378.71	229.98
379.09	229.95
379.47	229.93
379.84	229.87
380.22	229.81
380.60	229.74
380.98	229.69
381.36	229.64
381.73	229.56
382.11	229.55
382.49	229.53
382.87	229.48
383.25	229.43
383.62	229.60
384.00	229.54
384.38	229.51
384.76	229.51
385.13	229.53
385.51	229.49
385.89	229.44
386.27	229.39
386.64	229.39
387.02	229.34
387.40	229.29
387.78	229.27
388.15	229.26
388.53	229.23
388.91	229.21
389.29	229.19
389.66	229.21
390.04	229.17
390.42	229.17
390.79	229.18
391.17	229.17
391.55	228.97
391.92	228.96
392.30	228.98
392.68	228.92
393.05	228.91
393.43	228.92
393.81	228.93
394.18	228.93
394.56	228.95
394.94	228.99
395.31	229.00
395.69	229.07
396.06	229.11
396.44	229.15
396.82	229.17
397.19	229.30
397.57	229.33
397.95	229.39
398.32	229.38
398.70	229.45
399.07	229.54
399.45	229.60
399.82	229.69
400.20	229.74
400.58	229.84
400.95	229.85
401.33	229.97
401.70	230.20
402.08	230.34
402.45	230.46
402.83	230.64
403.20	230.82
403.58	230.95
403.95	231.16
404.33	231.38
404.71	231.60
405.08	231.89
405.46	232.13
405.83	232.42
406.21	232.72
406.58	233.04
406.96	233.36
407.33	233.72
407.70	234.13
408.08	234.70
408.45	235.20
408.83	235.74
409.20	236.23
409.58	236.67
409.95	237.29
410.33	237.96
410.70	238.58
411.08	239.31
411.45	240.10
411.82	240.89
412.20	241.80
412.57	242.86
412.95	243.73
413.32	244.85
413.69	245.99
414.07	247.20
414.44	248.54
414.82	249.91
415.19	251.51
415.56	253.13
415.94	254.81
416.31	256.71
416.68	258.61
417.06	260.81
417.43	262.88
417.81	265.24
418.18	267.67
418.55	270.34
418.93	273.10
419.30	275.98
419.67	279.05
420.04	282.18
420.42	285.49
420.79	289.26
421.16	293.10
421.54	296.99
421.91	301.06
422.28	305.27
422.66	309.81
423.03	314.11
423.40	318.64
423.77	323.47
424.15	328.42
424.52	333.55
424.89	339.11
425.26	344.62
425.64	349.74
426.01	355.46
426.38	361.32
426.75	367.34
427.13	373.49
427.50	379.91
427.87	386.58
428.24	393.28
428.61	399.73
428.99	406.66
429.36	414.29
429.73	421.61
430.10	428.87
430.47	436.31
430.85	444.04
431.22	452.26
431.59	460.69
431.96	468.88
432.33	477.99
432.70	486.69
433.08	497.02
433.45	506.75
433.82	516.29
434.19	526.98
434.56	537.49
434.93	547.69
435.30	557.81
435.68	569.29
436.05	580.50
436.42	591.73
436.79	601.95
437.16	613.00
437.53	624.86
437.90	636.79
438.27	648.40
438.64	660.88
439.01	672.28
439.38	682.81
439.75	692.98
440.13	704.54
440.50	715.54
440.87	724.28
441.24	733.89
441.61	744.45
441.98	752.23
442.35	761.43
442.72	770.86
443.09	779.94
443.46	785.96
443.83	790.45
444.20	794.14
444.57	799.58
444.94	802.95
445.31	806.32
445.68	809.19
446.05	811.42
446.42	811.27
446.79	810.92
447.16	810.62
447.53	810.46
447.90	807.25
448.27	804.06
448.64	799.04
449.01	795.70
449.37	788.59
449.74	782.18
450.11	773.83
450.48	764.55
450.85	755.14
451.22	746.96
451.59	739.06
451.96	731.98
452.33	721.64
452.70	712.32
453.07	701.06
453.43	689.85
453.80	678.90
454.17	668.45
454.54	658.67
454.91	647.61
455.28	637.11
455.65	627.17
456.02	616.78
456.38	608.37
456.75	597.53
457.12	588.77
457.49	579.92
457.86	571.61
458.23	564.32
458.59	556.26
458.96	548.03
459.33	540.76
459.70	533.37
460.07	527.63
460.43	520.90
460.80	514.59
461.17	509.08
461.54	503.22
461.91	497.68
462.27	492.07
462.64	487.48
463.01	482.24
463.38	477.04
463.74	472.31
464.11	468.12
464.48	464.37
464.85	460.30
465.21	457.13
465.58	453.65
465.95	449.68
466.32	446.49
466.68	443.34
467.05	440.20
467.42	437.13
467.78	433.85
468.15	430.89
468.52	428.71
468.88	425.81
469.25	423.15
469.62	421.05
469.98	418.74
470.35	416.68
470.72	414.82
471.08	412.90
471.45	411.29
471.82	409.50
472.18	407.62
472.55	406.38
472.92	404.90
473.28	403.68
473.65	402.40
474.02	401.24
474.38	400.24
474.75	399.63
475.11	398.76
475.48	398.35
475.85	397.93
476.21	397.70
476.58	397.54
476.94	397.70
477.31	397.75
477.67	397.88
478.04	398.17
478.41	398.56
478.77	399.17
479.14	399.53
479.50	400.27
479.87	401.21
480.23	402.19
480.60	403.10
480.96	404.05
481.33	405.46
481.69	406.81
482.06	408.20
482.42	409.48
482.79	411.03
483.15	412.88
483.52	414.94
483.88	416.93
484.25	419.04
484.61	421.26
484.98	423.61
485.34	426.28
485.71	429.04
486.07	432.02
486.44	434.92
486.80	438.21
487.17	441.55
487.53	445.24
487.90	449.07
488.26	453.25
488.62	457.65
488.99	462.07
489.35	466.75
489.72	471.77
490.08	477.04
490.44	482.42
490.81	487.95
491.17	493.62
491.54	499.67
491.90	505.88
492.26	512.50
492.63	519.46
492.99	526.65
493.36	534.13
493.72	541.99
494.08	550.01
494.45	558.39
494.81	567.21
495.17	576.21
495.54	585.72
495.90	595.61
496.26	605.77
496.63	616.16
496.99	626.91
497.35	638.08
497.72	649.62
498.08	661.57
498.44	673.82
498.80	686.84
499.17	700.20
499.53	714.01
499.89	728.12
500.26	742.37
500.62	756.92
500.98	772.18
501.34	787.57
501.71	803.71
502.07	820.13
502.43	836.96
502.79	853.94
503.16	871.39
503.52	889.09
503.88	907.23
504.24	925.80
504.60	944.64
504.97	963.92
505.33	983.63
505.69	1004.35
506.05	1025.09
506.41	1045.74
506.78	1066.69
507.14	1088.43
507.50	1110.68
507.86	1133.37
508.22	1156.15
508.59	1178.75
508.95	1202.18
509.31	1226.01
509.67	1250.55
510.03	1274.95
510.39	1299.77
510.75	1324.57
511.12	1349.45
511.48	1374.36
511.84	1399.36
512.20	1424.81
512.56	1450.70
512.92	1476.37
513.28	1501.74
513.64	1527.48
514.00	1553.28
514.37	1579.24
514.73	1604.89
515.09	1630.09
515.45	1655.55
515.81	1681.07
516.17	1706.70
516.53	1731.67
516.89	1756.61
517.25	1781.60
517.61	1806.37
517.97	1831.40
518.33	1856.03
518.69	1880.58
519.05	1905.25
519.41	1929.87
519.77	1954.37
520.13	1978.59
520.49	2002.72
520.85	2026.82
521.21	2050.74
521.57	2074.85
521.93	2097.93
522.29	2121.55
522.65	2144.63
523.01	2167.45
523.37	2189.47
523.73	2211.84
524.09	2234.39
524.45	2257.00
524.81	2278.73
525.17	2300.32
525.53	2321.15
525.89	2342.29
526.25	2362.98
526.61	2382.60
526.97	2402.30
527.33	2421.58
527.68	2440.08
528.04	2457.89
528.40	2474.72
528.76	2492.11
529.12	2508.29
529.48	2524.93
529.84	2540.22
530.20	2556.63
530.56	2571.94
530.91	2587.18
531.27	2601.46
531.63	2614.73
531.99	2627.66
532.35	2639.03
532.71	2650.51
533.07	2662.21
533.42	2672.42
533.78	2683.42
534.14	2694.63
534.50	2704.49
534.86	2714.44
535.21	2722.33
535.57	2730.42
535.93	2738.86
536.29	2746.17
536.65	2753.69
537.00	2759.09
537.36	2764.88
537.72	2768.98
538.08	2772.85
538.44	2775.80
538.79	2779.12
539.15	2781.84
539.51	2783.96
539.87	2786.71
540.22	2787.36
540.58	2788.56
540.94	2789.30
541.29	2788.59
541.65	2786.32
542.01	2784.17
542.37	2781.00
542.72	2779.59
543.08	2776.77
543.44	2773.83
543.79	2769.05
544.15	2764.18
544.51	2760.12
544.87	2754.07
545.22	2747.51
545.58	2741.11
545.94	2735.64
546.29	2728.39
546.65	2720.37
547.01	2712.46
547.36	2704.25
547.72	2695.93
548.07	2686.37
548.43	2676.77
548.79	2666.02
549.14	2656.40
549.50	2646.52
549.86	2636.11
550.21	2623.78
550.57	2612.81
550.92	2600.06
551.28	2588.05
551.64	2576.27
551.99	2564.51
552.35	2552.96
552.70	2541.09
553.06	2529.55
553.41	2516.77
553.77	2503.69
554.13	2490.92
554.48	2477.27
554.84	2463.07
555.19	2449.86
555.55	2435.84
555.90	2421.85
556.26	2408.83
556.61	2395.02
556.97	2380.25
557.32	2365.78
557.68	2351.61
558.03	2336.81
558.39	2322.77
558.74	2308.99
559.10	2293.16
559.45	2277.82
559.81	2263.16
560.16	2248.20
560.52	2232.92
560.87	2218.44
561.23	2203.47
561.58	2188.88
561.94	2173.63
562.29	2158.53
562.64	2143.34
563.00	2128.29
563.35	2113.88
563.71	2099.21
564.06	2084.17
564.42	2069.64
564.77	2055.21
565.12	2041.22
565.48	2027.10
565.83	2012.66
566.19	1998.31
566.54	1984.51
566.89	1969.51
567.25	1954.01
567.60	1939.74
567.96	1924.84
568.31	1909.40
568.66	1894.82
569.02	1880.20
569.37	1865.74
569.72	1851.60
570.08	1837.38
570.43	1823.03
570.78	1807.92
571.14	1792.82
571.49	1778.08
571.84	1764.17
572.20	1748.92
572.55	1733.84
572.90	1718.27
573.26	1702.73
573.61	1686.90
573.96	1671.63
574.31	1657.07
574.67	1643.01
575.02	1628.01
575.37	1612.76
575.72	1597.42
576.08	1582.42
576.43	1567.50
576.78	1552.66
577.13	1537.92
577.49	1523.11
577.84	1508.31
578.19	1493.65
578.54	1479.07
578.90	1464.36
579.25	1449.16
579.60	1435.19
579.95	1421.10
580.30	1407.24
580.66	1393.45
581.01	1379.84
581.36	1366.08
581.71	1352.27
582.06	1338.46
582.42	1324.86
582.77	1311.62
583.12	1298.70
583.47	1285.66
583.82	1272.67
584.17	1259.68
584.53	1246.67
584.88	1234.13
585.23	1221.37
585.58	1208.91
585.93	1196.48
586.28	1184.64
586.63	1172.67
586.98	1160.55
587.34	1148.83
587.69	1136.89
588.04	1125.32
588.39	1113.89
588.74	1102.39
589.09	1091.20
589.44	1079.54
589.79	1068.46
590.14	1057.54
590.49	1046.69
590.84	1036.09
591.19	1025.62
591.54	1015.14
591.89	1004.44
592.25	993.75
592.60	983.09
592.95	972.67
593.30	962.30
593.65	951.88
594.00	941.74
594.35	932.25
594.70	922.32
595.05	913.07
595.40	903.59
595.75	894.00
596.10	884.88
596.45	875.65
596.80	866.80
597.15	857.91
597.50	849.08
597.85	840.57
598.19	832.00
598.54	823.43
598.89	815.02
599.24	807.05
599.59	799.14
599.94	791.73
600.29	784.10
600.64	776.52
600.99	768.94
601.34	761.60
601.69	753.69
602.04	746.34
602.39	739.10
602.74	732.09
603.08	725.17
603.43	718.28
603.78	711.49
604.13	704.84
604.48	698.19
604.83	691.78
605.18	685.33
605.53	679.00
605.87	672.59
606.22	666.45
606.57	660.29
606.92	653.99
607.27	647.83
607.62	642.02
607.96	636.33
608.31	630.90
608.66	625.32
609.01	619.98
609.36	614.87
609.70	609.67
610.05	604.38
610.40	599.24
610.75	594.06
611.10	589.18
611.44	584.25
611.79	579.42
612.14	574.54
612.49	569.69
612.83	565.06
613.18	560.68
613.53	556.28
613.88	551.89
614.22	547.75
614.57	543.50
614.92	539.29
615.27	535.20
615.61	531.15
615.96	527.22
616.31	523.30
616.65	519.34
617.00	515.49
617.35	511.77
617.70	508.12
618.04	504.61
618.39	501.01
618.74	497.59
619.08	494.11
619.43	490.71
619.78	487.45
620.12	484.19
620.47	481.06
620.82	477.95
621.16	474.92
621.51	472.01
621.85	469.16
622.20	466.35
622.55	463.53
622.89	460.76
623.24	458.12
623.59	455.50
623.93	452.96
624.28	450.51
624.62	448.26
624.97	445.99
625.32	443.57
625.66	441.17
626.01	438.80
626.35	436.64
626.70	434.41
627.04	432.34
627.39	430.19
627.73	428.06
628.08	426.05
628.43	424.09
628.77	422.11
629.12	420.23
629.46	418.32
629.81	416.55
630.15	414.70
630.50	412.86
630.84	411.14
631.19	409.46
631.53	407.83
631.88	405.99
632.22	404.26
632.57	402.86
632.91	401.43
633.26	400.06
633.60	398.62
633.95	397.27
634.29	395.78
634.64	394.40
634.98	392.88
635.32	391.52
635.67	390.23
636.01	388.94
636.36	387.68
636.70	386.55
637.05	385.29
637.39	384.14
637.73	383.00
638.08	381.89
638.42	380.76
638.77	379.54
639.11	378.30
639.45	377.15
639.80	375.95
640.14	374.80
640.49	373.63
640.83	372.51
641.17	371.39
641.52	370.32
641.86	369.28
642.20	368.42
642.55	367.37
642.89	366.35
643.23	365.34
643.58	364.46
643.92	363.41
644.26	362.41
644.61	361.51
644.95	360.58
645.29	359.62
645.64	358.67
645.98	357.76
646.32	356.95
646.66	356.07
647.01	355.17
647.35	354.36
647.69	353.51
648.04	352.71
648.38	351.87
648.72	351.10
649.06	350.35
649.41	349.52
649.75	348.75
650.09	348.02
650.43	347.28
650.78	346.48
651.12	345.73
651.46	345.03
651.80	344.32
652.14	343.61
652.49	342.93
652.83	342.21
653.17	341.53
653.51	340.86
653.85	340.25
654.20	339.61
654.54	338.89
654.88	338.23
655.22	337.59
655.56	336.89
655.90	336.20
656.25	335.52
656.59	334.87
656.93	334.28
657.27	333.71
657.61	333.05
657.95	332.48
658.29	331.89
658.64	331.36
658.98	330.74
659.32	330.15
659.66	329.58
660.00	329.03
660.34	328.47
660.68	327.89
661.02	327.26
661.36	326.67
661.70	326.12
662.05	325.58
662.39	325.09
662.73	324.67
663.07	324.27
663.41	323.78
663.75	323.24
664.09	322.71
664.43	322.10
664.77	321.62
665.11	321.04
665.45	320.50
665.79	319.96
666.13	319.42
666.47	318.88
666.81	318.30
667.15	317.71
667.49	317.23
667.83	316.81
668.17	316.37
668.51	315.94
668.85	315.51
669.19	315.14
669.53	314.61
669.87	314.10
670.21	313.59
670.55	313.14
670.89	312.80
671.23	312.37
671.57	311.95
671.91	311.58
672.25	311.21
672.58	310.84
672.92	310.39
673.26	310.00
673.60	309.61
673.94	309.24
674.28	308.88
674.62	308.50
674.96	308.04
675.30	307.62
675.64	307.18
675.97	306.74
676.31	306.23
676.65	305.80
676.99	305.44
677.33	304.98
677.67	304.53
678.01	303.99
678.34	303.56
678.68	303.16
679.02	302.67
679.36	302.25
679.70	301.79
680.04	301.36
680.37	300.92
680.71	300.50
681.05	300.10
681.39	299.68
681.73	299.20
682.06	298.75
682.40	298.33
682.74	297.96
683.08	297.62
683.42	297.20
683.75	296.79
684.09	296.28
684.43	295.83
684.77	295.39
685.10	295.02
685.44	294.64
685.78	294.20
686.12	293.80
686.45	293.35
686.79	292.89
687.13	292.49
687.46	292.07
687.80	291.64
688.14	291.15
688.48	290.72
688.81	290.31
689.15	289.96
689.49	289.51
689.82	289.04
690.16	288.52
690.50	288.09
690.83	287.65
691.17	287.20
691.51	286.79
691.84	286.42
692.18	285.98
692.52	285.50
692.85	285.08
693.19	284.73
693.52	284.33
693.86	283.93
694.20	283.51
694.53	283.09
694.87	282.64
695.21	282.22
695.54	281.81
695.88	281.36
696.21	280.87
696.55	280.46
696.88	280.04
697.22	279.63
697.56	279.24
697.89	278.79
698.23	278.39
698.56	277.95
698.90	277.55
699.23	277.10
699.57	276.73
699.90	276.28
700.24	275.79
700.58	275.39
700.91	275.03
701.25	274.80
701.58	274.49
701.92	274.16
702.25	273.81
702.59	273.41
702.92	273.03
703.26	272.64
703.59	272.24
703.93	272.01
704.26	271.65
704.60	271.27
704.93	270.86
705.26	270.48
705.60	270.14
705.93	269.71
706.27	269.40
706.60	269.06
706.94	268.75
707.27	268.37
707.61	267.98
707.94	267.56
708.27	267.04
708.61	266.58
708.94	266.17
709.28	265.81
709.61	265.44
709.94	265.12
710.28	264.81
710.61	264.51
710.95	264.04
711.28	263.81
711.61	263.47
711.95	263.19
712.28	262.84
712.61	262.48
712.95	262.26
713.28	262.01
713.61	261.64
713.95	261.29
714.28	261.00
714.61	260.68
714.95	260.39
715.28	260.08
715.61	259.79
715.95	259.52
716.28	259.22
716.61	258.93
716.95	258.60
717.28	258.29
717.61	257.95
717.94	257.66
718.28	257.25
718.61	256.97
718.94	256.66
719.27	256.40
719.61	256.15
719.94	255.86
720.27	255.51
720.60	255.25
720.94	254.98
721.27	254.73
721.60	254.50
721.93	254.23
722.27	254.03
722.60	253.81
722.93	253.52
723.26	253.30
723.59	253.04
723.93	252.84
724.26	252.62
724.59	252.39
724.92	252.19
725.25	252.02
725.59	251.80
725.92	251.61
726.25	251.39
726.58	251.17
726.91	250.92
727.24	250.71
727.57	250.50
727.91	250.25
728.24	250.07
728.57	249.84
728.90	249.66
729.23	249.40
729.56	249.27
729.89	249.08
730.22	248.86
730.55	248.66
730.89	248.45
731.22	248.23
731.55	248.03
731.88	247.83
732.21	247.61
732.54	247.40
732.87	247.21
733.20	247.03
733.53	246.84
733.86	246.67
734.19	246.48
734.52	246.33
734.85	246.29
735.18	246.08
735.51	245.97
735.84	245.82
736.17	245.70
736.50	245.43
736.83	245.47
737.16	245.30
737.49	245.15
737.82	244.98
738.15	244.86
738.48	244.69
738.81	244.52
739.14	244.34
739.47	244.16
739.80	244.00
740.13	243.87
740.46	243.70
740.79	243.52
741.12	243.37
741.45	243.19
741.78	242.94
742.11	242.85
742.44	242.65
742.77	242.50
743.10	242.33
743.43	242.19
743.75	241.85
744.08	241.98
744.41	241.82
744.74	241.66
745.07	241.48
745.40	241.39
745.73	241.34
746.06	241.21
746.39	241.12
746.71	240.98
747.04	240.83
747.37	240.69
747.70	240.60
748.03	240.47
748.36	240.38
748.68	240.25
749.01	240.08
749.34	239.97
749.67	239.87
750.00	239.78
750.33	239.79
750.65	239.69
750.98	239.33
751.31	239.23
751.64	239.15
751.97	239.14
752.29	239.02
752.62	238.82
752.95	238.70
753.28	238.57
753.60	238.45
753.93	238.39
754.26	238.30
754.59	238.14
754.91	238.01
755.24	237.89
755.57	237.79
755.90	237.68
756.22	237.55
756.55	237.40
756.88	237.25
757.20	237.04
757.53	236.90
757.86	236.79
758.19	236.71
758.51	236.60
758.84	236.41
759.17	236.31
759.49	236.23
759.82	236.22
760.15	236.13
760.47	236.05
760.80	235.90
761.13	235.84
761.45	235.76
761.78	235.68
762.11	235.61
762.43	235.50
762.76	235.41
763.08	235.36
763.41	235.30
763.74	235.22
764.06	235.14
764.39	235.07
764.71	234.99
765.04	234.90
765.37	234.81
765.69	234.74
766.02	234.66
766.34	234.57
766.67	234.43
767.00	234.40
767.32	234.42
767.65	234.46
767.97	234.37
768.30	234.32
768.62	234.26
768.95	234.17
769.27	234.11
769.60	234.06
769.92	233.98
770.25	233.89
770.57	233.80
770.90	233.74
771.22	233.67
771.55	233.62
771.87	233.57
772.20	233.52
772.52	233.61
772.85	233.78
773.17	233.73
773.50	233.67
773.82	233.59
774.15	233.46
774.47	233.30
774.80	233.23
775.12	233.16
775.45	233.11
775.77	233.06
776.09	233.04
776.42	233.01
776.74	233.01
777.07	232.96
777.39	232.93
777.72	232.88
778.04	232.85
778.36	232.79
778.69	232.75
779.01	232.72
779.33	232.51
779.66	232.26
779.98	232.21
780.31	232.18
780.63	232.22
780.95	232.21
781.28	232.17
781.60	232.13
781.92	232.12
782.25	232.08
782.57	232.05
782.89	232.00
783.22	231.95
783.54	231.88
783.86	231.86
784.19	231.82
784.51	231.84
784.83	231.79
785.16	231.77
785.48	231.75
785.80	231.71
786.12	231.71
786.45	231.68
786.77	231.68
787.09	231.64
787.42	231.54
787.74	231.50
788.06	231.49
788.38	231.45
788.71	231.41
789.03	231.39
789.35	231.39
789.67	231.34
789.99	231.33
790.32	231.28
790.64	231.27
790.96	231.42
791.28	231.33
791.61	231.30
791.93	231.28
792.25	231.24
792.57	231.34
792.89	231.29
793.21	231.27
793.54	231.23
793.86	231.17
794.18	231.16
794.50	231.12
794.82	231.10
795.14	231.09
795.47	231.10
795.79	231.09
796.11	231.02
796.43	231.00
796.75	230.98
797.07	230.96
797.39	230.93
797.71	230.76
798.04	230.75
798.36	230.74
798.68	230.72
799.00	230.70
799.32	230.59
799.64	230.60
799.96	230.57
800.28	230.57
800.60	230.55
800.92	230.54
801.24	230.50
801.56	230.49
801.89	230.46
802.21	230.44
802.53	230.38
802.85	230.39
803.17	230.45
803.49	230.38
803.81	230.36
804.13	230.33
804.45	230.29
804.77	230.29
805.09	230.27
805.41	230.24
805.73	230.19
806.05	230.14
806.37	230.11
806.69	230.10
807.01	230.08
807.33	230.08
807.65	229.99
807.97	230.06
808.28	230.02
808.60	230.00
808.92	229.96
809.24	230.08
809.56	230.04
809.88	229.96
810.20	229.97
810.52	229.99
810.84	229.94
811.16	229.90
811.48	229.87
811.80	229.92
812.12	229.90
812.43	229.93
812.75	229.93
813.07	229.89
813.39	229.88
813.71	229.84
814.03	229.81
814.35	229.83
814.67	229.74
814.98	229.73
815.30	229.71
815.62	229.67
815.94	229.54
816.26	229.55
816.58	229.51
816.89	229.51
817.21	229.46
817.53	229.46
817.85	229.48
818.17	229.47
818.48	229.39
