SpectraSuite Data File
++++++++++++++++++++++++++++++++++++
Date: Wed Oct 07 02:41:21 EDT 2015
User: lab3
Dark Spectrum Present: No
Reference Spectrum Present: No
Number of Sampled Component Spectra: 1
Spectrometers: USB2E7196
Integration Time (usec): 66000 (USB2E7196)
Spectra Averaged: 10000 (USB2E7196)
Boxcar Smoothing: 10 (USB2E7196)
Correct for Electrical Dark: No (USB2E7196)
Strobe/Lamp Enabled: No (USB2E7196)
Correct for Detector Non-linearity: No (USB2E7196)
Correct for Stray Light: No (USB2E7196)
Number of Pixels in Processed Spectrum: 2048
>>>>>Begin Processed Spectral Data<<<<<
339.09	0.00
339.48	212.28
339.86	213.68
340.24	215.10
340.63	216.53
341.01	220.72
341.39	219.28
341.78	220.75
342.16	222.13
342.54	222.31
342.93	210.93
343.31	221.59
343.69	222.13
344.07	222.59
344.46	223.04
344.84	223.45
345.22	223.65
345.60	223.93
345.99	224.13
346.37	224.28
346.75	224.40
347.13	224.49
347.52	224.58
347.90	224.71
348.28	224.76
348.66	224.85
349.05	224.84
349.43	224.91
349.81	224.99
350.19	225.06
350.57	225.15
350.96	225.25
351.34	225.36
351.72	225.48
352.10	225.60
352.48	225.68
352.87	225.72
353.25	225.79
353.63	225.85
354.01	225.91
354.39	226.00
354.77	226.08
355.15	226.20
355.54	226.24
355.92	226.25
356.30	226.32
356.68	226.51
357.06	226.60
357.44	226.63
357.82	226.69
358.20	226.91
358.58	226.97
358.97	227.03
359.35	227.13
359.73	227.22
360.11	227.27
360.49	227.33
360.87	227.38
361.25	227.45
361.63	227.56
362.01	227.62
362.39	227.65
362.77	227.70
363.15	227.72
363.53	227.75
363.91	227.79
364.29	227.81
364.67	227.66
365.05	227.68
365.43	227.73
365.81	227.77
366.19	227.71
366.57	227.80
366.95	227.79
367.33	227.75
367.71	227.74
368.09	227.78
368.47	227.78
368.85	227.77
369.23	227.79
369.61	227.72
369.99	227.75
370.37	227.76
370.75	227.88
371.13	227.85
371.51	227.81
371.89	227.79
372.27	227.78
372.65	227.76
373.03	227.73
373.41	227.67
373.78	227.62
374.16	227.49
374.54	227.39
374.92	227.34
375.30	227.30
375.68	227.23
376.06	227.19
376.44	227.13
376.82	227.09
377.19	227.05
377.57	226.99
377.95	226.89
378.33	226.82
378.71	226.61
379.09	226.57
379.47	226.55
379.84	226.49
380.22	226.42
380.60	226.34
380.98	226.29
381.36	226.24
381.73	226.18
382.11	226.17
382.49	226.14
382.87	226.07
383.25	226.03
383.62	226.21
384.00	226.13
384.38	226.10
384.76	226.10
385.13	226.12
385.51	226.09
385.89	226.04
386.27	226.01
386.64	226.01
387.02	225.95
387.40	225.91
387.78	225.90
388.15	225.88
388.53	225.85
388.91	225.83
389.29	225.80
389.66	225.81
390.04	225.76
390.42	225.78
390.79	225.78
391.17	225.76
391.55	225.55
391.92	225.55
392.30	225.57
392.68	225.52
393.05	225.50
393.43	225.51
393.81	225.53
394.18	225.51
394.56	225.53
394.94	225.58
395.31	225.59
395.69	225.66
396.06	225.71
396.44	225.76
396.82	225.79
397.19	225.92
397.57	225.94
397.95	226.02
398.32	226.02
398.70	226.09
399.07	226.20
399.45	226.26
399.82	226.33
400.20	226.38
400.58	226.48
400.95	226.50
401.33	226.63
401.70	226.86
402.08	227.01
402.45	227.15
402.83	227.32
403.20	227.50
403.58	227.64
403.95	227.85
404.33	228.07
404.71	228.29
405.08	228.60
405.46	228.86
405.83	229.14
406.21	229.44
406.58	229.77
406.96	230.10
407.33	230.48
407.70	230.91
408.08	231.50
408.45	232.02
408.83	232.57
409.20	233.08
409.58	233.54
409.95	234.18
410.33	234.87
410.70	235.52
411.08	236.29
411.45	237.10
411.82	237.94
412.20	238.88
412.57	240.01
412.95	240.91
413.32	242.07
413.69	243.27
414.07	244.54
414.44	245.92
414.82	247.33
415.19	248.99
415.56	250.68
415.94	252.44
416.31	254.41
416.68	256.38
417.06	258.66
417.43	260.81
417.81	263.28
418.18	265.79
418.55	268.53
418.93	271.38
419.30	274.36
419.67	277.52
420.04	280.76
420.42	284.16
420.79	288.07
421.16	292.03
421.54	296.03
421.91	300.22
422.28	304.58
422.66	309.25
423.03	313.70
423.40	318.37
423.77	323.36
424.15	328.47
424.52	333.78
424.89	339.52
425.26	345.20
425.64	350.48
426.01	356.42
426.38	362.48
426.75	368.72
427.13	375.10
427.50	381.77
427.87	388.70
428.24	395.69
428.61	402.36
428.99	409.58
429.36	417.50
429.73	425.06
430.10	432.62
430.47	440.34
430.85	448.33
431.22	456.81
431.59	465.53
431.96	474.05
432.33	483.52
432.70	492.52
433.08	503.18
433.45	513.23
433.82	523.17
434.19	534.32
434.56	545.29
434.93	555.93
435.30	566.49
435.68	578.46
436.05	590.17
436.42	601.92
436.79	612.65
437.16	624.34
437.53	636.80
437.90	649.27
438.27	661.53
438.64	674.80
439.01	686.87
439.38	697.94
439.75	708.65
440.13	720.87
440.50	732.49
440.87	741.82
441.24	752.06
441.61	763.29
441.98	771.62
442.35	781.51
442.72	791.60
443.09	801.22
443.46	807.54
443.83	812.37
444.20	816.43
444.57	822.19
444.94	825.67
445.31	829.31
445.68	832.47
446.05	834.91
446.42	834.83
446.79	834.47
447.16	834.22
447.53	834.05
447.90	830.65
448.27	827.46
448.64	822.27
449.01	818.78
449.37	811.23
449.74	804.36
450.11	795.47
450.48	785.66
450.85	775.78
451.22	767.31
451.59	758.97
451.96	751.41
452.33	740.45
452.70	730.65
453.07	718.77
453.43	706.87
453.80	695.27
454.17	684.12
454.54	673.85
454.91	662.24
455.28	651.25
455.65	640.88
456.02	629.86
456.38	621.00
456.75	609.65
457.12	600.51
457.49	591.28
457.86	582.52
458.23	574.80
458.59	566.32
458.96	557.61
459.33	549.96
459.70	542.16
460.07	536.20
460.43	529.20
460.80	522.66
461.17	516.96
461.54	510.82
461.91	505.04
462.27	499.16
462.64	494.35
463.01	488.89
463.38	483.36
463.74	478.39
464.11	473.95
464.48	469.94
464.85	465.63
465.21	462.33
465.58	458.67
465.95	454.51
466.32	451.21
466.68	447.98
467.05	444.72
467.42	441.56
467.78	438.17
468.15	435.03
468.52	432.73
468.88	429.68
469.25	426.89
469.62	424.69
469.98	422.31
470.35	420.19
470.72	418.24
471.08	416.30
471.45	414.67
471.82	412.83
472.18	410.92
472.55	409.68
472.92	408.13
473.28	406.91
473.65	405.61
474.02	404.34
474.38	403.27
474.75	402.63
475.11	401.76
475.48	401.35
475.85	400.88
476.21	400.59
476.58	400.40
476.94	400.54
477.31	400.54
477.67	400.58
478.04	400.84
478.41	401.24
478.77	401.82
479.14	402.16
479.50	402.91
479.87	403.90
480.23	404.85
480.60	405.76
480.96	406.66
481.33	408.08
481.69	409.47
482.06	410.83
482.42	412.07
482.79	413.63
483.15	415.46
483.52	417.54
483.88	419.52
484.25	421.62
484.61	423.83
484.98	426.21
485.34	428.90
485.71	431.68
486.07	434.70
486.44	437.65
486.80	440.99
487.17	444.40
487.53	448.12
487.90	451.99
488.26	456.23
488.62	460.71
488.99	465.17
489.35	469.86
489.72	474.92
490.08	480.22
490.44	485.64
490.81	491.27
491.17	497.08
491.54	503.32
491.90	509.69
492.26	516.51
492.63	523.66
492.99	531.13
493.36	538.80
493.72	546.82
494.08	555.07
494.45	563.71
494.81	572.76
495.17	582.02
495.54	591.83
495.90	602.06
496.26	612.48
496.63	623.23
496.99	634.34
497.35	645.99
497.72	657.96
498.08	670.24
498.44	682.88
498.80	696.22
499.17	709.81
499.53	723.88
499.89	738.38
500.26	753.12
500.62	768.21
500.98	784.20
501.34	800.23
501.71	816.99
502.07	834.11
502.43	851.69
502.79	869.55
503.16	887.87
503.52	906.42
503.88	925.38
504.24	944.83
504.60	964.55
504.97	984.87
505.33	1005.69
505.69	1027.64
506.05	1049.79
506.41	1071.97
506.78	1094.31
507.14	1117.16
507.50	1140.53
507.86	1164.28
508.22	1188.27
508.59	1212.14
508.95	1237.00
509.31	1262.47
509.67	1288.61
510.03	1314.74
510.39	1340.74
510.75	1366.84
511.12	1393.20
511.48	1420.00
511.84	1446.68
512.20	1473.67
512.56	1501.82
512.92	1529.88
513.28	1557.20
513.64	1584.99
514.00	1613.15
514.37	1641.60
514.73	1670.11
515.09	1698.00
515.45	1726.10
515.81	1754.57
516.17	1782.79
516.53	1810.32
516.89	1837.53
517.25	1865.00
517.61	1892.30
517.97	1920.23
518.33	1947.70
518.69	1975.15
519.05	2002.84
519.41	2030.75
519.77	2058.86
520.13	2085.39
520.49	2111.76
520.85	2138.61
521.21	2164.84
521.57	2191.43
521.93	2216.82
522.29	2243.02
522.65	2268.95
523.01	2294.66
523.37	2319.56
523.73	2345.24
524.09	2370.61
524.45	2395.84
524.81	2420.50
525.17	2445.03
525.53	2468.52
525.89	2492.51
526.25	2516.21
526.61	2538.16
526.97	2560.18
527.33	2581.83
527.68	2603.53
528.04	2624.83
528.40	2645.10
528.76	2665.28
529.12	2684.88
529.48	2705.35
529.84	2723.07
530.20	2741.04
530.56	2758.39
530.91	2775.73
531.27	2792.35
531.63	2808.19
531.99	2823.48
532.35	2838.57
532.71	2853.31
533.07	2868.60
533.42	2881.88
533.78	2895.18
534.14	2909.67
534.50	2923.05
534.86	2937.08
535.21	2948.56
535.57	2960.03
535.93	2970.93
536.29	2980.30
536.65	2989.42
537.00	2997.28
537.36	3006.20
537.72	3014.32
538.08	3022.03
538.44	3028.37
538.79	3034.65
539.15	3039.63
539.51	3043.92
539.87	3046.86
540.22	3047.98
540.58	3049.38
540.94	3051.35
541.29	3052.46
541.65	3052.04
542.01	3051.21
542.37	3048.57
542.72	3047.83
543.08	3045.22
543.44	3042.81
543.79	3040.24
544.15	3036.91
544.51	3033.36
544.87	3028.93
545.22	3023.53
545.58	3017.52
545.94	3012.00
546.29	3005.04
546.65	2998.13
547.01	2991.34
547.36	2985.21
547.72	2979.27
548.07	2971.53
548.43	2962.62
548.79	2953.27
549.14	2944.20
549.50	2935.29
549.86	2925.61
550.21	2914.01
550.57	2903.74
550.92	2891.87
551.28	2880.03
551.64	2868.53
551.99	2856.89
552.35	2844.79
552.70	2832.59
553.06	2820.95
553.41	2808.85
553.77	2796.30
554.13	2783.85
554.48	2770.32
554.84	2755.38
555.19	2740.86
555.55	2726.45
555.90	2712.58
556.26	2699.01
556.61	2684.39
556.97	2668.57
557.32	2653.09
557.68	2638.08
558.03	2622.63
558.39	2608.02
558.74	2594.27
559.10	2578.66
559.45	2562.91
559.81	2547.78
560.16	2532.22
560.52	2516.36
560.87	2500.87
561.23	2484.86
561.58	2469.41
561.94	2453.63
562.29	2437.51
562.64	2421.59
563.00	2405.62
563.35	2389.95
563.71	2373.76
564.06	2357.76
564.42	2342.28
564.77	2326.96
565.12	2311.30
565.48	2295.25
565.83	2279.24
566.19	2263.13
566.54	2247.20
566.89	2230.91
567.25	2214.70
567.60	2199.41
567.96	2183.59
568.31	2166.10
568.66	2149.34
569.02	2133.29
569.37	2117.80
569.72	2102.84
570.08	2087.51
570.43	2071.47
570.78	2055.13
571.14	2038.84
571.49	2022.46
571.84	2006.30
572.20	1988.91
572.55	1972.17
572.90	1955.65
573.26	1939.41
573.61	1922.46
573.96	1906.00
574.31	1889.45
574.67	1872.51
575.02	1855.16
575.37	1837.79
575.72	1821.35
576.08	1804.85
576.43	1787.32
576.78	1770.11
577.13	1753.16
577.49	1736.33
577.84	1720.12
578.19	1703.49
578.54	1686.74
578.90	1669.92
579.25	1652.89
579.60	1637.22
579.95	1621.26
580.30	1605.25
580.66	1588.88
581.01	1572.65
581.36	1556.46
581.71	1541.14
582.06	1525.91
582.42	1510.52
582.77	1495.47
583.12	1480.68
583.47	1466.00
583.82	1451.50
584.17	1436.36
584.53	1421.34
584.88	1406.68
585.23	1391.85
585.58	1377.43
585.93	1362.86
586.28	1349.31
586.63	1335.70
586.98	1321.50
587.34	1307.77
587.69	1293.87
588.04	1280.25
588.39	1266.91
588.74	1253.26
589.09	1239.70
589.44	1225.77
589.79	1212.55
590.14	1199.36
590.49	1186.17
590.84	1173.20
591.19	1160.64
591.54	1148.25
591.89	1135.52
592.25	1123.07
592.60	1110.48
592.95	1098.05
593.30	1086.10
593.65	1073.80
594.00	1061.84
594.35	1050.80
594.70	1039.04
595.05	1027.90
595.40	1016.67
595.75	1005.27
596.10	994.50
596.45	983.62
596.80	973.30
597.15	962.86
597.50	952.39
597.85	942.35
598.19	932.26
598.54	922.14
598.89	912.52
599.24	903.32
599.59	893.83
599.94	885.08
600.29	876.41
600.64	867.51
600.99	858.48
601.34	849.83
601.69	840.63
602.04	832.41
602.39	824.07
602.74	815.95
603.08	807.94
603.43	799.94
603.78	791.98
604.13	784.01
604.48	776.05
604.83	768.45
605.18	760.78
605.53	753.34
605.87	745.90
606.22	738.58
606.57	731.17
606.92	723.74
607.27	716.32
607.62	709.05
607.96	702.04
608.31	695.59
608.66	688.94
609.01	682.62
609.36	676.26
609.70	669.89
610.05	663.49
610.40	657.30
610.75	651.05
611.10	645.08
611.44	639.08
611.79	633.28
612.14	627.32
612.49	621.46
612.83	615.91
613.18	610.44
613.53	604.97
613.88	599.61
614.22	594.67
614.57	589.64
614.92	584.73
615.27	579.94
615.61	575.02
615.96	570.20
616.31	565.34
616.65	560.62
617.00	556.03
617.35	551.54
617.70	547.06
618.04	542.71
618.39	538.42
618.74	534.43
619.08	530.38
619.43	526.49
619.78	522.57
620.12	518.56
620.47	514.78
620.82	511.09
621.16	507.45
621.51	503.86
621.85	500.26
622.20	496.70
622.55	493.19
622.89	489.69
623.24	486.38
623.59	483.15
623.93	479.99
624.28	476.94
624.62	474.10
624.97	471.30
625.32	468.41
625.66	465.51
626.01	462.56
626.35	459.78
626.70	456.96
627.04	454.34
627.39	451.70
627.73	449.12
628.08	446.58
628.43	444.07
628.77	441.49
629.12	439.01
629.46	436.66
629.81	434.46
630.15	432.16
630.50	429.89
630.84	427.67
631.19	425.50
631.53	423.43
631.88	421.18
632.22	419.01
632.57	417.15
632.91	415.24
633.26	413.41
633.60	411.58
633.95	409.85
634.29	407.99
634.64	406.20
634.98	404.30
635.32	402.59
635.67	401.04
636.01	399.48
636.36	397.98
636.70	396.54
637.05	394.94
637.39	393.51
637.73	392.07
638.08	390.71
638.42	389.38
638.77	387.93
639.11	386.43
639.45	385.00
639.80	383.53
640.14	382.11
640.49	380.71
640.83	379.31
641.17	377.98
641.52	376.66
641.86	375.38
642.20	374.25
642.55	372.94
642.89	371.65
643.23	370.43
643.58	369.35
643.92	368.10
644.26	366.95
644.61	365.84
644.95	364.70
645.29	363.51
645.64	362.30
645.98	361.20
646.32	360.23
646.66	359.19
647.01	358.16
647.35	357.25
647.69	356.28
648.04	355.39
648.38	354.42
648.72	353.50
649.06	352.59
649.41	351.66
649.75	350.78
650.09	349.93
650.43	349.05
650.78	348.12
651.12	347.28
651.46	346.45
651.80	345.62
652.14	344.83
652.49	344.12
652.83	343.34
653.17	342.54
653.51	341.74
653.85	341.08
654.20	340.36
654.54	339.55
654.88	338.80
655.22	338.10
655.56	337.36
655.90	336.68
656.25	336.00
656.59	335.33
656.93	334.69
657.27	334.11
657.61	333.45
657.95	332.87
658.29	332.24
658.64	331.64
658.98	330.98
659.32	330.34
659.66	329.73
660.00	329.17
660.34	328.61
660.68	328.00
661.02	327.32
661.36	326.69
661.70	326.11
662.05	325.54
662.39	324.98
662.73	324.53
663.07	324.09
663.41	323.61
663.75	323.08
664.09	322.57
664.43	321.95
664.77	321.42
665.11	320.83
665.45	320.31
665.79	319.80
666.13	319.28
666.47	318.75
666.81	318.19
667.15	317.57
667.49	317.09
667.83	316.67
668.17	316.21
668.51	315.80
668.85	315.41
669.19	315.06
669.53	314.54
669.87	313.99
670.21	313.43
670.55	312.93
670.89	312.52
671.23	312.05
671.57	311.64
671.91	311.29
672.25	310.97
672.58	310.63
672.92	310.20
673.26	309.85
673.60	309.51
673.94	309.14
674.28	308.81
674.62	308.45
674.96	308.02
675.30	307.67
675.64	307.24
675.97	306.79
676.31	306.31
676.65	305.91
676.99	305.59
677.33	305.16
677.67	304.77
678.01	304.30
678.34	303.90
678.68	303.53
679.02	303.07
679.36	302.63
679.70	302.17
680.04	301.77
680.37	301.36
680.71	300.97
681.05	300.61
681.39	300.21
681.73	299.75
682.06	299.33
682.40	298.92
682.74	298.57
683.08	298.27
683.42	297.88
683.75	297.55
684.09	297.09
684.43	296.71
684.77	296.31
685.10	295.94
685.44	295.53
685.78	295.12
686.12	294.73
686.45	294.31
686.79	293.88
687.13	293.48
687.46	293.04
687.80	292.63
688.14	292.16
688.48	291.74
688.81	291.32
689.15	290.96
689.49	290.51
689.82	290.07
690.16	289.53
690.50	289.09
690.83	288.63
691.17	288.18
691.51	287.74
691.84	287.35
692.18	286.90
692.52	286.44
692.85	286.01
693.19	285.62
693.52	285.20
693.86	284.76
694.20	284.33
694.53	283.91
694.87	283.44
695.21	282.99
695.54	282.54
695.88	282.07
696.21	281.58
696.55	281.14
696.88	280.68
697.22	280.26
697.56	279.85
697.89	279.38
698.23	278.96
698.56	278.51
698.90	278.10
699.23	277.64
699.57	277.23
699.90	276.80
700.24	276.33
700.58	275.93
700.91	275.56
701.25	275.30
701.58	274.98
701.92	274.63
702.25	274.25
702.59	273.83
702.92	273.45
703.26	273.03
703.59	272.62
703.93	272.34
704.26	271.95
704.60	271.53
704.93	271.12
705.26	270.71
705.60	270.34
705.93	269.88
706.27	269.56
706.60	269.22
706.94	268.89
707.27	268.46
707.61	268.07
707.94	267.64
708.27	267.08
708.61	266.60
708.94	266.17
709.28	265.78
709.61	265.39
709.94	265.04
710.28	264.69
710.61	264.36
710.95	263.84
711.28	263.60
711.61	263.24
711.95	262.93
712.28	262.55
712.61	262.17
712.95	261.93
713.28	261.64
713.61	261.24
713.95	260.84
714.28	260.53
714.61	260.16
714.95	259.82
715.28	259.48
715.61	259.16
715.95	258.87
716.28	258.53
716.61	258.24
716.95	257.91
717.28	257.59
717.61	257.26
717.94	256.97
718.28	256.54
718.61	256.24
718.94	255.91
719.27	255.62
719.61	255.35
719.94	255.03
720.27	254.64
720.60	254.37
720.94	254.08
721.27	253.81
721.60	253.57
721.93	253.29
722.27	253.07
722.60	252.80
722.93	252.49
723.26	252.25
723.59	251.94
723.93	251.70
724.26	251.45
724.59	251.19
724.92	250.95
725.25	250.75
725.59	250.50
725.92	250.28
726.25	250.04
726.58	249.79
726.91	249.54
727.24	249.32
727.57	249.08
727.91	248.81
728.24	248.59
728.57	248.35
728.90	248.14
729.23	247.85
729.56	247.72
729.89	247.50
730.22	247.27
730.55	247.06
730.89	246.84
731.22	246.61
731.55	246.40
731.88	246.19
732.21	245.95
732.54	245.73
732.87	245.52
733.20	245.34
733.53	245.15
733.86	244.96
734.19	244.75
734.52	244.59
734.85	244.55
735.18	244.33
735.51	244.20
735.84	244.02
736.17	243.90
736.50	243.62
736.83	243.65
737.16	243.47
737.49	243.31
737.82	243.12
738.15	242.97
738.48	242.78
738.81	242.60
739.14	242.41
739.47	242.23
739.80	242.04
740.13	241.88
740.46	241.68
740.79	241.48
741.12	241.30
741.45	241.08
741.78	240.80
742.11	240.68
742.44	240.46
742.77	240.31
743.10	240.11
743.43	239.94
743.75	239.59
744.08	239.71
744.41	239.53
744.74	239.37
745.07	239.18
745.40	239.07
745.73	239.00
746.06	238.87
746.39	238.75
746.71	238.60
747.04	238.44
747.37	238.30
747.70	238.18
748.03	238.05
748.36	237.96
748.68	237.82
749.01	237.63
749.34	237.51
749.67	237.38
750.00	237.28
750.33	237.29
750.65	237.17
750.98	236.77
751.31	236.66
751.64	236.56
751.97	236.54
752.29	236.40
752.62	236.18
752.95	236.05
753.28	235.90
753.60	235.77
753.93	235.69
754.26	235.59
754.59	235.42
754.91	235.29
755.24	235.15
755.57	235.03
755.90	234.92
756.22	234.78
756.55	234.63
756.88	234.48
757.20	234.25
757.53	234.09
757.86	233.98
758.19	233.88
758.51	233.76
758.84	233.56
759.17	233.44
759.49	233.36
759.82	233.35
760.15	233.27
760.47	233.17
760.80	233.02
761.13	232.95
761.45	232.86
761.78	232.77
762.11	232.69
762.43	232.57
762.76	232.48
763.08	232.41
763.41	232.35
763.74	232.28
764.06	232.19
764.39	232.12
764.71	232.03
765.04	231.93
765.37	231.83
765.69	231.76
766.02	231.67
766.34	231.58
766.67	231.43
767.00	231.39
767.32	231.41
767.65	231.46
767.97	231.37
768.30	231.31
768.62	231.24
768.95	231.15
769.27	231.08
769.60	231.04
769.92	230.94
770.25	230.84
770.57	230.73
770.90	230.67
771.22	230.59
771.55	230.54
771.87	230.49
772.20	230.43
772.52	230.53
772.85	230.69
773.17	230.64
773.50	230.57
773.82	230.48
774.15	230.33
774.47	230.15
774.80	230.08
775.12	230.02
775.45	229.97
775.77	229.93
776.09	229.89
776.42	229.84
776.74	229.85
777.07	229.79
777.39	229.76
777.72	229.70
778.04	229.68
778.36	229.61
778.69	229.57
779.01	229.54
779.33	229.33
779.66	229.08
779.98	229.02
780.31	228.99
780.63	229.03
780.95	229.02
781.28	228.98
781.60	228.92
781.92	228.89
782.25	228.84
782.57	228.81
782.89	228.75
783.22	228.70
783.54	228.63
783.86	228.61
784.19	228.56
784.51	228.59
784.83	228.53
785.16	228.49
785.48	228.47
785.80	228.44
786.12	228.42
786.45	228.39
786.77	228.36
787.09	228.32
787.42	228.22
787.74	228.18
788.06	228.17
788.38	228.14
788.71	228.08
789.03	228.06
789.35	228.05
789.67	228.00
789.99	227.99
790.32	227.94
790.64	227.93
790.96	228.07
791.28	227.97
791.61	227.94
791.93	227.92
792.25	227.88
792.57	227.98
792.89	227.92
793.21	227.90
793.54	227.86
793.86	227.81
794.18	227.80
794.50	227.74
794.82	227.71
795.14	227.71
795.47	227.72
795.79	227.70
796.11	227.63
796.43	227.60
796.75	227.57
797.07	227.56
797.39	227.52
797.71	227.34
798.04	227.33
798.36	227.32
798.68	227.29
799.00	227.29
799.32	227.17
799.64	227.18
799.96	227.16
800.28	227.18
800.60	227.15
800.92	227.14
801.24	227.11
801.56	227.11
801.89	227.06
802.21	227.05
802.53	227.00
802.85	227.03
803.17	227.10
803.49	227.04
803.81	227.01
804.13	226.98
804.45	226.94
804.77	226.93
805.09	226.91
805.41	226.87
805.73	226.82
806.05	226.75
806.37	226.72
806.69	226.68
807.01	226.64
807.33	226.63
807.65	226.54
807.97	226.61
808.28	226.57
808.60	226.55
808.92	226.51
809.24	226.61
809.56	226.56
809.88	226.47
810.20	226.47
810.52	226.49
810.84	226.46
811.16	226.42
811.48	226.39
811.80	226.44
812.12	226.43
812.43	226.45
812.75	226.45
813.07	226.42
813.39	226.42
813.71	226.37
814.03	226.34
814.35	226.35
814.67	226.26
814.98	226.23
815.30	226.22
815.62	226.17
815.94	226.03
816.26	226.04
816.58	226.00
816.89	226.00
817.21	225.94
817.53	225.94
817.85	225.94
818.17	225.93
818.48	225.84
