SpectraSuite Data File
++++++++++++++++++++++++++++++++++++
Date: Tue Oct 06 19:44:36 EDT 2015
User: lab3
Dark Spectrum Present: No
Reference Spectrum Present: No
Number of Sampled Component Spectra: 1
Spectrometers: USB2E7196
Integration Time (usec): 66000 (USB2E7196)
Spectra Averaged: 5000 (USB2E7196)
Boxcar Smoothing: 10 (USB2E7196)
Correct for Electrical Dark: No (USB2E7196)
Strobe/Lamp Enabled: No (USB2E7196)
Correct for Detector Non-linearity: No (USB2E7196)
Correct for Stray Light: No (USB2E7196)
Number of Pixels in Processed Spectrum: 2048
>>>>>Begin Processed Spectral Data<<<<<
339.09	0.00
339.48	215.17
339.86	216.69
340.24	218.00
340.63	219.40
341.01	223.57
341.39	222.20
341.78	223.73
342.16	225.03
342.54	225.28
342.93	213.71
343.31	224.50
343.69	225.04
344.07	225.50
344.46	225.95
344.84	226.36
345.22	226.55
345.60	226.82
345.99	227.02
346.37	227.16
346.75	227.28
347.13	227.37
347.52	227.46
347.90	227.58
348.28	227.63
348.66	227.71
349.05	227.70
349.43	227.78
349.81	227.85
350.19	227.92
350.57	227.99
350.96	228.09
351.34	228.19
351.72	228.30
352.10	228.41
352.48	228.48
352.87	228.53
353.25	228.60
353.63	228.64
354.01	228.70
354.39	228.79
354.77	228.86
355.15	228.98
355.54	229.02
355.92	229.03
356.30	229.10
356.68	229.28
357.06	229.37
357.44	229.40
357.82	229.46
358.20	229.67
358.58	229.72
358.97	229.79
359.35	229.88
359.73	229.98
360.11	230.02
360.49	230.09
360.87	230.14
361.25	230.21
361.63	230.32
362.01	230.37
362.39	230.40
362.77	230.45
363.15	230.46
363.53	230.49
363.91	230.53
364.29	230.56
364.67	230.41
365.05	230.42
365.43	230.47
365.81	230.50
366.19	230.46
366.57	230.53
366.95	230.53
367.33	230.50
367.71	230.49
368.09	230.52
368.47	230.51
368.85	230.50
369.23	230.52
369.61	230.45
369.99	230.49
370.37	230.49
370.75	230.61
371.13	230.58
371.51	230.54
371.89	230.53
372.27	230.51
372.65	230.50
373.03	230.46
373.41	230.41
373.78	230.36
374.16	230.23
374.54	230.13
374.92	230.08
375.30	230.04
375.68	229.96
376.06	229.93
376.44	229.87
376.82	229.84
377.19	229.80
377.57	229.75
377.95	229.64
378.33	229.57
378.71	229.37
379.09	229.33
379.47	229.32
379.84	229.25
380.22	229.18
380.60	229.11
380.98	229.06
381.36	229.02
381.73	228.96
382.11	228.95
382.49	228.92
382.87	228.86
383.25	228.82
383.62	229.00
384.00	228.93
384.38	228.90
384.76	228.90
385.13	228.91
385.51	228.88
385.89	228.83
386.27	228.81
386.64	228.80
387.02	228.75
387.40	228.70
387.78	228.68
388.15	228.67
388.53	228.64
388.91	228.61
389.29	228.58
389.66	228.59
390.04	228.55
390.42	228.56
390.79	228.57
391.17	228.55
391.55	228.34
391.92	228.34
392.30	228.35
392.68	228.31
393.05	228.29
393.43	228.30
393.81	228.32
394.18	228.30
394.56	228.31
394.94	228.37
395.31	228.38
395.69	228.45
396.06	228.50
396.44	228.55
396.82	228.57
397.19	228.70
397.57	228.72
397.95	228.79
398.32	228.78
398.70	228.85
399.07	228.95
399.45	229.01
399.82	229.08
400.20	229.13
400.58	229.22
400.95	229.23
401.33	229.36
401.70	229.58
402.08	229.72
402.45	229.85
402.83	230.01
403.20	230.18
403.58	230.31
403.95	230.51
404.33	230.72
404.71	230.93
405.08	231.23
405.46	231.48
405.83	231.75
406.21	232.04
406.58	232.36
406.96	232.67
407.33	233.04
407.70	233.46
408.08	234.03
408.45	234.52
408.83	235.06
409.20	235.55
409.58	236.00
409.95	236.62
410.33	237.28
410.70	237.91
411.08	238.66
411.45	239.45
411.82	240.26
412.20	241.18
412.57	242.26
412.95	243.13
413.32	244.25
413.69	245.40
414.07	246.64
414.44	247.98
414.82	249.35
415.19	250.96
415.56	252.60
415.94	254.31
416.31	256.22
416.68	258.14
417.06	260.37
417.43	262.45
417.81	264.85
418.18	267.30
418.55	269.96
418.93	272.74
419.30	275.66
419.67	278.74
420.04	281.91
420.42	285.23
420.79	289.06
421.16	292.92
421.54	296.82
421.91	300.92
422.28	305.18
422.66	309.76
423.03	314.12
423.40	318.68
423.77	323.58
424.15	328.59
424.52	333.78
424.89	339.40
425.26	344.98
425.64	350.16
426.01	355.96
426.38	361.90
426.75	368.01
427.13	374.26
427.50	380.80
427.87	387.59
428.24	394.44
428.61	401.00
428.99	408.07
429.36	415.83
429.73	423.24
430.10	430.63
430.47	438.19
430.85	446.01
431.22	454.34
431.59	462.89
431.96	471.24
432.33	480.51
432.70	489.34
433.08	499.78
433.45	509.63
433.82	519.37
434.19	530.29
434.56	541.04
434.93	551.46
435.30	561.80
435.68	573.52
436.05	584.97
436.42	596.45
436.79	606.95
437.16	618.36
437.53	630.54
437.90	642.73
438.27	654.72
438.64	667.63
439.01	679.37
439.38	690.11
439.75	700.53
440.13	712.38
440.50	723.64
440.87	732.66
441.24	742.57
441.61	753.42
441.98	761.42
442.35	770.94
442.72	780.62
443.09	789.83
443.46	795.83
443.83	800.39
444.20	804.16
444.57	809.60
444.94	812.82
445.31	816.16
445.68	819.02
446.05	821.15
446.42	820.84
446.79	820.26
447.16	819.80
447.53	819.39
447.90	815.87
448.27	812.52
448.64	807.23
449.01	803.59
449.37	796.05
449.74	789.21
450.11	780.34
450.48	770.61
450.85	760.86
451.22	752.46
451.59	744.18
451.96	736.69
452.33	725.88
452.70	716.25
453.07	704.57
453.43	692.94
453.80	681.58
454.17	670.70
454.54	660.67
454.91	649.35
455.28	638.66
455.65	628.57
456.02	617.89
456.38	609.30
456.75	598.31
457.12	589.42
457.49	580.46
457.86	571.99
458.23	564.52
458.59	556.31
458.96	547.89
459.33	540.50
459.70	532.98
460.07	527.23
460.43	520.46
460.80	514.14
461.17	508.63
461.54	502.69
461.91	497.11
462.27	491.44
462.64	486.79
463.01	481.51
463.38	476.15
463.74	471.34
464.11	467.05
464.48	463.16
464.85	459.01
465.21	455.81
465.58	452.26
465.95	448.25
466.32	445.05
466.68	441.92
467.05	438.76
467.42	435.67
467.78	432.38
468.15	429.35
468.52	427.13
468.88	424.18
469.25	421.48
469.62	419.35
469.98	417.05
470.35	414.99
470.72	413.11
471.08	411.24
471.45	409.65
471.82	407.89
472.18	406.04
472.55	404.83
472.92	403.34
473.28	402.18
473.65	400.93
474.02	399.73
474.38	398.72
474.75	398.11
475.11	397.30
475.48	396.91
475.85	396.49
476.21	396.24
476.58	396.06
476.94	396.23
477.31	396.26
477.67	396.33
478.04	396.63
478.41	397.04
478.77	397.64
479.14	398.00
479.50	398.76
479.87	399.74
480.23	400.70
480.60	401.62
480.96	402.53
481.33	403.94
481.69	405.31
482.06	406.67
482.42	407.92
482.79	409.49
483.15	411.31
483.52	413.37
483.88	415.33
484.25	417.42
484.61	419.61
484.98	421.98
485.34	424.63
485.71	427.41
486.07	430.38
486.44	433.30
486.80	436.61
487.17	440.00
487.53	443.67
487.90	447.52
488.26	451.71
488.62	456.14
488.99	460.53
489.35	465.15
489.72	470.13
490.08	475.38
490.44	480.73
490.81	486.32
491.17	492.07
491.54	498.24
491.90	504.54
492.26	511.28
492.63	518.33
492.99	525.72
493.36	533.24
493.72	541.17
494.08	549.30
494.45	557.82
494.81	566.72
495.17	575.88
495.54	585.54
495.90	595.63
496.26	605.92
496.63	616.50
496.99	627.50
497.35	638.98
497.72	650.75
498.08	662.86
498.44	675.29
498.80	688.42
499.17	701.84
499.53	715.72
499.89	730.04
500.26	744.57
500.62	759.44
500.98	775.17
501.34	790.92
501.71	807.50
502.07	824.37
502.43	841.72
502.79	859.29
503.16	877.38
503.52	895.66
503.88	914.36
504.24	933.54
504.60	952.98
504.97	973.07
505.33	993.63
505.69	1015.25
506.05	1037.12
506.41	1058.89
506.78	1080.84
507.14	1103.39
507.50	1126.40
507.86	1149.83
508.22	1173.51
508.59	1197.10
508.95	1221.77
509.31	1246.89
509.67	1272.66
510.03	1298.36
510.39	1324.03
510.75	1349.81
511.12	1376.03
511.48	1402.42
511.84	1428.83
512.20	1455.65
512.56	1483.51
512.92	1511.17
513.28	1538.24
513.64	1565.76
514.00	1593.66
514.37	1621.84
514.73	1650.07
515.09	1677.64
515.45	1705.57
515.81	1733.68
516.17	1761.56
516.53	1788.80
516.89	1815.90
517.25	1843.36
517.61	1870.59
517.97	1898.53
518.33	1925.85
518.69	1953.05
519.05	1980.74
519.41	2008.58
519.77	2036.40
520.13	2062.77
520.49	2089.24
520.85	2116.11
521.21	2142.37
521.57	2168.97
521.93	2194.58
522.29	2220.82
522.65	2246.99
523.01	2272.80
523.37	2297.85
523.73	2323.71
524.09	2349.34
524.45	2374.63
524.81	2399.24
525.17	2423.77
525.53	2447.51
525.89	2471.65
526.25	2495.44
526.61	2517.57
526.97	2539.78
527.33	2561.86
527.68	2583.70
528.04	2605.23
528.40	2625.43
528.76	2645.81
529.12	2665.81
529.48	2686.39
529.84	2704.14
530.20	2722.34
530.56	2739.69
530.91	2757.36
531.27	2774.42
531.63	2790.41
531.99	2806.26
532.35	2821.78
532.71	2836.85
533.07	2852.26
533.42	2865.71
533.78	2879.45
534.14	2894.27
534.50	2907.86
534.86	2921.89
535.21	2933.82
535.57	2945.52
535.93	2957.05
536.29	2966.69
536.65	2976.21
537.00	2984.28
537.36	2993.86
537.72	3002.39
538.08	3010.40
538.44	3017.24
538.79	3023.75
539.15	3028.86
539.51	3033.15
539.87	3036.19
540.22	3037.71
540.58	3039.51
540.94	3042.26
541.29	3043.63
541.65	3043.67
542.01	3043.27
542.37	3041.27
542.72	3040.84
543.08	3038.60
543.44	3036.69
543.79	3034.46
544.15	3031.35
544.51	3028.34
544.87	3024.28
545.22	3019.20
545.58	3014.01
545.94	3008.91
546.29	3002.22
546.65	2995.86
547.01	2989.68
547.36	2983.99
547.72	2978.39
548.07	2970.93
548.43	2962.32
548.79	2953.49
549.14	2944.83
549.50	2936.29
549.86	2926.78
550.21	2915.52
550.57	2905.58
550.92	2893.65
551.28	2882.19
551.64	2871.06
551.99	2859.57
552.35	2847.55
552.70	2835.41
553.06	2823.74
553.41	2811.61
553.77	2799.30
554.13	2786.92
554.48	2773.32
554.84	2758.89
555.19	2744.87
555.55	2730.71
555.90	2717.08
556.26	2703.68
556.61	2689.13
556.97	2673.51
557.32	2658.43
557.68	2643.71
558.03	2628.53
558.39	2614.46
558.74	2600.94
559.10	2585.30
559.45	2569.93
559.81	2555.28
560.16	2540.23
560.52	2524.90
560.87	2509.74
561.23	2494.17
561.58	2479.24
561.94	2463.78
562.29	2447.72
562.64	2431.82
563.00	2416.08
563.35	2400.35
563.71	2384.31
564.06	2368.35
564.42	2353.01
564.77	2337.66
565.12	2321.94
565.48	2305.96
565.83	2290.20
566.19	2274.37
566.54	2258.90
566.89	2242.82
567.25	2226.65
567.60	2211.34
567.96	2195.15
568.31	2177.72
568.66	2161.31
569.02	2145.35
569.37	2129.98
569.72	2115.32
570.08	2100.13
570.43	2084.28
570.78	2068.29
571.14	2052.07
571.49	2035.93
571.84	2020.04
572.20	2002.85
572.55	1986.56
572.90	1970.41
573.26	1954.16
573.61	1937.30
573.96	1920.95
574.31	1904.37
574.67	1887.58
575.02	1870.47
575.37	1853.46
575.72	1837.23
576.08	1820.57
576.43	1803.26
576.78	1786.12
577.13	1769.21
577.49	1752.54
577.84	1736.40
578.19	1719.69
578.54	1703.09
578.90	1686.32
579.25	1669.41
579.60	1653.80
579.95	1637.85
580.30	1621.78
580.66	1605.44
581.01	1589.14
581.36	1573.02
581.71	1557.81
582.06	1542.52
582.42	1527.04
582.77	1512.09
583.12	1497.37
583.47	1482.62
583.82	1468.02
584.17	1452.91
584.53	1437.85
584.88	1423.09
585.23	1408.19
585.58	1393.72
585.93	1379.14
586.28	1365.65
586.63	1351.98
586.98	1337.82
587.34	1324.06
587.69	1310.15
588.04	1296.61
588.39	1283.38
588.74	1269.68
589.09	1256.12
589.44	1242.26
589.79	1229.01
590.14	1215.82
590.49	1202.66
590.84	1189.77
591.19	1177.25
591.54	1164.85
591.89	1151.99
592.25	1139.55
592.60	1126.94
592.95	1114.50
593.30	1102.46
593.65	1090.10
594.00	1078.01
594.35	1066.90
594.70	1055.01
595.05	1043.81
595.40	1032.39
595.75	1020.80
596.10	1009.91
596.45	999.02
596.80	988.52
597.15	978.01
597.50	967.51
597.85	957.24
598.19	946.99
598.54	936.75
598.89	927.09
599.24	917.85
599.59	908.38
599.94	899.60
600.29	890.81
600.64	881.81
600.99	872.67
601.34	863.88
601.69	854.56
602.04	846.20
602.39	837.72
602.74	829.44
603.08	821.33
603.43	813.16
603.78	804.98
604.13	796.87
604.48	788.84
604.83	781.00
605.18	773.27
605.53	765.70
605.87	758.07
606.22	750.57
606.57	742.97
606.92	735.31
607.27	727.68
607.62	720.28
607.96	713.18
608.31	706.59
608.66	699.90
609.01	693.48
609.36	687.03
609.70	680.51
610.05	674.02
610.40	667.73
610.75	661.43
611.10	655.34
611.44	649.27
611.79	643.29
612.14	637.25
612.49	631.31
612.83	625.68
613.18	620.09
613.53	614.48
613.88	609.06
614.22	604.03
614.57	598.90
614.92	593.86
615.27	588.97
615.61	583.94
615.96	578.94
616.31	573.99
616.65	569.17
617.00	564.50
617.35	559.89
617.70	555.29
618.04	550.81
618.39	546.47
618.74	542.38
619.08	538.26
619.43	534.27
619.78	530.22
620.12	526.16
620.47	522.33
620.82	518.61
621.16	514.90
621.51	511.21
621.85	507.56
622.20	503.99
622.55	500.35
622.89	496.79
623.24	493.43
623.59	490.11
623.93	486.90
624.28	483.83
624.62	480.96
624.97	478.09
625.32	475.16
625.66	472.16
626.01	469.15
626.35	466.31
626.70	463.40
627.04	460.70
627.39	457.97
627.73	455.32
628.08	452.72
628.43	450.13
628.77	447.49
629.12	444.98
629.46	442.58
629.81	440.33
630.15	438.00
630.50	435.69
630.84	433.45
631.19	431.23
631.53	429.10
631.88	426.82
632.22	424.63
632.57	422.72
632.91	420.79
633.26	418.93
633.60	417.10
633.95	415.35
634.29	413.48
634.64	411.67
634.98	409.74
635.32	408.00
635.67	406.42
636.01	404.83
636.36	403.29
636.70	401.82
637.05	400.21
637.39	398.75
637.73	397.29
638.08	395.90
638.42	394.54
638.77	393.06
639.11	391.54
639.45	390.08
639.80	388.56
640.14	387.15
640.49	385.72
640.83	384.30
641.17	382.92
641.52	381.60
641.86	380.30
642.20	379.16
642.55	377.84
642.89	376.52
643.23	375.30
643.58	374.19
643.92	372.94
644.26	371.78
644.61	370.66
644.95	369.49
645.29	368.25
645.64	367.01
645.98	365.90
646.32	364.89
646.66	363.82
647.01	362.80
647.35	361.85
647.69	360.88
648.04	359.98
648.38	359.02
648.72	358.11
649.06	357.19
649.41	356.23
649.75	355.33
650.09	354.48
650.43	353.58
650.78	352.67
651.12	351.80
651.46	350.92
651.80	350.08
652.14	349.29
652.49	348.57
652.83	347.78
653.17	346.95
653.51	346.18
653.85	345.51
654.20	344.79
654.54	343.97
654.88	343.18
655.22	342.46
655.56	341.70
655.90	340.98
656.25	340.28
656.59	339.60
656.93	338.97
657.27	338.37
657.61	337.69
657.95	337.08
658.29	336.44
658.64	335.83
658.98	335.16
659.32	334.52
659.66	333.90
660.00	333.33
660.34	332.75
660.68	332.12
661.02	331.43
661.36	330.80
661.70	330.21
662.05	329.64
662.39	329.07
662.73	328.59
663.07	328.14
663.41	327.65
663.75	327.11
664.09	326.55
664.43	325.89
664.77	325.35
665.11	324.74
665.45	324.19
665.79	323.67
666.13	323.12
666.47	322.56
666.81	321.97
667.15	321.35
667.49	320.87
667.83	320.42
668.17	319.96
668.51	319.52
668.85	319.09
669.19	318.71
669.53	318.16
669.87	317.59
670.21	317.03
670.55	316.49
670.89	316.08
671.23	315.64
671.57	315.24
671.91	314.88
672.25	314.54
672.58	314.20
672.92	313.76
673.26	313.42
673.60	313.05
673.94	312.69
674.28	312.36
674.62	311.98
674.96	311.54
675.30	311.15
675.64	310.70
675.97	310.24
676.31	309.76
676.65	309.34
676.99	309.02
677.33	308.58
677.67	308.18
678.01	307.69
678.34	307.27
678.68	306.88
679.02	306.43
679.36	305.98
679.70	305.52
680.04	305.13
680.37	304.71
680.71	304.32
681.05	303.96
681.39	303.54
681.73	303.07
682.06	302.65
682.40	302.25
682.74	301.89
683.08	301.59
683.42	301.21
683.75	300.87
684.09	300.40
684.43	300.01
684.77	299.60
685.10	299.22
685.44	298.83
685.78	298.41
686.12	298.00
686.45	297.59
686.79	297.14
687.13	296.73
687.46	296.27
687.80	295.86
688.14	295.37
688.48	294.95
688.81	294.53
689.15	294.16
689.49	293.72
689.82	293.28
690.16	292.73
690.50	292.27
690.83	291.81
691.17	291.36
691.51	290.92
691.84	290.53
692.18	290.08
692.52	289.61
692.85	289.15
693.19	288.77
693.52	288.32
693.86	287.89
694.20	287.46
694.53	287.02
694.87	286.54
695.21	286.09
695.54	285.65
695.88	285.18
696.21	284.68
696.55	284.23
696.88	283.77
697.22	283.35
697.56	282.94
697.89	282.46
698.23	282.03
698.56	281.57
698.90	281.15
699.23	280.69
699.57	280.28
699.90	279.85
700.24	279.37
700.58	278.96
700.91	278.59
701.25	278.33
701.58	278.01
701.92	277.66
702.25	277.28
702.59	276.86
702.92	276.47
703.26	276.05
703.59	275.64
703.93	275.36
704.26	274.97
704.60	274.56
704.93	274.17
705.26	273.75
705.60	273.39
705.93	272.94
706.27	272.63
706.60	272.28
706.94	271.96
707.27	271.53
707.61	271.15
707.94	270.71
708.27	270.15
708.61	269.68
708.94	269.25
709.28	268.86
709.61	268.47
709.94	268.12
710.28	267.78
710.61	267.45
710.95	266.93
711.28	266.69
711.61	266.32
711.95	266.00
712.28	265.65
712.61	265.27
712.95	265.02
713.28	264.72
713.61	264.33
713.95	263.93
714.28	263.59
714.61	263.23
714.95	262.90
715.28	262.56
715.61	262.25
715.95	261.95
716.28	261.61
716.61	261.33
716.95	260.99
717.28	260.68
717.61	260.35
717.94	260.06
718.28	259.63
718.61	259.33
718.94	258.99
719.27	258.69
719.61	258.42
719.94	258.09
720.27	257.71
720.60	257.43
720.94	257.15
721.27	256.88
721.60	256.63
721.93	256.34
722.27	256.11
722.60	255.84
722.93	255.54
723.26	255.28
723.59	254.98
723.93	254.74
724.26	254.49
724.59	254.23
724.92	253.99
725.25	253.79
725.59	253.55
725.92	253.33
726.25	253.08
726.58	252.83
726.91	252.58
727.24	252.36
727.57	252.11
727.91	251.84
728.24	251.63
728.57	251.39
728.90	251.17
729.23	250.89
729.56	250.76
729.89	250.53
730.22	250.30
730.55	250.09
730.89	249.87
731.22	249.64
731.55	249.43
731.88	249.21
732.21	248.97
732.54	248.75
732.87	248.55
733.20	248.36
733.53	248.17
733.86	247.99
734.19	247.77
734.52	247.62
734.85	247.57
735.18	247.35
735.51	247.22
735.84	247.05
736.17	246.92
736.50	246.64
736.83	246.67
737.16	246.49
737.49	246.32
737.82	246.13
738.15	245.97
738.48	245.79
738.81	245.60
739.14	245.41
739.47	245.22
739.80	245.04
740.13	244.88
740.46	244.68
740.79	244.47
741.12	244.30
741.45	244.10
741.78	243.83
742.11	243.70
742.44	243.48
742.77	243.33
743.10	243.13
743.43	242.97
743.75	242.62
744.08	242.73
744.41	242.56
744.74	242.40
745.07	242.20
745.40	242.09
745.73	242.01
746.06	241.87
746.39	241.75
746.71	241.60
747.04	241.43
747.37	241.28
747.70	241.17
748.03	241.03
748.36	240.92
748.68	240.78
749.01	240.59
749.34	240.47
749.67	240.34
750.00	240.23
750.33	240.23
750.65	240.12
750.98	239.73
751.31	239.61
751.64	239.50
751.97	239.48
752.29	239.34
752.62	239.14
752.95	239.00
753.28	238.85
753.60	238.73
753.93	238.64
754.26	238.55
754.59	238.38
754.91	238.25
755.24	238.11
755.57	238.00
755.90	237.88
756.22	237.74
756.55	237.59
756.88	237.44
757.20	237.20
757.53	237.04
757.86	236.92
758.19	236.83
758.51	236.71
758.84	236.51
759.17	236.39
759.49	236.30
759.82	236.28
760.15	236.20
760.47	236.10
760.80	235.94
761.13	235.86
761.45	235.77
761.78	235.68
762.11	235.59
762.43	235.47
762.76	235.38
763.08	235.32
763.41	235.25
763.74	235.17
764.06	235.08
764.39	235.00
764.71	234.92
765.04	234.81
765.37	234.71
765.69	234.64
766.02	234.55
766.34	234.46
766.67	234.31
767.00	234.27
767.32	234.29
767.65	234.33
767.97	234.24
768.30	234.18
768.62	234.11
768.95	234.01
769.27	233.94
769.60	233.90
769.92	233.80
770.25	233.70
770.57	233.60
770.90	233.54
771.22	233.46
771.55	233.41
771.87	233.37
772.20	233.30
772.52	233.39
772.85	233.54
773.17	233.49
773.50	233.41
773.82	233.33
774.15	233.18
774.47	233.01
774.80	232.94
775.12	232.88
775.45	232.83
775.77	232.79
776.09	232.75
776.42	232.70
776.74	232.70
777.07	232.66
777.39	232.62
777.72	232.56
778.04	232.54
778.36	232.47
778.69	232.42
779.01	232.40
779.33	232.20
779.66	231.95
779.98	231.90
780.31	231.87
780.63	231.90
780.95	231.88
781.28	231.85
781.60	231.79
781.92	231.76
782.25	231.72
782.57	231.68
782.89	231.62
783.22	231.57
783.54	231.50
783.86	231.47
784.19	231.43
784.51	231.45
784.83	231.39
785.16	231.36
785.48	231.32
785.80	231.28
786.12	231.26
786.45	231.22
786.77	231.20
787.09	231.16
787.42	231.05
787.74	231.02
788.06	231.00
788.38	230.97
788.71	230.92
789.03	230.90
789.35	230.89
789.67	230.83
789.99	230.82
790.32	230.77
790.64	230.75
790.96	230.89
791.28	230.80
791.61	230.76
791.93	230.74
792.25	230.70
792.57	230.80
792.89	230.74
793.21	230.72
793.54	230.68
793.86	230.64
794.18	230.63
794.50	230.57
794.82	230.54
795.14	230.54
795.47	230.55
795.79	230.52
796.11	230.45
796.43	230.43
796.75	230.40
797.07	230.39
797.39	230.34
797.71	230.17
798.04	230.16
798.36	230.15
798.68	230.13
799.00	230.11
799.32	230.00
799.64	230.01
799.96	229.98
800.28	230.00
800.60	229.97
800.92	229.96
801.24	229.93
801.56	229.92
801.89	229.88
802.21	229.87
802.53	229.83
802.85	229.85
803.17	229.92
803.49	229.86
803.81	229.82
804.13	229.80
804.45	229.76
804.77	229.75
805.09	229.73
805.41	229.69
805.73	229.64
806.05	229.58
806.37	229.55
806.69	229.51
807.01	229.47
807.33	229.47
807.65	229.38
807.97	229.45
808.28	229.41
808.60	229.38
808.92	229.34
809.24	229.43
809.56	229.38
809.88	229.30
810.20	229.29
810.52	229.31
810.84	229.28
811.16	229.25
811.48	229.21
811.80	229.26
812.12	229.25
812.43	229.27
812.75	229.28
813.07	229.24
813.39	229.24
813.71	229.20
814.03	229.16
814.35	229.17
814.67	229.08
814.98	229.05
815.30	229.04
815.62	229.00
815.94	228.86
816.26	228.87
816.58	228.83
816.89	228.83
817.21	228.77
817.53	228.77
817.85	228.77
818.17	228.75
818.48	228.67
