SpectraSuite Data File
++++++++++++++++++++++++++++++++++++
Date: Wed Oct 07 03:37:40 EDT 2015
User: lab3
Dark Spectrum Present: No
Reference Spectrum Present: No
Number of Sampled Component Spectra: 1
Spectrometers: USB2E7196
Integration Time (usec): 66000 (USB2E7196)
Spectra Averaged: 10000 (USB2E7196)
Boxcar Smoothing: 10 (USB2E7196)
Correct for Electrical Dark: No (USB2E7196)
Strobe/Lamp Enabled: No (USB2E7196)
Correct for Detector Non-linearity: No (USB2E7196)
Correct for Stray Light: No (USB2E7196)
Number of Pixels in Processed Spectrum: 2048
>>>>>Begin Processed Spectral Data<<<<<
339.09	0.00
339.48	212.74
339.86	214.18
340.24	215.59
340.63	216.92
341.01	221.21
341.39	219.74
341.78	221.23
342.16	222.57
342.54	222.78
342.93	211.38
343.31	222.05
343.69	222.60
344.07	223.06
344.46	223.51
344.84	223.92
345.22	224.11
345.60	224.40
345.99	224.60
346.37	224.75
346.75	224.87
347.13	224.96
347.52	225.06
347.90	225.18
348.28	225.24
348.66	225.32
349.05	225.31
349.43	225.39
349.81	225.46
350.19	225.53
350.57	225.62
350.96	225.72
351.34	225.83
351.72	225.94
352.10	226.07
352.48	226.15
352.87	226.19
353.25	226.26
353.63	226.32
354.01	226.38
354.39	226.46
354.77	226.54
355.15	226.66
355.54	226.70
355.92	226.70
356.30	226.78
356.68	226.97
357.06	227.05
357.44	227.09
357.82	227.14
358.20	227.37
358.58	227.42
358.97	227.49
359.35	227.59
359.73	227.67
360.11	227.72
360.49	227.79
360.87	227.83
361.25	227.91
361.63	228.01
362.01	228.06
362.39	228.09
362.77	228.14
363.15	228.16
363.53	228.20
363.91	228.24
364.29	228.27
364.67	228.11
365.05	228.13
365.43	228.18
365.81	228.22
366.19	228.17
366.57	228.25
366.95	228.25
367.33	228.20
367.71	228.20
368.09	228.24
368.47	228.23
368.85	228.22
369.23	228.25
369.61	228.16
369.99	228.21
370.37	228.21
370.75	228.33
371.13	228.30
371.51	228.26
371.89	228.25
372.27	228.23
372.65	228.22
373.03	228.18
373.41	228.13
373.78	228.08
374.16	227.96
374.54	227.86
374.92	227.81
375.30	227.77
375.68	227.69
376.06	227.65
376.44	227.59
376.82	227.55
377.19	227.50
377.57	227.46
377.95	227.35
378.33	227.28
378.71	227.07
379.09	227.04
379.47	227.02
379.84	226.95
380.22	226.88
380.60	226.80
380.98	226.76
381.36	226.71
381.73	226.64
382.11	226.63
382.49	226.60
382.87	226.54
383.25	226.50
383.62	226.68
384.00	226.60
384.38	226.57
384.76	226.57
385.13	226.58
385.51	226.55
385.89	226.49
386.27	226.47
386.64	226.47
387.02	226.42
387.40	226.37
387.78	226.36
388.15	226.34
388.53	226.31
388.91	226.29
389.29	226.26
389.66	226.27
390.04	226.23
390.42	226.24
390.79	226.24
391.17	226.23
391.55	226.01
391.92	226.02
392.30	226.03
392.68	225.99
393.05	225.97
393.43	225.98
393.81	226.01
394.18	225.99
394.56	226.00
394.94	226.05
395.31	226.06
395.69	226.14
396.06	226.19
396.44	226.23
396.82	226.25
397.19	226.38
397.57	226.40
397.95	226.48
398.32	226.47
398.70	226.55
399.07	226.65
399.45	226.71
399.82	226.78
400.20	226.84
400.58	226.93
400.95	226.96
401.33	227.09
401.70	227.32
402.08	227.47
402.45	227.60
402.83	227.77
403.20	227.95
403.58	228.09
403.95	228.30
404.33	228.53
404.71	228.75
405.08	229.07
405.46	229.32
405.83	229.60
406.21	229.91
406.58	230.24
406.96	230.57
407.33	230.95
407.70	231.39
408.08	231.97
408.45	232.49
408.83	233.04
409.20	233.55
409.58	234.02
409.95	234.66
410.33	235.35
410.70	236.01
411.08	236.78
411.45	237.61
411.82	238.45
412.20	239.40
412.57	240.53
412.95	241.43
413.32	242.60
413.69	243.80
414.07	245.09
414.44	246.48
414.82	247.90
415.19	249.57
415.56	251.27
415.94	253.04
416.31	255.02
416.68	257.00
417.06	259.30
417.43	261.46
417.81	263.94
418.18	266.47
418.55	269.23
418.93	272.10
419.30	275.10
419.67	278.28
420.04	281.55
420.42	284.97
420.79	288.92
421.16	292.90
421.54	296.92
421.91	301.14
422.28	305.52
422.66	310.24
423.03	314.72
423.40	319.42
423.77	324.45
424.15	329.59
424.52	334.93
424.89	340.71
425.26	346.45
425.64	351.77
426.01	357.74
426.38	363.85
426.75	370.13
427.13	376.55
427.50	383.28
427.87	390.26
428.24	397.31
428.61	404.04
428.99	411.32
429.36	419.31
429.73	426.94
430.10	434.55
430.47	442.34
430.85	450.40
431.22	458.95
431.59	467.76
431.96	476.36
432.33	485.92
432.70	495.01
433.08	505.77
433.45	515.92
433.82	525.97
434.19	537.23
434.56	548.32
434.93	559.07
435.30	569.74
435.68	581.83
436.05	593.67
436.42	605.53
436.79	616.37
437.16	628.18
437.53	640.78
437.90	653.38
438.27	665.76
438.64	679.16
439.01	691.36
439.38	702.52
439.75	713.32
440.13	725.65
440.50	737.37
440.87	746.77
441.24	757.10
441.61	768.42
441.98	776.82
442.35	786.79
442.72	796.94
443.09	806.62
443.46	812.96
443.83	817.78
444.20	821.84
444.57	827.61
444.94	831.09
445.31	834.72
445.68	837.87
446.05	840.28
446.42	840.13
446.79	839.69
447.16	839.38
447.53	839.15
447.90	835.66
448.27	832.38
448.64	827.08
449.01	823.48
449.37	815.79
449.74	808.80
450.11	799.76
450.48	789.79
450.85	779.76
451.22	771.19
451.59	762.72
451.96	755.04
452.33	743.92
452.70	734.00
453.07	721.95
453.43	709.92
453.80	698.18
454.17	686.91
454.54	676.54
454.91	664.82
455.28	653.71
455.65	643.24
456.02	632.13
456.38	623.19
456.75	611.75
457.12	602.53
457.49	593.24
457.86	584.42
458.23	576.65
458.59	568.11
458.96	559.35
459.33	551.65
459.70	543.81
460.07	537.81
460.43	530.77
460.80	524.21
461.17	518.48
461.54	512.31
461.91	506.50
462.27	500.59
462.64	495.76
463.01	490.28
463.38	484.74
463.74	479.74
464.11	475.29
464.48	471.27
464.85	466.94
465.21	463.63
465.58	459.95
465.95	455.78
466.32	452.47
466.68	449.24
467.05	445.97
467.42	442.80
467.78	439.40
468.15	436.26
468.52	433.95
468.88	430.88
469.25	428.08
469.62	425.87
469.98	423.48
470.35	421.35
470.72	419.39
471.08	417.44
471.45	415.80
471.82	413.96
472.18	412.04
472.55	410.79
472.92	409.24
473.28	408.01
473.65	406.71
474.02	405.44
474.38	404.37
474.75	403.73
475.11	402.85
475.48	402.43
475.85	401.97
476.21	401.68
476.58	401.48
476.94	401.62
477.31	401.62
477.67	401.67
478.04	401.94
478.41	402.34
478.77	402.92
479.14	403.26
479.50	404.02
479.87	405.00
480.23	405.96
480.60	406.87
480.96	407.78
481.33	409.20
481.69	410.59
482.06	411.94
482.42	413.19
482.79	414.76
483.15	416.60
483.52	418.69
483.88	420.67
484.25	422.78
484.61	425.00
484.98	427.41
485.34	430.10
485.71	432.91
486.07	435.95
486.44	438.91
486.80	442.27
487.17	445.69
487.53	449.42
487.90	453.32
488.26	457.57
488.62	462.07
488.99	466.56
489.35	471.28
489.72	476.36
490.08	481.69
490.44	487.14
490.81	492.81
491.17	498.65
491.54	504.93
491.90	511.34
492.26	518.20
492.63	525.38
492.99	532.90
493.36	540.60
493.72	548.65
494.08	556.95
494.45	565.65
494.81	574.75
495.17	584.08
495.54	593.95
495.90	604.26
496.26	614.74
496.63	625.55
496.99	636.74
497.35	648.47
497.72	660.50
498.08	672.87
498.44	685.57
498.80	698.96
499.17	712.66
499.53	726.82
499.89	741.42
500.26	756.26
500.62	771.44
500.98	787.52
501.34	803.65
501.71	820.54
502.07	837.76
502.43	855.45
502.79	873.43
503.16	891.87
503.52	910.54
503.88	929.64
504.24	949.23
504.60	969.07
504.97	989.52
505.33	1010.50
505.69	1032.56
506.05	1054.87
506.41	1077.16
506.78	1099.61
507.14	1122.57
507.50	1146.08
507.86	1169.97
508.22	1194.10
508.59	1218.13
508.95	1243.18
509.31	1268.78
509.67	1295.07
510.03	1321.35
510.39	1347.52
510.75	1373.76
511.12	1400.31
511.48	1427.22
511.84	1454.04
512.20	1481.23
512.56	1509.55
512.92	1537.71
513.28	1565.18
513.64	1593.09
514.00	1621.41
514.37	1650.01
514.73	1678.68
515.09	1706.66
515.45	1734.91
515.81	1763.52
516.17	1791.83
516.53	1819.47
516.89	1846.82
517.25	1874.46
517.61	1901.92
517.97	1929.96
518.33	1957.56
518.69	1985.09
519.05	2012.93
519.41	2040.97
519.77	2069.16
520.13	2095.76
520.49	2122.31
520.85	2149.31
521.21	2175.69
521.57	2202.41
521.93	2228.00
522.29	2254.30
522.65	2280.42
523.01	2306.30
523.37	2331.32
523.73	2357.16
524.09	2382.70
524.45	2408.04
524.81	2432.72
525.17	2457.29
525.53	2480.94
525.89	2505.02
526.25	2528.81
526.61	2550.85
526.97	2572.93
527.33	2594.66
527.68	2616.40
528.04	2637.76
528.40	2657.98
528.76	2678.21
529.12	2697.88
529.48	2718.35
529.84	2736.00
530.20	2753.93
530.56	2771.21
530.91	2788.54
531.27	2805.19
531.63	2820.98
531.99	2836.27
532.35	2851.41
532.71	2866.12
533.07	2881.34
533.42	2894.53
533.78	2907.84
534.14	2922.30
534.50	2935.63
534.86	2949.54
535.21	2961.02
535.57	2972.44
535.93	2983.44
536.29	2992.70
536.65	3001.81
537.00	3009.58
537.36	3018.54
537.72	3026.69
538.08	3034.35
538.44	3040.66
538.79	3046.88
539.15	3051.77
539.51	3055.95
539.87	3058.76
540.22	3059.87
540.58	3061.23
540.94	3063.29
541.29	3064.33
541.65	3063.93
542.01	3063.07
542.37	3060.47
542.72	3059.63
543.08	3056.96
543.44	3054.48
543.79	3051.89
544.15	3048.49
544.51	3044.85
544.87	3040.42
545.22	3034.96
545.58	3029.03
545.94	3023.48
546.29	3016.39
546.65	3009.44
547.01	3002.69
547.36	2996.53
547.72	2990.53
548.07	2982.70
548.43	2973.67
548.79	2964.28
549.14	2955.12
549.50	2946.20
549.86	2936.36
550.21	2924.74
550.57	2914.46
550.92	2902.43
551.28	2890.51
551.64	2878.92
551.99	2867.20
552.35	2854.95
552.70	2842.54
553.06	2830.71
553.41	2818.48
553.77	2805.86
554.13	2793.24
554.48	2779.54
554.84	2764.60
555.19	2750.06
555.55	2735.57
555.90	2721.65
556.26	2707.96
556.61	2693.23
556.97	2677.30
557.32	2661.83
557.68	2646.77
558.03	2631.19
558.39	2616.56
558.74	2602.77
559.10	2586.99
559.45	2571.19
559.81	2556.07
560.16	2540.58
560.52	2524.69
560.87	2509.11
561.23	2493.11
561.58	2477.73
561.94	2461.89
562.29	2445.65
562.64	2429.59
563.00	2413.53
563.35	2397.66
563.71	2381.39
564.06	2365.24
564.42	2349.64
564.77	2334.19
565.12	2318.33
565.48	2302.15
565.83	2286.08
566.19	2269.88
566.54	2253.98
566.89	2237.64
567.25	2221.34
567.60	2205.91
567.96	2189.93
568.31	2172.39
568.66	2155.59
569.02	2139.44
569.37	2123.87
569.72	2108.83
570.08	2093.41
570.43	2077.33
570.78	2061.01
571.14	2044.64
571.49	2028.23
571.84	2012.08
572.20	1994.63
572.55	1977.90
572.90	1961.42
573.26	1945.13
573.61	1928.15
573.96	1911.67
574.31	1895.03
574.67	1878.02
575.02	1860.65
575.37	1843.22
575.72	1826.78
576.08	1810.14
576.43	1792.59
576.78	1775.31
577.13	1758.31
577.49	1741.46
577.84	1725.20
578.19	1708.47
578.54	1691.70
578.90	1674.82
579.25	1657.73
579.60	1641.97
579.95	1625.94
580.30	1609.84
580.66	1593.42
581.01	1577.10
581.36	1560.80
581.71	1545.43
582.06	1530.12
582.42	1514.64
582.77	1499.58
583.12	1484.73
583.47	1469.96
583.82	1455.35
584.17	1440.15
584.53	1425.06
584.88	1410.34
585.23	1395.44
585.58	1380.96
585.93	1366.30
586.28	1352.71
586.63	1339.00
586.98	1324.77
587.34	1311.03
587.69	1297.05
588.04	1283.37
588.39	1269.99
588.74	1256.28
589.09	1242.67
589.44	1228.70
589.79	1215.43
590.14	1202.18
590.49	1188.97
590.84	1175.99
591.19	1163.43
591.54	1151.04
591.89	1138.21
592.25	1125.70
592.60	1113.06
592.95	1100.56
593.30	1088.58
593.65	1076.26
594.00	1064.25
594.35	1053.18
594.70	1041.34
595.05	1030.16
595.40	1018.85
595.75	1007.37
596.10	996.55
596.45	985.66
596.80	975.28
597.15	964.82
597.50	954.33
597.85	944.21
598.19	934.08
598.54	923.89
598.89	914.25
599.24	905.03
599.59	895.56
599.94	886.81
600.29	878.11
600.64	869.18
600.99	860.13
601.34	851.46
601.69	842.23
602.04	833.98
602.39	825.63
602.74	817.50
603.08	809.49
603.43	801.50
603.78	793.49
604.13	785.50
604.48	777.53
604.83	769.89
605.18	762.22
605.53	754.76
605.87	747.32
606.22	739.97
606.57	732.55
606.92	725.10
607.27	717.65
607.62	710.37
607.96	703.35
608.31	696.88
608.66	690.26
609.01	683.95
609.36	677.60
609.70	671.23
610.05	664.83
610.40	658.63
610.75	652.39
611.10	646.41
611.44	640.42
611.79	634.59
612.14	628.63
612.49	622.78
612.83	617.22
613.18	611.74
613.53	606.24
613.88	600.88
614.22	595.92
614.57	590.89
614.92	585.99
615.27	581.20
615.61	576.26
615.96	571.40
616.31	566.52
616.65	561.78
617.00	557.17
617.35	552.67
617.70	548.16
618.04	543.78
618.39	539.51
618.74	535.50
619.08	531.45
619.43	527.55
619.78	523.60
620.12	519.59
620.47	515.80
620.82	512.13
621.16	508.49
621.51	504.89
621.85	501.29
622.20	497.74
622.55	494.21
622.89	490.71
623.24	487.40
623.59	484.16
623.93	481.01
624.28	477.98
624.62	475.15
624.97	472.35
625.32	469.46
625.66	466.54
626.01	463.59
626.35	460.81
626.70	457.97
627.04	455.35
627.39	452.70
627.73	450.13
628.08	447.58
628.43	445.05
628.77	442.46
629.12	439.97
629.46	437.60
629.81	435.39
630.15	433.09
630.50	430.82
630.84	428.61
631.19	426.43
631.53	424.35
631.88	422.09
632.22	419.92
632.57	418.05
632.91	416.14
633.26	414.30
633.60	412.47
633.95	410.74
634.29	408.87
634.64	407.07
634.98	405.15
635.32	403.43
635.67	401.88
636.01	400.31
636.36	398.81
636.70	397.36
637.05	395.76
637.39	394.33
637.73	392.88
638.08	391.50
638.42	390.17
638.77	388.70
639.11	387.20
639.45	385.77
639.80	384.28
640.14	382.86
640.49	381.45
640.83	380.05
641.17	378.70
641.52	377.38
641.86	376.11
642.20	374.98
642.55	373.67
642.89	372.36
643.23	371.14
643.58	370.05
643.92	368.80
644.26	367.64
644.61	366.53
644.95	365.38
645.29	364.18
645.64	362.95
645.98	361.84
646.32	360.87
646.66	359.81
647.01	358.79
647.35	357.87
647.69	356.90
648.04	356.01
648.38	355.05
648.72	354.13
649.06	353.22
649.41	352.27
649.75	351.39
650.09	350.53
650.43	349.65
650.78	348.72
651.12	347.88
651.46	347.03
651.80	346.20
652.14	345.42
652.49	344.72
652.83	343.94
653.17	343.13
653.51	342.34
653.85	341.68
654.20	340.96
654.54	340.15
654.88	339.39
655.22	338.67
655.56	337.94
655.90	337.25
656.25	336.56
656.59	335.90
656.93	335.27
657.27	334.70
657.61	334.04
657.95	333.45
658.29	332.83
658.64	332.23
658.98	331.57
659.32	330.92
659.66	330.31
660.00	329.75
660.34	329.19
660.68	328.57
661.02	327.90
661.36	327.27
661.70	326.70
662.05	326.12
662.39	325.57
662.73	325.10
663.07	324.67
663.41	324.20
663.75	323.67
664.09	323.16
664.43	322.53
664.77	321.99
665.11	321.41
665.45	320.87
665.79	320.36
666.13	319.84
666.47	319.31
666.81	318.74
667.15	318.13
667.49	317.66
667.83	317.25
668.17	316.78
668.51	316.37
668.85	315.97
669.19	315.63
669.53	315.11
669.87	314.56
670.21	314.00
670.55	313.48
670.89	313.07
671.23	312.62
671.57	312.22
671.91	311.87
672.25	311.54
672.58	311.21
672.92	310.78
673.26	310.45
673.60	310.10
673.94	309.73
674.28	309.40
674.62	309.03
674.96	308.60
675.30	308.24
675.64	307.82
675.97	307.37
676.31	306.88
676.65	306.48
676.99	306.16
677.33	305.73
677.67	305.34
678.01	304.87
678.34	304.46
678.68	304.08
679.02	303.63
679.36	303.18
679.70	302.73
680.04	302.34
680.37	301.91
680.71	301.52
681.05	301.18
681.39	300.77
681.73	300.32
682.06	299.90
682.40	299.51
682.74	299.16
683.08	298.85
683.42	298.46
683.75	298.12
684.09	297.66
684.43	297.28
684.77	296.88
685.10	296.50
685.44	296.10
685.78	295.68
686.12	295.29
686.45	294.88
686.79	294.45
687.13	294.05
687.46	293.61
687.80	293.20
688.14	292.72
688.48	292.30
688.81	291.88
689.15	291.51
689.49	291.07
689.82	290.63
690.16	290.09
690.50	289.65
690.83	289.19
691.17	288.74
691.51	288.31
691.84	287.91
692.18	287.46
692.52	287.00
692.85	286.56
693.19	286.18
693.52	285.75
693.86	285.30
694.20	284.87
694.53	284.44
694.87	283.96
695.21	283.51
695.54	283.06
695.88	282.60
696.21	282.10
696.55	281.65
696.88	281.20
697.22	280.78
697.56	280.37
697.89	279.90
698.23	279.47
698.56	279.03
698.90	278.61
699.23	278.15
699.57	277.75
699.90	277.32
700.24	276.84
700.58	276.44
700.91	276.07
701.25	275.81
701.58	275.49
701.92	275.15
702.25	274.76
702.59	274.35
702.92	273.96
703.26	273.54
703.59	273.13
703.93	272.86
704.26	272.46
704.60	272.03
704.93	271.63
705.26	271.22
705.60	270.86
705.93	270.40
706.27	270.09
706.60	269.74
706.94	269.42
707.27	268.99
707.61	268.59
707.94	268.17
708.27	267.60
708.61	267.13
708.94	266.70
709.28	266.30
709.61	265.92
709.94	265.57
710.28	265.22
710.61	264.89
710.95	264.37
711.28	264.13
711.61	263.76
711.95	263.45
712.28	263.07
712.61	262.69
712.95	262.44
713.28	262.15
713.61	261.75
713.95	261.35
714.28	261.02
714.61	260.65
714.95	260.32
715.28	259.97
715.61	259.66
715.95	259.36
716.28	259.03
716.61	258.75
716.95	258.41
717.28	258.09
717.61	257.77
717.94	257.47
718.28	257.05
718.61	256.75
718.94	256.41
719.27	256.13
719.61	255.86
719.94	255.53
720.27	255.15
720.60	254.87
720.94	254.58
721.27	254.31
721.60	254.07
721.93	253.79
722.27	253.57
722.60	253.29
722.93	252.98
723.26	252.73
723.59	252.42
723.93	252.19
724.26	251.94
724.59	251.68
724.92	251.44
725.25	251.24
725.59	251.00
725.92	250.77
726.25	250.53
726.58	250.28
726.91	250.02
727.24	249.80
727.57	249.56
727.91	249.28
728.24	249.07
728.57	248.83
728.90	248.62
729.23	248.33
729.56	248.20
729.89	247.99
730.22	247.76
730.55	247.54
730.89	247.32
731.22	247.09
731.55	246.88
731.88	246.67
732.21	246.42
732.54	246.19
732.87	245.99
733.20	245.81
733.53	245.61
733.86	245.43
734.19	245.22
734.52	245.06
734.85	245.02
735.18	244.81
735.51	244.67
735.84	244.49
736.17	244.37
736.50	244.09
736.83	244.12
737.16	243.94
737.49	243.78
737.82	243.58
738.15	243.42
738.48	243.24
738.81	243.05
739.14	242.86
739.47	242.68
739.80	242.49
740.13	242.33
740.46	242.13
740.79	241.93
741.12	241.76
741.45	241.55
741.78	241.27
742.11	241.14
742.44	240.92
742.77	240.78
743.10	240.58
743.43	240.41
743.75	240.05
744.08	240.17
744.41	239.99
744.74	239.83
745.07	239.64
745.40	239.53
745.73	239.46
746.06	239.33
746.39	239.22
746.71	239.06
747.04	238.90
747.37	238.76
747.70	238.64
748.03	238.51
748.36	238.40
748.68	238.26
749.01	238.08
749.34	237.96
749.67	237.83
750.00	237.73
750.33	237.73
750.65	237.62
750.98	237.22
751.31	237.11
751.64	237.01
751.97	236.99
752.29	236.84
752.62	236.63
752.95	236.50
753.28	236.35
753.60	236.22
753.93	236.15
754.26	236.05
754.59	235.88
754.91	235.74
755.24	235.61
755.57	235.50
755.90	235.38
756.22	235.25
756.55	235.11
756.88	234.95
757.20	234.72
757.53	234.56
757.86	234.45
758.19	234.35
758.51	234.24
758.84	234.04
759.17	233.92
759.49	233.84
759.82	233.83
760.15	233.74
760.47	233.65
760.80	233.50
761.13	233.42
761.45	233.33
761.78	233.24
762.11	233.15
762.43	233.04
762.76	232.94
763.08	232.87
763.41	232.80
763.74	232.74
764.06	232.65
764.39	232.58
764.71	232.49
765.04	232.39
765.37	232.29
765.69	232.21
766.02	232.13
766.34	232.03
766.67	231.88
767.00	231.84
767.32	231.86
767.65	231.90
767.97	231.81
768.30	231.75
768.62	231.69
768.95	231.60
769.27	231.53
769.60	231.48
769.92	231.38
770.25	231.28
770.57	231.17
770.90	231.11
771.22	231.03
771.55	230.97
771.87	230.92
772.20	230.86
772.52	230.95
772.85	231.12
773.17	231.07
773.50	230.99
773.82	230.90
774.15	230.75
774.47	230.58
774.80	230.51
775.12	230.45
775.45	230.39
775.77	230.35
776.09	230.31
776.42	230.26
776.74	230.27
777.07	230.22
777.39	230.18
777.72	230.12
778.04	230.10
778.36	230.04
778.69	229.99
779.01	229.96
779.33	229.76
779.66	229.51
779.98	229.45
780.31	229.42
780.63	229.46
780.95	229.46
781.28	229.41
781.60	229.36
781.92	229.32
782.25	229.28
782.57	229.25
782.89	229.20
783.22	229.15
783.54	229.07
783.86	229.05
784.19	229.00
784.51	229.03
784.83	228.96
785.16	228.92
785.48	228.89
785.80	228.85
786.12	228.83
786.45	228.80
786.77	228.78
787.09	228.74
787.42	228.64
787.74	228.60
788.06	228.58
788.38	228.55
788.71	228.51
789.03	228.48
789.35	228.47
789.67	228.42
789.99	228.40
790.32	228.35
790.64	228.34
790.96	228.49
791.28	228.39
791.61	228.36
791.93	228.35
792.25	228.31
792.57	228.41
792.89	228.35
793.21	228.34
793.54	228.29
793.86	228.24
794.18	228.23
794.50	228.17
794.82	228.14
795.14	228.14
795.47	228.16
795.79	228.14
796.11	228.07
796.43	228.04
796.75	228.01
797.07	228.00
797.39	227.96
797.71	227.78
798.04	227.77
798.36	227.76
798.68	227.73
799.00	227.73
799.32	227.61
799.64	227.62
799.96	227.60
800.28	227.62
800.60	227.59
800.92	227.59
801.24	227.56
801.56	227.55
801.89	227.51
802.21	227.50
802.53	227.44
802.85	227.47
803.17	227.53
803.49	227.48
803.81	227.45
804.13	227.42
804.45	227.38
804.77	227.37
805.09	227.35
805.41	227.32
805.73	227.27
806.05	227.20
806.37	227.17
806.69	227.13
807.01	227.09
807.33	227.09
807.65	227.01
807.97	227.07
808.28	227.03
808.60	227.00
808.92	226.96
809.24	227.05
809.56	227.00
809.88	226.92
810.20	226.92
810.52	226.94
810.84	226.90
811.16	226.87
811.48	226.84
811.80	226.89
812.12	226.87
812.43	226.90
812.75	226.90
813.07	226.86
813.39	226.86
813.71	226.82
814.03	226.79
814.35	226.79
814.67	226.70
814.98	226.67
815.30	226.67
815.62	226.63
815.94	226.49
816.26	226.50
816.58	226.45
816.89	226.45
817.21	226.39
817.53	226.39
817.85	226.39
818.17	226.38
818.48	226.29
