SpectraSuite Data File
++++++++++++++++++++++++++++++++++++
Date: Tue Oct 06 16:13:59 EDT 2015
User: lab3
Dark Spectrum Present: No
Reference Spectrum Present: No
Number of Sampled Component Spectra: 1
Spectrometers: USB2E7196
Integration Time (usec): 66000 (USB2E7196)
Spectra Averaged: 1000 (USB2E7196)
Boxcar Smoothing: 10 (USB2E7196)
Correct for Electrical Dark: No (USB2E7196)
Strobe/Lamp Enabled: No (USB2E7196)
Correct for Detector Non-linearity: No (USB2E7196)
Correct for Stray Light: No (USB2E7196)
Number of Pixels in Processed Spectrum: 2048
>>>>>Begin Processed Spectral Data<<<<<
339.09	0.00
339.48	215.85
339.86	217.16
340.24	218.64
340.63	220.06
341.01	224.13
341.39	222.65
341.78	224.29
342.16	225.65
342.54	225.61
342.93	214.22
343.31	225.04
343.69	225.57
344.07	226.03
344.46	226.48
344.84	226.88
345.22	227.07
345.60	227.35
345.99	227.55
346.37	227.69
346.75	227.81
347.13	227.89
347.52	227.99
347.90	228.12
348.28	228.17
348.66	228.25
349.05	228.24
349.43	228.30
349.81	228.38
350.19	228.44
350.57	228.51
350.96	228.60
351.34	228.71
351.72	228.82
352.10	228.94
352.48	229.00
352.87	229.06
353.25	229.13
353.63	229.17
354.01	229.24
354.39	229.32
354.77	229.40
355.15	229.52
355.54	229.56
355.92	229.57
356.30	229.63
356.68	229.81
357.06	229.90
357.44	229.94
357.82	230.00
358.20	230.22
358.58	230.29
358.97	230.37
359.35	230.46
359.73	230.56
360.11	230.62
360.49	230.68
360.87	230.73
361.25	230.79
361.63	230.90
362.01	230.96
362.39	230.98
362.77	231.04
363.15	231.05
363.53	231.08
363.91	231.12
364.29	231.16
364.67	231.02
365.05	231.04
365.43	231.09
365.81	231.12
366.19	231.07
366.57	231.14
366.95	231.13
367.33	231.09
367.71	231.09
368.09	231.11
368.47	231.10
368.85	231.08
369.23	231.12
369.61	231.05
369.99	231.08
370.37	231.08
370.75	231.19
371.13	231.15
371.51	231.11
371.89	231.08
372.27	231.06
372.65	231.05
373.03	231.01
373.41	230.96
373.78	230.91
374.16	230.77
374.54	230.68
374.92	230.63
375.30	230.59
375.68	230.51
376.06	230.48
376.44	230.41
376.82	230.38
377.19	230.33
377.57	230.27
377.95	230.17
378.33	230.11
378.71	229.90
379.09	229.86
379.47	229.85
379.84	229.77
380.22	229.71
380.60	229.63
380.98	229.57
381.36	229.52
381.73	229.45
382.11	229.45
382.49	229.41
382.87	229.35
383.25	229.30
383.62	229.48
384.00	229.40
384.38	229.37
384.76	229.37
385.13	229.38
385.51	229.36
385.89	229.29
386.27	229.27
386.64	229.27
387.02	229.23
387.40	229.18
387.78	229.16
388.15	229.14
388.53	229.11
388.91	229.09
389.29	229.05
389.66	229.08
390.04	229.03
390.42	229.04
390.79	229.04
391.17	229.03
391.55	228.81
391.92	228.81
392.30	228.81
392.68	228.77
393.05	228.75
393.43	228.76
393.81	228.79
394.18	228.76
394.56	228.77
394.94	228.82
395.31	228.82
395.69	228.91
396.06	228.97
396.44	229.02
396.82	229.05
397.19	229.18
397.57	229.19
397.95	229.27
398.32	229.26
398.70	229.34
399.07	229.44
399.45	229.51
399.82	229.58
400.20	229.65
400.58	229.73
400.95	229.76
401.33	229.90
401.70	230.13
402.08	230.29
402.45	230.42
402.83	230.60
403.20	230.78
403.58	230.90
403.95	231.10
404.33	231.32
404.71	231.54
405.08	231.86
405.46	232.12
405.83	232.40
406.21	232.70
406.58	233.03
406.96	233.36
407.33	233.73
407.70	234.15
408.08	234.72
408.45	235.25
408.83	235.78
409.20	236.28
409.58	236.74
409.95	237.35
410.33	238.04
410.70	238.70
411.08	239.45
411.45	240.27
411.82	241.08
412.20	242.01
412.57	243.12
412.95	244.00
413.32	245.16
413.69	246.35
414.07	247.61
414.44	248.98
414.82	250.38
415.19	252.02
415.56	253.70
415.94	255.44
416.31	257.38
416.68	259.35
417.06	261.62
417.43	263.76
417.81	266.21
418.18	268.70
418.55	271.42
418.93	274.26
419.30	277.23
419.67	280.38
420.04	283.61
420.42	287.00
420.79	290.88
421.16	294.81
421.54	298.80
421.91	302.96
422.28	307.29
422.66	311.95
423.03	316.38
423.40	321.02
423.77	326.01
424.15	331.10
424.52	336.36
424.89	342.07
425.26	347.73
425.64	352.97
426.01	358.87
426.38	364.88
426.75	371.08
427.13	377.42
427.50	384.06
427.87	390.94
428.24	397.88
428.61	404.53
428.99	411.68
429.36	419.55
429.73	427.06
430.10	434.55
430.47	442.19
430.85	450.14
431.22	458.58
431.59	467.21
431.96	475.66
432.33	485.04
432.70	493.95
433.08	504.51
433.45	514.47
433.82	524.29
434.19	535.33
434.56	546.15
434.93	556.68
435.30	567.09
435.68	578.94
436.05	590.48
436.42	602.04
436.79	612.64
437.16	624.12
437.53	636.42
437.90	648.72
438.27	660.81
438.64	673.81
439.01	685.64
439.38	696.54
439.75	707.07
440.13	719.07
440.50	730.46
440.87	739.58
441.24	749.61
441.61	760.59
441.98	768.70
442.35	778.39
442.72	788.24
443.09	797.64
443.46	803.78
443.83	808.47
444.20	812.38
444.57	818.02
444.94	821.44
445.31	824.93
445.68	827.97
446.05	830.30
446.42	830.15
446.79	829.74
447.16	829.41
447.53	829.16
447.90	825.77
448.27	822.56
448.64	817.35
449.01	813.83
449.37	806.39
449.74	799.64
450.11	790.84
450.48	781.15
450.85	771.43
451.22	763.07
451.59	754.86
451.96	747.43
452.33	736.58
452.70	726.93
453.07	715.22
453.43	703.53
453.80	692.10
454.17	681.17
454.54	671.07
454.91	659.66
455.28	648.89
455.65	638.72
456.02	627.93
456.38	619.29
456.75	608.17
457.12	599.19
457.49	590.14
457.86	581.56
458.23	573.98
458.59	565.66
458.96	557.10
459.33	549.59
459.70	541.95
460.07	536.11
460.43	529.21
460.80	522.78
461.17	517.18
461.54	511.13
461.91	505.44
462.27	499.68
462.64	494.96
463.01	489.55
463.38	484.11
463.74	479.20
464.11	474.85
464.48	470.90
464.85	466.67
465.21	463.41
465.58	459.80
465.95	455.72
466.32	452.46
466.68	449.27
467.05	446.04
467.42	442.89
467.78	439.53
468.15	436.44
468.52	434.17
468.88	431.18
469.25	428.46
469.62	426.27
469.98	423.90
470.35	421.77
470.72	419.86
471.08	417.93
471.45	416.29
471.82	414.46
472.18	412.57
472.55	411.33
472.92	409.78
473.28	408.60
473.65	407.31
474.02	406.06
474.38	405.02
474.75	404.42
475.11	403.59
475.48	403.19
475.85	402.77
476.21	402.51
476.58	402.31
476.94	402.46
477.31	402.50
477.67	402.60
478.04	402.92
478.41	403.35
478.77	403.97
479.14	404.36
479.50	405.17
479.87	406.17
480.23	407.15
480.60	408.11
480.96	409.06
481.33	410.51
481.69	411.94
482.06	413.34
482.42	414.62
482.79	416.23
483.15	418.12
483.52	420.24
483.88	422.27
484.25	424.40
484.61	426.66
484.98	429.09
485.34	431.83
485.71	434.69
486.07	437.74
486.44	440.74
486.80	444.14
487.17	447.63
487.53	451.40
487.90	455.35
488.26	459.64
488.62	464.14
488.99	468.64
489.35	473.35
489.72	478.42
490.08	483.80
490.44	489.25
490.81	494.96
491.17	500.81
491.54	507.10
491.90	513.52
492.26	520.36
492.63	527.55
492.99	535.05
493.36	542.70
493.72	550.75
494.08	558.98
494.45	567.58
494.81	576.56
495.17	585.82
495.54	595.56
495.90	605.75
496.26	616.10
496.63	626.76
496.99	637.83
497.35	649.35
497.72	661.15
498.08	673.32
498.44	685.77
498.80	698.93
499.17	712.35
499.53	726.21
499.89	740.54
500.26	755.02
500.62	769.84
500.98	785.49
501.34	801.16
501.71	817.65
502.07	834.40
502.43	851.58
502.79	868.96
503.16	886.87
503.52	904.93
503.88	923.40
504.24	942.28
504.60	961.43
504.97	981.18
505.33	1001.38
505.69	1022.56
506.05	1043.93
506.41	1065.14
506.78	1086.58
507.14	1108.63
507.50	1131.02
507.86	1153.79
508.22	1176.72
508.59	1199.48
508.95	1223.36
509.31	1247.59
509.67	1272.43
510.03	1297.19
510.39	1321.87
510.75	1346.60
511.12	1371.71
511.48	1396.89
511.84	1422.10
512.20	1447.59
512.56	1474.06
512.92	1500.29
513.28	1525.96
513.64	1551.99
514.00	1578.28
514.37	1604.78
514.73	1631.24
515.09	1657.04
515.45	1683.15
515.81	1709.35
516.17	1735.30
516.53	1760.54
516.89	1785.74
517.25	1811.15
517.61	1836.34
517.97	1862.09
518.33	1887.16
518.69	1912.04
519.05	1937.39
519.41	1962.83
519.77	1988.20
520.13	2012.06
520.49	2036.03
520.85	2060.32
521.21	2083.99
521.57	2107.93
521.93	2130.90
522.29	2154.44
522.65	2177.80
523.01	2200.80
523.37	2223.19
523.73	2246.22
524.09	2268.94
524.45	2291.11
524.81	2312.72
525.17	2334.05
525.53	2354.79
525.89	2375.82
526.25	2396.42
526.61	2415.49
526.97	2434.51
527.33	2453.35
527.68	2471.90
528.04	2490.08
528.40	2506.78
528.76	2523.82
529.12	2540.52
529.48	2557.59
529.84	2572.02
530.20	2586.88
530.56	2600.83
530.91	2614.98
531.27	2628.53
531.63	2641.08
531.99	2653.52
532.35	2665.50
532.71	2677.05
533.07	2688.81
533.42	2698.74
533.78	2709.07
534.14	2720.18
534.50	2730.14
534.86	2740.62
535.21	2749.15
535.57	2757.38
535.93	2765.65
536.29	2772.17
536.65	2778.37
537.00	2783.15
537.36	2789.29
537.72	2794.42
538.08	2799.01
538.44	2802.59
538.79	2805.86
539.15	2807.82
539.51	2809.10
539.87	2809.28
540.22	2808.02
540.58	2806.98
540.94	2806.95
541.29	2805.51
541.65	2802.78
542.01	2799.71
542.37	2795.13
542.72	2791.98
543.08	2787.30
543.44	2782.82
543.79	2777.81
544.15	2772.15
544.51	2766.84
544.87	2760.37
545.22	2753.06
545.58	2745.80
545.94	2738.65
546.29	2730.01
546.65	2721.71
547.01	2713.46
547.36	2705.51
547.72	2697.80
548.07	2688.37
548.43	2677.94
548.79	2667.31
549.14	2657.09
549.50	2646.98
549.86	2635.99
550.21	2623.50
550.57	2612.01
550.92	2598.87
551.28	2586.32
551.64	2573.97
551.99	2561.25
552.35	2548.23
552.70	2535.08
553.06	2522.30
553.41	2509.12
553.77	2495.81
554.13	2482.61
554.48	2468.33
554.84	2453.47
555.19	2439.14
555.55	2424.70
555.90	2410.58
556.26	2396.88
556.61	2382.05
556.97	2366.32
557.32	2350.98
557.68	2336.02
558.03	2320.85
558.39	2306.55
558.74	2292.75
559.10	2277.22
559.45	2262.09
559.81	2247.62
560.16	2232.85
560.52	2217.88
560.87	2203.03
561.23	2187.88
561.58	2173.14
561.94	2158.09
562.29	2142.58
562.64	2127.17
563.00	2111.95
563.35	2096.90
563.71	2081.46
564.06	2066.22
564.42	2051.50
564.77	2036.83
565.12	2021.96
565.48	2006.92
565.83	1992.17
566.19	1977.38
566.54	1962.93
566.89	1947.85
567.25	1932.61
567.60	1918.22
567.96	1903.05
568.31	1886.86
568.66	1871.70
569.02	1856.98
569.37	1842.77
569.72	1829.16
570.08	1815.13
570.43	1800.57
570.78	1785.86
571.14	1770.95
571.49	1756.19
571.84	1741.70
572.20	1726.20
572.55	1711.47
572.90	1696.79
573.26	1681.97
573.61	1666.63
573.96	1651.74
574.31	1636.79
574.67	1621.82
575.02	1606.50
575.37	1591.30
575.72	1576.79
576.08	1562.02
576.43	1546.76
576.78	1531.59
577.13	1516.62
577.49	1501.95
577.84	1487.64
578.19	1472.87
578.54	1458.24
578.90	1443.58
579.25	1428.86
579.60	1415.14
579.95	1401.20
580.30	1387.20
580.66	1373.01
581.01	1358.89
581.36	1344.97
581.71	1331.71
582.06	1318.40
582.42	1304.98
582.77	1292.05
583.12	1279.29
583.47	1266.48
583.82	1253.84
584.17	1240.87
584.53	1227.98
584.88	1215.25
585.23	1202.50
585.58	1190.13
585.93	1177.73
586.28	1166.17
586.63	1154.48
586.98	1142.49
587.34	1130.79
587.69	1118.95
588.04	1107.54
588.39	1096.32
588.74	1084.76
589.09	1073.36
589.44	1061.69
589.79	1050.56
590.14	1039.47
590.49	1028.48
590.84	1017.69
591.19	1007.17
591.54	996.76
591.89	985.98
592.25	975.60
592.60	965.08
592.95	954.69
593.30	944.59
593.65	934.27
594.00	924.17
594.35	914.94
594.70	905.08
595.05	895.83
595.40	886.36
595.75	876.79
596.10	867.77
596.45	858.77
596.80	850.08
597.15	841.40
597.50	832.77
597.85	824.28
598.19	815.84
598.54	807.41
598.89	799.43
599.24	791.79
599.59	784.04
599.94	776.84
600.29	769.64
600.64	762.32
600.99	754.88
601.34	747.66
601.69	739.97
602.04	733.13
602.39	726.15
602.74	719.33
603.08	712.70
603.43	706.04
603.78	699.33
604.13	692.76
604.48	686.25
604.83	679.91
605.18	673.68
605.53	667.54
605.87	661.36
606.22	655.31
606.57	649.21
606.92	642.98
607.27	636.79
607.62	630.85
607.96	625.14
608.31	619.85
608.66	614.50
609.01	609.35
609.36	604.16
609.70	598.94
610.05	593.79
610.40	588.76
610.75	583.74
611.10	578.89
611.44	574.07
611.79	569.34
612.14	564.53
612.49	559.81
612.83	555.33
613.18	550.90
613.53	546.49
613.88	542.21
614.22	538.28
614.57	534.22
614.92	530.24
615.27	526.39
615.61	522.42
615.96	518.51
616.31	514.62
616.65	510.86
617.00	507.20
617.35	503.56
617.70	499.95
618.04	496.45
618.39	493.05
618.74	489.86
619.08	486.64
619.43	483.52
619.78	480.34
620.12	477.20
620.47	474.24
620.82	471.32
621.16	468.40
621.51	465.51
621.85	462.69
622.20	459.95
622.55	457.13
622.89	454.40
623.24	451.81
623.59	449.27
623.93	446.81
624.28	444.48
624.62	442.34
624.97	440.19
625.32	437.93
625.66	435.64
626.01	433.35
626.35	431.17
626.70	428.94
627.04	426.89
627.39	424.79
627.73	422.81
628.08	420.86
628.43	418.93
628.77	416.92
629.12	415.04
629.46	413.21
629.81	411.52
630.15	409.74
630.50	408.00
630.84	406.29
631.19	404.60
631.53	402.99
631.88	401.21
632.22	399.54
632.57	398.13
632.91	396.70
633.26	395.32
633.60	393.96
633.95	392.68
634.29	391.27
634.64	389.93
634.98	388.43
635.32	387.12
635.67	385.93
636.01	384.74
636.36	383.58
636.70	382.52
637.05	381.28
637.39	380.20
637.73	379.08
638.08	378.05
638.42	377.07
638.77	375.93
639.11	374.76
639.45	373.63
639.80	372.45
640.14	371.35
640.49	370.24
640.83	369.12
641.17	368.05
641.52	367.01
641.86	365.99
642.20	365.15
642.55	364.11
642.89	363.09
643.23	362.13
643.58	361.28
643.92	360.26
644.26	359.35
644.61	358.46
644.95	357.54
645.29	356.54
645.64	355.52
645.98	354.62
646.32	353.83
646.66	352.98
647.01	352.15
647.35	351.40
647.69	350.63
648.04	349.93
648.38	349.17
648.72	348.42
649.06	347.66
649.41	346.83
649.75	346.09
650.09	345.38
650.43	344.62
650.78	343.85
651.12	343.12
651.46	342.38
651.80	341.66
652.14	341.00
652.49	340.39
652.83	339.72
653.17	339.02
653.51	338.37
653.85	337.80
654.20	337.20
654.54	336.47
654.88	335.77
655.22	335.12
655.56	334.43
655.90	333.78
656.25	333.16
656.59	332.55
656.93	331.98
657.27	331.46
657.61	330.86
657.95	330.31
658.29	329.74
658.64	329.19
658.98	328.60
659.32	328.01
659.66	327.45
660.00	326.92
660.34	326.41
660.68	325.82
661.02	325.19
661.36	324.59
661.70	324.05
662.05	323.52
662.39	322.99
662.73	322.55
663.07	322.15
663.41	321.70
663.75	321.18
664.09	320.65
664.43	320.01
664.77	319.50
665.11	318.91
665.45	318.40
665.79	317.90
666.13	317.37
666.47	316.83
666.81	316.27
667.15	315.69
667.49	315.22
667.83	314.80
668.17	314.35
668.51	313.92
668.85	313.51
669.19	313.14
669.53	312.60
669.87	312.05
670.21	311.51
670.55	310.99
670.89	310.61
671.23	310.17
671.57	309.80
671.91	309.44
672.25	309.10
672.58	308.77
672.92	308.32
673.26	307.97
673.60	307.60
673.94	307.24
674.28	306.90
674.62	306.52
674.96	306.07
675.30	305.67
675.64	305.23
675.97	304.76
676.31	304.28
676.65	303.88
676.99	303.56
677.33	303.12
677.67	302.73
678.01	302.24
678.34	301.82
678.68	301.41
679.02	300.96
679.36	300.51
679.70	300.04
680.04	299.66
680.37	299.26
680.71	298.87
681.05	298.49
681.39	298.06
681.73	297.59
682.06	297.16
682.40	296.77
682.74	296.41
683.08	296.12
683.42	295.73
683.75	295.37
684.09	294.89
684.43	294.48
684.77	294.06
685.10	293.67
685.44	293.28
685.78	292.87
686.12	292.47
686.45	292.07
686.79	291.61
687.13	291.21
687.46	290.75
687.80	290.33
688.14	289.85
688.48	289.44
688.81	289.02
689.15	288.68
689.49	288.24
689.82	287.80
690.16	287.27
690.50	286.83
690.83	286.40
691.17	285.96
691.51	285.56
691.84	285.19
692.18	284.75
692.52	284.29
692.85	283.86
693.19	283.48
693.52	283.05
693.86	282.65
694.20	282.22
694.53	281.82
694.87	281.36
695.21	280.93
695.54	280.51
695.88	280.08
696.21	279.60
696.55	279.18
696.88	278.76
697.22	278.33
697.56	277.95
697.89	277.49
698.23	277.11
698.56	276.68
698.90	276.26
699.23	275.83
699.57	275.46
699.90	275.06
700.24	274.62
700.58	274.25
700.91	273.91
701.25	273.69
701.58	273.38
701.92	273.06
702.25	272.71
702.59	272.33
702.92	271.96
703.26	271.56
703.59	271.19
703.93	270.96
704.26	270.61
704.60	270.23
704.93	269.89
705.26	269.48
705.60	269.15
705.93	268.75
706.27	268.45
706.60	268.13
706.94	267.83
707.27	267.44
707.61	267.07
707.94	266.68
708.27	266.15
708.61	265.73
708.94	265.34
709.28	264.98
709.61	264.63
709.94	264.32
710.28	264.00
710.61	263.67
710.95	263.19
711.28	262.96
711.61	262.63
711.95	262.33
712.28	262.01
712.61	261.65
712.95	261.44
713.28	261.18
713.61	260.82
713.95	260.47
714.28	260.17
714.61	259.84
714.95	259.54
715.28	259.24
715.61	258.95
715.95	258.67
716.28	258.38
716.61	258.12
716.95	257.82
717.28	257.53
717.61	257.24
717.94	256.97
718.28	256.58
718.61	256.29
718.94	255.99
719.27	255.74
719.61	255.49
719.94	255.18
720.27	254.84
720.60	254.59
720.94	254.32
721.27	254.08
721.60	253.87
721.93	253.60
722.27	253.40
722.60	253.16
722.93	252.89
723.26	252.66
723.59	252.39
723.93	252.17
724.26	251.95
724.59	251.72
724.92	251.51
725.25	251.35
725.59	251.13
725.92	250.94
726.25	250.72
726.58	250.49
726.91	250.27
727.24	250.06
727.57	249.85
727.91	249.60
728.24	249.42
728.57	249.19
728.90	249.00
729.23	248.74
729.56	248.63
729.89	248.44
730.22	248.22
730.55	248.04
730.89	247.83
731.22	247.64
731.55	247.44
731.88	247.25
732.21	247.03
732.54	246.84
732.87	246.66
733.20	246.50
733.53	246.34
733.86	246.17
734.19	245.98
734.52	245.82
734.85	245.80
735.18	245.60
735.51	245.50
735.84	245.35
736.17	245.25
736.50	244.99
736.83	245.03
737.16	244.88
737.49	244.72
737.82	244.55
738.15	244.41
738.48	244.26
738.81	244.10
739.14	243.92
739.47	243.75
739.80	243.58
740.13	243.45
740.46	243.27
740.79	243.10
741.12	242.95
741.45	242.79
741.78	242.54
742.11	242.43
742.44	242.22
742.77	242.11
743.10	241.92
743.43	241.77
743.75	241.44
744.08	241.56
744.41	241.40
744.74	241.26
745.07	241.09
745.40	240.99
745.73	240.93
746.06	240.81
746.39	240.71
746.71	240.58
747.04	240.42
747.37	240.29
747.70	240.18
748.03	240.06
748.36	239.97
748.68	239.85
749.01	239.68
749.34	239.58
749.67	239.47
750.00	239.39
750.33	239.41
750.65	239.31
750.98	238.95
751.31	238.86
751.64	238.77
751.97	238.75
752.29	238.62
752.62	238.44
752.95	238.32
753.28	238.18
753.60	238.06
753.93	238.01
754.26	237.93
754.59	237.77
754.91	237.66
755.24	237.53
755.57	237.44
755.90	237.34
756.22	237.22
756.55	237.08
756.88	236.94
757.20	236.71
757.53	236.57
757.86	236.47
758.19	236.39
758.51	236.28
758.84	236.10
759.17	235.99
759.49	235.91
759.82	235.89
760.15	235.82
760.47	235.74
760.80	235.59
761.13	235.53
761.45	235.46
761.78	235.37
762.11	235.29
762.43	235.19
762.76	235.11
763.08	235.06
763.41	235.00
763.74	234.93
764.06	234.86
764.39	234.78
764.71	234.70
765.04	234.61
765.37	234.53
765.69	234.46
766.02	234.40
766.34	234.31
766.67	234.18
767.00	234.15
767.32	234.17
767.65	234.22
767.97	234.15
768.30	234.09
768.62	234.02
768.95	233.94
769.27	233.87
769.60	233.83
769.92	233.72
770.25	233.63
770.57	233.53
770.90	233.47
771.22	233.39
771.55	233.34
771.87	233.29
772.20	233.24
772.52	233.32
772.85	233.47
773.17	233.44
773.50	233.38
773.82	233.29
774.15	233.15
774.47	232.99
774.80	232.92
775.12	232.87
775.45	232.82
775.77	232.78
776.09	232.74
776.42	232.69
776.74	232.71
777.07	232.66
777.39	232.63
777.72	232.58
778.04	232.57
778.36	232.50
778.69	232.47
779.01	232.44
779.33	232.25
779.66	232.01
779.98	231.96
780.31	231.93
780.63	231.96
780.95	231.96
781.28	231.93
781.60	231.87
781.92	231.84
782.25	231.81
782.57	231.78
782.89	231.74
783.22	231.69
783.54	231.61
783.86	231.60
784.19	231.56
784.51	231.59
784.83	231.52
785.16	231.49
785.48	231.46
785.80	231.44
786.12	231.42
786.45	231.39
786.77	231.36
787.09	231.32
787.42	231.22
787.74	231.19
788.06	231.18
788.38	231.15
788.71	231.09
789.03	231.07
789.35	231.06
789.67	231.02
789.99	231.01
790.32	230.96
790.64	230.96
790.96	231.11
791.28	231.02
791.61	230.99
791.93	230.99
792.25	230.95
792.57	231.04
792.89	230.99
793.21	230.97
793.54	230.93
793.86	230.89
794.18	230.89
794.50	230.84
794.82	230.81
795.14	230.80
795.47	230.82
795.79	230.81
796.11	230.75
796.43	230.72
796.75	230.69
797.07	230.68
797.39	230.65
797.71	230.48
798.04	230.47
798.36	230.46
798.68	230.43
799.00	230.43
799.32	230.34
799.64	230.35
799.96	230.33
800.28	230.36
800.60	230.34
800.92	230.33
801.24	230.31
801.56	230.30
801.89	230.29
802.21	230.27
802.53	230.22
802.85	230.23
803.17	230.31
803.49	230.25
803.81	230.23
804.13	230.19
804.45	230.16
804.77	230.16
805.09	230.14
805.41	230.10
805.73	230.05
806.05	229.98
806.37	229.95
806.69	229.92
807.01	229.89
807.33	229.88
807.65	229.80
807.97	229.86
808.28	229.81
808.60	229.79
808.92	229.75
809.24	229.85
809.56	229.80
809.88	229.73
810.20	229.73
810.52	229.76
810.84	229.72
811.16	229.68
811.48	229.66
811.80	229.71
812.12	229.70
812.43	229.72
812.75	229.73
813.07	229.70
813.39	229.69
813.71	229.65
814.03	229.61
814.35	229.62
814.67	229.54
814.98	229.53
815.30	229.51
815.62	229.48
815.94	229.35
816.26	229.38
816.58	229.33
816.89	229.33
817.21	229.27
817.53	229.28
817.85	229.29
818.17	229.28
818.48	229.19
818.80	229.21
