SpectraSuite Data File
++++++++++++++++++++++++++++++++++++
Date: Tue Oct 06 15:55:57 EDT 2015
User: lab3
Dark Spectrum Present: No
Reference Spectrum Present: No
Number of Sampled Component Spectra: 1
Spectrometers: USB2E7196
Integration Time (usec): 66000 (USB2E7196)
Spectra Averaged: 1000 (USB2E7196)
Boxcar Smoothing: 10 (USB2E7196)
Correct for Electrical Dark: No (USB2E7196)
Strobe/Lamp Enabled: No (USB2E7196)
Correct for Detector Non-linearity: No (USB2E7196)
Correct for Stray Light: No (USB2E7196)
Number of Pixels in Processed Spectrum: 2048
>>>>>Begin Processed Spectral Data<<<<<
339.09	0.00
339.48	215.80
339.86	217.39
340.24	218.72
340.63	220.34
341.01	224.10
341.39	222.81
341.78	224.38
342.16	225.67
342.54	226.17
342.93	214.38
343.31	225.20
343.69	225.75
344.07	226.21
344.46	226.65
344.84	227.04
345.22	227.24
345.60	227.52
345.99	227.73
346.37	227.87
346.75	227.97
347.13	228.06
347.52	228.14
347.90	228.27
348.28	228.30
348.66	228.39
349.05	228.37
349.43	228.45
349.81	228.53
350.19	228.59
350.57	228.68
350.96	228.78
351.34	228.90
351.72	229.00
352.10	229.12
352.48	229.19
352.87	229.24
353.25	229.32
353.63	229.37
354.01	229.44
354.39	229.51
354.77	229.60
355.15	229.72
355.54	229.76
355.92	229.77
356.30	229.84
356.68	230.02
357.06	230.11
357.44	230.14
357.82	230.20
358.20	230.42
358.58	230.47
358.97	230.53
359.35	230.62
359.73	230.72
360.11	230.77
360.49	230.84
360.87	230.89
361.25	230.95
361.63	231.06
362.01	231.12
362.39	231.16
362.77	231.20
363.15	231.23
363.53	231.26
363.91	231.30
364.29	231.33
364.67	231.19
365.05	231.22
365.43	231.27
365.81	231.31
366.19	231.26
366.57	231.34
366.95	231.34
367.33	231.30
367.71	231.29
368.09	231.33
368.47	231.32
368.85	231.33
369.23	231.36
369.61	231.28
369.99	231.32
370.37	231.32
370.75	231.44
371.13	231.40
371.51	231.35
371.89	231.34
372.27	231.33
372.65	231.31
373.03	231.26
373.41	231.22
373.78	231.16
374.16	231.04
374.54	230.95
374.92	230.90
375.30	230.86
375.68	230.79
376.06	230.74
376.44	230.67
376.82	230.62
377.19	230.57
377.57	230.52
377.95	230.43
378.33	230.37
378.71	230.16
379.09	230.12
379.47	230.11
379.84	230.03
380.22	229.96
380.60	229.89
380.98	229.85
381.36	229.79
381.73	229.72
382.11	229.72
382.49	229.68
382.87	229.61
383.25	229.57
383.62	229.74
384.00	229.65
384.38	229.63
384.76	229.63
385.13	229.65
385.51	229.62
385.89	229.56
386.27	229.52
386.64	229.53
387.02	229.48
387.40	229.43
387.78	229.42
388.15	229.41
388.53	229.38
388.91	229.35
389.29	229.31
389.66	229.33
390.04	229.28
390.42	229.29
390.79	229.29
391.17	229.27
391.55	229.07
391.92	229.07
392.30	229.09
392.68	229.04
393.05	229.02
393.43	229.02
393.81	229.04
394.18	229.03
394.56	229.04
394.94	229.09
395.31	229.10
395.69	229.17
396.06	229.21
396.44	229.25
396.82	229.28
397.19	229.42
397.57	229.45
397.95	229.52
398.32	229.52
398.70	229.60
399.07	229.70
399.45	229.77
399.82	229.84
400.20	229.90
400.58	230.00
400.95	230.02
401.33	230.14
401.70	230.37
402.08	230.51
402.45	230.63
402.83	230.78
403.20	230.96
403.58	231.09
403.95	231.29
404.33	231.52
404.71	231.73
405.08	232.03
405.46	232.28
405.83	232.56
406.21	232.85
406.58	233.18
406.96	233.50
407.33	233.87
407.70	234.28
408.08	234.85
408.45	235.35
408.83	235.90
409.20	236.41
409.58	236.87
409.95	237.49
410.33	238.19
410.70	238.85
411.08	239.60
411.45	240.40
411.82	241.23
412.20	242.16
412.57	243.28
412.95	244.17
413.32	245.31
413.69	246.50
414.07	247.76
414.44	249.14
414.82	250.54
415.19	252.19
415.56	253.87
415.94	255.63
416.31	257.59
416.68	259.56
417.06	261.83
417.43	263.96
417.81	266.41
418.18	268.90
418.55	271.63
418.93	274.47
419.30	277.45
419.67	280.59
420.04	283.82
420.42	287.21
420.79	291.11
421.16	295.05
421.54	299.03
421.91	303.22
422.28	307.56
422.66	312.24
423.03	316.68
423.40	321.35
423.77	326.35
424.15	331.46
424.52	336.75
424.89	342.48
425.26	348.19
425.64	353.48
426.01	359.44
426.38	365.50
426.75	371.76
427.13	378.17
427.50	384.87
427.87	391.80
428.24	398.81
428.61	405.53
428.99	412.76
429.36	420.70
429.73	428.29
430.10	435.87
430.47	443.60
430.85	451.60
431.22	460.14
431.59	468.86
431.96	477.40
432.33	486.89
432.70	495.94
433.08	506.60
433.45	516.66
433.82	526.59
434.19	537.73
434.56	548.69
434.93	559.35
435.30	569.92
435.68	581.93
436.05	593.61
436.42	605.34
436.79	616.04
437.16	627.66
437.53	640.10
437.90	652.52
438.27	664.76
438.64	677.96
439.01	689.92
439.38	700.94
439.75	711.56
440.13	723.66
440.50	735.15
440.87	744.36
441.24	754.47
441.61	765.56
441.98	773.74
442.35	783.46
442.72	793.33
443.09	802.68
443.46	808.78
443.83	813.46
444.20	817.30
444.57	822.92
444.94	826.25
445.31	829.66
445.68	832.58
446.05	834.75
446.42	834.40
446.79	833.84
447.16	833.39
447.53	832.99
447.90	829.40
448.27	825.94
448.64	820.52
449.01	816.79
449.37	809.09
449.74	802.10
450.11	793.08
450.48	783.17
450.85	773.27
451.22	764.71
451.59	756.27
451.96	748.63
452.33	737.59
452.70	727.79
453.07	715.91
453.43	704.07
453.80	692.51
454.17	681.46
454.54	671.22
454.91	659.67
455.28	648.76
455.65	638.50
456.02	627.66
456.38	618.96
456.75	607.79
457.12	598.75
457.49	589.64
457.86	581.00
458.23	573.38
458.59	565.02
458.96	556.45
459.33	548.91
459.70	541.27
460.07	535.40
460.43	528.48
460.80	522.02
461.17	516.40
461.54	510.35
461.91	504.67
462.27	498.91
462.64	494.19
463.01	488.80
463.38	483.34
463.74	478.46
464.11	474.09
464.48	470.14
464.85	465.91
465.21	462.65
465.58	459.07
465.95	454.97
466.32	451.71
466.68	448.51
467.05	445.27
467.42	442.13
467.78	438.78
468.15	435.69
468.52	433.43
468.88	430.45
469.25	427.69
469.62	425.49
469.98	423.10
470.35	420.99
470.72	419.09
471.08	417.17
471.45	415.53
471.82	413.72
472.18	411.84
472.55	410.61
472.92	409.08
473.28	407.88
473.65	406.60
474.02	405.37
474.38	404.34
474.75	403.74
475.11	402.91
475.48	402.54
475.85	402.12
476.21	401.88
476.58	401.67
476.94	401.86
477.31	401.92
477.67	402.04
478.04	402.36
478.41	402.80
478.77	403.40
479.14	403.80
479.50	404.59
479.87	405.59
480.23	406.56
480.60	407.52
480.96	408.50
481.33	409.96
481.69	411.40
482.06	412.81
482.42	414.11
482.79	415.73
483.15	417.61
483.52	419.72
483.88	421.76
484.25	423.92
484.61	426.19
484.98	428.63
485.34	431.37
485.71	434.24
486.07	437.30
486.44	440.32
486.80	443.74
487.17	447.23
487.53	451.01
487.90	455.00
488.26	459.31
488.62	463.82
488.99	468.37
489.35	473.14
489.72	478.25
490.08	483.66
490.44	489.16
490.81	494.90
491.17	500.81
491.54	507.11
491.90	513.58
492.26	520.46
492.63	527.69
492.99	535.22
493.36	542.93
493.72	551.00
494.08	559.28
494.45	567.92
494.81	576.97
495.17	586.30
495.54	596.11
495.90	606.36
496.26	616.79
496.63	627.50
496.99	638.59
497.35	650.19
497.72	662.09
498.08	674.31
498.44	686.84
498.80	700.08
499.17	713.59
499.53	727.56
499.89	741.96
500.26	756.53
500.62	771.45
500.98	787.18
501.34	802.98
501.71	819.57
502.07	836.44
502.43	853.75
502.79	871.24
503.16	889.26
503.52	907.41
503.88	926.03
504.24	945.06
504.60	964.36
504.97	984.25
505.33	1004.54
505.69	1025.88
506.05	1047.39
506.41	1068.73
506.78	1090.27
507.14	1112.43
507.50	1134.95
507.86	1157.85
508.22	1180.94
508.59	1203.84
508.95	1227.83
509.31	1252.24
509.67	1277.25
510.03	1302.16
510.39	1327.01
510.75	1351.87
511.12	1377.19
511.48	1402.45
511.84	1427.80
512.20	1453.43
512.56	1479.97
512.92	1506.33
513.28	1532.14
513.64	1558.26
514.00	1584.68
514.37	1611.39
514.73	1638.01
515.09	1663.97
515.45	1690.26
515.81	1716.58
516.17	1742.62
516.53	1768.00
516.89	1793.33
517.25	1818.89
517.61	1844.19
517.97	1870.02
518.33	1895.24
518.69	1920.22
519.05	1945.68
519.41	1971.17
519.77	1996.54
520.13	2020.61
520.49	2044.79
520.85	2069.24
521.21	2093.11
521.57	2117.25
521.93	2140.42
522.29	2164.12
522.65	2187.61
523.01	2210.75
523.37	2233.24
523.73	2256.47
524.09	2279.39
524.45	2301.75
524.81	2323.48
525.17	2344.92
525.53	2365.82
525.89	2386.92
526.25	2407.71
526.61	2426.98
526.97	2446.20
527.33	2465.26
527.68	2483.87
528.04	2502.05
528.40	2518.82
528.76	2535.96
529.12	2552.72
529.48	2569.79
529.84	2584.24
530.20	2599.25
530.56	2613.28
530.91	2627.53
531.27	2641.23
531.63	2653.86
531.99	2666.33
532.35	2678.27
532.71	2689.88
533.07	2701.70
533.42	2711.73
533.78	2722.08
534.14	2733.23
534.50	2743.22
534.86	2753.66
535.21	2762.20
535.57	2770.57
535.93	2778.89
536.29	2785.43
536.65	2791.64
537.00	2796.40
537.36	2802.59
537.72	2807.62
538.08	2812.14
538.44	2815.79
538.79	2819.00
539.15	2820.85
539.51	2822.13
539.87	2822.42
540.22	2821.19
540.58	2820.20
540.94	2820.21
541.29	2818.81
541.65	2816.06
542.01	2812.99
542.37	2808.52
542.72	2805.40
543.08	2800.78
543.44	2796.31
543.79	2791.26
544.15	2785.66
544.51	2780.41
544.87	2773.91
545.22	2766.66
545.58	2759.40
545.94	2752.26
546.29	2743.62
546.65	2735.35
547.01	2727.07
547.36	2719.07
547.72	2711.35
548.07	2701.83
548.43	2691.34
548.79	2680.61
549.14	2670.42
549.50	2660.26
549.86	2649.17
550.21	2636.58
550.57	2624.91
550.92	2611.69
551.28	2599.05
551.64	2586.61
551.99	2573.82
552.35	2560.66
552.70	2547.42
553.06	2534.58
553.41	2521.18
553.77	2507.71
554.13	2494.39
554.48	2480.02
554.84	2465.18
555.19	2450.75
555.55	2436.24
555.90	2422.01
556.26	2408.20
556.61	2393.16
556.97	2377.32
557.32	2361.95
557.68	2346.97
558.03	2331.69
558.39	2317.28
558.74	2303.37
559.10	2287.73
559.45	2272.54
559.81	2258.11
560.16	2243.25
560.52	2228.27
560.87	2213.45
561.23	2198.26
561.58	2183.45
561.94	2168.29
562.29	2152.55
562.64	2137.05
563.00	2121.78
563.35	2106.62
563.71	2091.17
564.06	2075.88
564.42	2061.11
564.77	2046.27
565.12	2031.31
565.48	2016.25
565.83	2001.50
566.19	1986.73
566.54	1972.29
566.89	1957.08
567.25	1941.70
567.60	1927.27
567.96	1911.92
568.31	1895.67
568.66	1880.42
569.02	1865.70
569.37	1851.42
569.72	1837.86
570.08	1823.79
570.43	1809.18
570.78	1794.41
571.14	1779.39
571.49	1764.55
571.84	1749.98
572.20	1734.45
572.55	1719.65
572.90	1704.91
573.26	1689.99
573.61	1674.55
573.96	1659.60
574.31	1644.55
574.67	1629.59
575.02	1614.19
575.37	1598.97
575.72	1584.36
576.08	1569.60
576.43	1554.25
576.78	1539.07
577.13	1523.99
577.49	1509.25
577.84	1494.87
578.19	1480.06
578.54	1465.36
578.90	1450.69
579.25	1435.94
579.60	1422.17
579.95	1408.18
580.30	1394.11
580.66	1379.82
581.01	1365.65
581.36	1351.67
581.71	1338.37
582.06	1324.94
582.42	1311.47
582.77	1298.47
583.12	1285.64
583.47	1272.71
583.82	1260.01
584.17	1246.92
584.53	1233.95
584.88	1221.17
585.23	1208.30
585.58	1195.83
585.93	1183.39
586.28	1171.73
586.63	1159.93
586.98	1147.89
587.34	1136.12
587.69	1124.21
588.04	1112.77
588.39	1101.52
588.74	1089.84
589.09	1078.39
589.44	1066.69
589.79	1055.47
590.14	1044.34
590.49	1033.30
590.84	1022.44
591.19	1011.83
591.54	1001.39
591.89	990.54
592.25	980.10
592.60	969.49
592.95	959.07
593.30	948.93
593.65	938.57
594.00	928.46
594.35	919.16
594.70	909.25
595.05	899.98
595.40	890.41
595.75	880.72
596.10	871.67
596.45	862.56
596.80	853.80
597.15	845.10
597.50	836.43
597.85	827.89
598.19	819.44
598.54	810.96
598.89	802.92
599.24	795.27
599.59	787.41
599.94	780.20
600.29	772.96
600.64	765.58
600.99	758.10
601.34	750.81
601.69	743.10
602.04	736.19
602.39	729.13
602.74	722.29
603.08	715.66
603.43	708.93
603.78	702.20
604.13	695.59
604.48	689.05
604.83	682.63
605.18	676.36
605.53	670.20
605.87	664.00
606.22	657.90
606.57	651.78
606.92	645.54
607.27	639.33
607.62	633.35
607.96	627.61
608.31	622.25
608.66	616.87
609.01	611.71
609.36	606.51
609.70	601.25
610.05	596.06
610.40	590.98
610.75	585.92
611.10	581.06
611.44	576.21
611.79	571.42
612.14	566.62
612.49	561.88
612.83	557.34
613.18	552.87
613.53	548.44
613.88	544.11
614.22	540.14
614.57	536.07
614.92	532.05
615.27	528.17
615.61	524.20
615.96	520.26
616.31	516.33
616.65	512.56
617.00	508.88
617.35	505.24
617.70	501.62
618.04	498.12
618.39	494.70
618.74	491.49
619.08	488.28
619.43	485.12
619.78	481.92
620.12	478.79
620.47	475.84
620.82	472.90
621.16	469.95
621.51	467.07
621.85	464.23
622.20	461.47
622.55	458.63
622.89	455.88
623.24	453.29
623.59	450.73
623.93	448.23
624.28	445.89
624.62	443.74
624.97	441.56
625.32	439.30
625.66	437.01
626.01	434.71
626.35	432.52
626.70	430.27
627.04	428.25
627.39	426.13
627.73	424.09
628.08	422.16
628.43	420.24
628.77	418.21
629.12	416.33
629.46	414.49
629.81	412.82
630.15	411.04
630.50	409.29
630.84	407.57
631.19	405.91
631.53	404.30
631.88	402.49
632.22	400.82
632.57	399.41
632.91	397.96
633.26	396.57
633.60	395.19
633.95	393.91
634.29	392.47
634.64	391.12
634.98	389.62
635.32	388.28
635.67	387.07
636.01	385.88
636.36	384.71
636.70	383.64
637.05	382.39
637.39	381.31
637.73	380.20
638.08	379.17
638.42	378.15
638.77	377.02
639.11	375.88
639.45	374.75
639.80	373.55
640.14	372.46
640.49	371.35
640.83	370.23
641.17	369.14
641.52	368.09
641.86	367.08
642.20	366.24
642.55	365.19
642.89	364.16
643.23	363.21
643.58	362.34
643.92	361.33
644.26	360.42
644.61	359.52
644.95	358.58
645.29	357.59
645.64	356.57
645.98	355.64
646.32	354.83
646.66	353.98
647.01	353.15
647.35	352.39
647.69	351.60
648.04	350.89
648.38	350.12
648.72	349.38
649.06	348.63
649.41	347.81
649.75	347.08
650.09	346.38
650.43	345.63
650.78	344.86
651.12	344.12
651.46	343.37
651.80	342.67
652.14	342.01
652.49	341.38
652.83	340.71
653.17	340.01
653.51	339.34
653.85	338.76
654.20	338.14
654.54	337.40
654.88	336.71
655.22	336.07
655.56	335.38
655.90	334.73
656.25	334.09
656.59	333.48
656.93	332.89
657.27	332.35
657.61	331.73
657.95	331.18
658.29	330.59
658.64	330.05
658.98	329.43
659.32	328.84
659.66	328.28
660.00	327.78
660.34	327.26
660.68	326.67
661.02	326.02
661.36	325.42
661.70	324.88
662.05	324.33
662.39	323.80
662.73	323.34
663.07	322.93
663.41	322.46
663.75	321.95
664.09	321.44
664.43	320.82
664.77	320.31
665.11	319.71
665.45	319.20
665.79	318.69
666.13	318.16
666.47	317.61
666.81	317.04
667.15	316.43
667.49	315.96
667.83	315.56
668.17	315.11
668.51	314.69
668.85	314.28
669.19	313.90
669.53	313.37
669.87	312.83
670.21	312.28
670.55	311.77
670.89	311.37
671.23	310.94
671.57	310.55
671.91	310.17
672.25	309.82
672.58	309.47
672.92	309.04
673.26	308.71
673.60	308.35
673.94	307.97
674.28	307.62
674.62	307.23
674.96	306.77
675.30	306.36
675.64	305.90
675.97	305.43
676.31	304.97
676.65	304.55
676.99	304.21
677.33	303.78
677.67	303.38
678.01	302.88
678.34	302.44
678.68	302.04
679.02	301.59
679.36	301.16
679.70	300.69
680.04	300.30
680.37	299.88
680.71	299.49
681.05	299.13
681.39	298.70
681.73	298.24
682.06	297.81
682.40	297.42
682.74	297.06
683.08	296.77
683.42	296.37
683.75	296.02
684.09	295.53
684.43	295.13
684.77	294.70
685.10	294.32
685.44	293.94
685.78	293.52
686.12	293.11
686.45	292.69
686.79	292.23
687.13	291.82
687.46	291.37
687.80	290.95
688.14	290.46
688.48	290.04
688.81	289.63
689.15	289.29
689.49	288.86
689.82	288.42
690.16	287.88
690.50	287.41
690.83	286.98
691.17	286.53
691.51	286.11
691.84	285.74
692.18	285.30
692.52	284.84
692.85	284.41
693.19	284.05
693.52	283.62
693.86	283.20
694.20	282.76
694.53	282.35
694.87	281.89
695.21	281.47
695.54	281.06
695.88	280.60
696.21	280.10
696.55	279.66
696.88	279.22
697.22	278.81
697.56	278.43
697.89	277.96
698.23	277.57
698.56	277.13
698.90	276.71
699.23	276.27
699.57	275.88
699.90	275.47
700.24	275.03
700.58	274.63
700.91	274.30
701.25	274.08
701.58	273.76
701.92	273.45
702.25	273.09
702.59	272.68
702.92	272.31
703.26	271.93
703.59	271.57
703.93	271.33
704.26	270.98
704.60	270.60
704.93	270.24
705.26	269.84
705.60	269.51
705.93	269.11
706.27	268.82
706.60	268.51
706.94	268.20
707.27	267.79
707.61	267.43
707.94	267.04
708.27	266.52
708.61	266.08
708.94	265.68
709.28	265.32
709.61	264.96
709.94	264.65
710.28	264.32
710.61	264.00
710.95	263.51
711.28	263.30
711.61	262.95
711.95	262.67
712.28	262.35
712.61	262.00
712.95	261.77
713.28	261.51
713.61	261.14
713.95	260.78
714.28	260.48
714.61	260.16
714.95	259.84
715.28	259.53
715.61	259.25
715.95	258.97
716.28	258.68
716.61	258.44
716.95	258.13
717.28	257.84
717.61	257.56
717.94	257.28
718.28	256.88
718.61	256.61
718.94	256.31
719.27	256.04
719.61	255.81
719.94	255.51
720.27	255.16
720.60	254.92
720.94	254.65
721.27	254.40
721.60	254.18
721.93	253.94
722.27	253.73
722.60	253.50
722.93	253.24
723.26	253.00
723.59	252.72
723.93	252.51
724.26	252.30
724.59	252.05
724.92	251.85
725.25	251.70
725.59	251.49
725.92	251.30
726.25	251.07
726.58	250.84
726.91	250.61
727.24	250.42
727.57	250.20
727.91	249.97
728.24	249.79
728.57	249.57
728.90	249.36
729.23	249.11
729.56	248.97
729.89	248.78
730.22	248.57
730.55	248.38
730.89	248.18
731.22	247.98
731.55	247.79
731.88	247.60
732.21	247.37
732.54	247.17
732.87	246.99
733.20	246.83
733.53	246.67
733.86	246.51
734.19	246.31
734.52	246.18
734.85	246.13
735.18	245.94
735.51	245.84
735.84	245.69
736.17	245.58
736.50	245.32
736.83	245.36
737.16	245.21
737.49	245.06
737.82	244.87
738.15	244.74
738.48	244.59
738.81	244.41
739.14	244.23
739.47	244.07
739.80	243.91
740.13	243.76
740.46	243.58
740.79	243.41
741.12	243.25
741.45	243.06
741.78	242.82
742.11	242.72
742.44	242.52
742.77	242.39
743.10	242.21
743.43	242.07
743.75	241.74
744.08	241.84
744.41	241.68
744.74	241.56
745.07	241.38
745.40	241.28
745.73	241.21
746.06	241.09
746.39	240.98
746.71	240.83
747.04	240.68
747.37	240.55
747.70	240.45
748.03	240.32
748.36	240.22
748.68	240.10
749.01	239.92
749.34	239.81
749.67	239.70
750.00	239.61
750.33	239.62
750.65	239.52
750.98	239.17
751.31	239.07
751.64	238.96
751.97	238.95
752.29	238.80
752.62	238.61
752.95	238.49
753.28	238.36
753.60	238.25
753.93	238.19
754.26	238.11
754.59	237.95
754.91	237.81
755.24	237.71
755.57	237.60
755.90	237.50
756.22	237.37
756.55	237.24
756.88	237.10
757.20	236.88
757.53	236.74
757.86	236.64
758.19	236.55
758.51	236.46
758.84	236.29
759.17	236.19
759.49	236.12
759.82	236.12
760.15	236.05
760.47	235.96
760.80	235.82
761.13	235.76
761.45	235.68
761.78	235.61
762.11	235.53
762.43	235.43
762.76	235.35
763.08	235.31
763.41	235.23
763.74	235.17
764.06	235.10
764.39	235.03
764.71	234.95
765.04	234.86
765.37	234.76
765.69	234.68
766.02	234.61
766.34	234.53
766.67	234.40
767.00	234.35
767.32	234.37
767.65	234.42
767.97	234.32
768.30	234.27
768.62	234.19
768.95	234.11
769.27	234.06
769.60	234.03
769.92	233.93
770.25	233.84
770.57	233.75
770.90	233.70
771.22	233.63
771.55	233.58
771.87	233.54
772.20	233.50
772.52	233.60
772.85	233.76
773.17	233.71
773.50	233.65
773.82	233.58
774.15	233.45
774.47	233.29
774.80	233.23
775.12	233.19
775.45	233.15
775.77	233.11
776.09	233.07
776.42	233.01
776.74	233.02
777.07	232.97
777.39	232.95
777.72	232.88
778.04	232.86
778.36	232.80
778.69	232.76
779.01	232.72
779.33	232.54
779.66	232.30
779.98	232.24
780.31	232.21
780.63	232.24
780.95	232.24
781.28	232.20
781.60	232.14
781.92	232.11
782.25	232.07
782.57	232.04
782.89	232.00
783.22	231.95
783.54	231.88
783.86	231.87
784.19	231.82
784.51	231.85
784.83	231.79
785.16	231.74
785.48	231.71
785.80	231.67
786.12	231.64
786.45	231.60
786.77	231.59
787.09	231.56
787.42	231.47
787.74	231.45
788.06	231.43
788.38	231.39
788.71	231.34
789.03	231.32
789.35	231.31
789.67	231.25
789.99	231.23
790.32	231.20
790.64	231.18
790.96	231.33
791.28	231.24
791.61	231.21
791.93	231.21
792.25	231.18
792.57	231.28
792.89	231.23
793.21	231.22
793.54	231.17
793.86	231.12
794.18	231.09
794.50	231.03
794.82	231.01
795.14	231.02
795.47	231.04
795.79	231.02
796.11	230.96
796.43	230.94
796.75	230.92
797.07	230.90
797.39	230.88
797.71	230.71
798.04	230.70
798.36	230.69
798.68	230.67
799.00	230.65
799.32	230.55
799.64	230.55
799.96	230.53
800.28	230.55
800.60	230.52
800.92	230.52
801.24	230.50
801.56	230.50
801.89	230.46
802.21	230.44
802.53	230.40
802.85	230.42
803.17	230.48
803.49	230.44
803.81	230.40
804.13	230.36
804.45	230.31
804.77	230.31
805.09	230.29
805.41	230.25
805.73	230.21
806.05	230.15
806.37	230.12
806.69	230.09
807.01	230.05
807.33	230.06
807.65	229.99
807.97	230.04
808.28	230.01
808.60	229.98
808.92	229.94
809.24	230.02
809.56	229.98
809.88	229.90
810.20	229.89
810.52	229.93
810.84	229.91
811.16	229.88
811.48	229.86
811.80	229.91
812.12	229.90
812.43	229.91
812.75	229.91
813.07	229.88
813.39	229.88
813.71	229.84
814.03	229.81
814.35	229.80
814.67	229.71
814.98	229.69
815.30	229.68
815.62	229.64
815.94	229.53
816.26	229.54
816.58	229.49
816.89	229.49
817.21	229.44
817.53	229.44
817.85	229.45
818.17	229.43
818.48	229.35
