SpectraSuite Data File
++++++++++++++++++++++++++++++++++++
Date: Tue Oct 06 11:35:12 EDT 2015
User: lab3
Dark Spectrum Present: No
Reference Spectrum Present: No
Number of Sampled Component Spectra: 1
Spectrometers: USB2E7196
Integration Time (usec): 66000 (USB2E7196)
Spectra Averaged: 1000 (USB2E7196)
Boxcar Smoothing: 10 (USB2E7196)
Correct for Electrical Dark: No (USB2E7196)
Strobe/Lamp Enabled: No (USB2E7196)
Correct for Detector Non-linearity: No (USB2E7196)
Correct for Stray Light: No (USB2E7196)
Number of Pixels in Processed Spectrum: 2048
>>>>>Begin Processed Spectral Data<<<<<
339.09	0.00
339.48	216.14
339.86	217.70
340.24	219.04
340.63	220.45
341.01	224.45
341.39	223.26
341.78	224.73
342.16	226.01
342.54	226.18
342.93	214.67
343.31	225.50
343.69	226.05
344.07	226.51
344.46	226.95
344.84	227.36
345.22	227.55
345.60	227.82
345.99	228.02
346.37	228.15
346.75	228.27
347.13	228.36
347.52	228.45
347.90	228.56
348.28	228.60
348.66	228.68
349.05	228.67
349.43	228.74
349.81	228.81
350.19	228.87
350.57	228.95
350.96	229.04
351.34	229.15
351.72	229.25
352.10	229.37
352.48	229.44
352.87	229.49
353.25	229.56
353.63	229.62
354.01	229.68
354.39	229.76
354.77	229.84
355.15	229.96
355.54	229.99
355.92	230.02
356.30	230.11
356.68	230.30
357.06	230.38
357.44	230.41
357.82	230.47
358.20	230.68
358.58	230.74
358.97	230.81
359.35	230.91
359.73	231.03
360.11	231.08
360.49	231.15
360.87	231.21
361.25	231.29
361.63	231.39
362.01	231.45
362.39	231.48
362.77	231.55
363.15	231.57
363.53	231.60
363.91	231.64
364.29	231.66
364.67	231.51
365.05	231.54
365.43	231.58
365.81	231.63
366.19	231.58
366.57	231.68
366.95	231.67
367.33	231.64
367.71	231.62
368.09	231.65
368.47	231.65
368.85	231.62
369.23	231.65
369.61	231.58
369.99	231.61
370.37	231.62
370.75	231.74
371.13	231.72
371.51	231.67
371.89	231.66
372.27	231.65
372.65	231.63
373.03	231.58
373.41	231.53
373.78	231.47
374.16	231.36
374.54	231.25
374.92	231.20
375.30	231.16
375.68	231.10
376.06	231.05
376.44	231.00
376.82	230.97
377.19	230.93
377.57	230.89
377.95	230.79
378.33	230.72
378.71	230.52
379.09	230.48
379.47	230.46
379.84	230.39
380.22	230.32
380.60	230.25
380.98	230.21
381.36	230.15
381.73	230.09
382.11	230.07
382.49	230.03
382.87	229.96
383.25	229.91
383.62	230.07
384.00	230.00
384.38	229.96
384.76	229.95
385.13	229.96
385.51	229.92
385.89	229.87
386.27	229.84
386.64	229.82
387.02	229.77
387.40	229.73
387.78	229.71
388.15	229.70
388.53	229.66
388.91	229.62
389.29	229.60
389.66	229.61
390.04	229.57
390.42	229.59
390.79	229.58
391.17	229.57
391.55	229.36
391.92	229.34
392.30	229.36
392.68	229.31
393.05	229.30
393.43	229.30
393.81	229.32
394.18	229.30
394.56	229.31
394.94	229.36
395.31	229.37
395.69	229.44
396.06	229.47
396.44	229.52
396.82	229.55
397.19	229.68
397.57	229.70
397.95	229.77
398.32	229.75
398.70	229.82
399.07	229.92
399.45	229.98
399.82	230.05
400.20	230.11
400.58	230.20
400.95	230.21
401.33	230.34
401.70	230.57
402.08	230.71
402.45	230.84
402.83	230.99
403.20	231.16
403.58	231.29
403.95	231.51
404.33	231.73
404.71	231.94
405.08	232.24
405.46	232.49
405.83	232.77
406.21	233.06
406.58	233.40
406.96	233.73
407.33	234.11
407.70	234.52
408.08	235.09
408.45	235.60
408.83	236.15
409.20	236.65
409.58	237.11
409.95	237.74
410.33	238.42
410.70	239.07
411.08	239.82
411.45	240.62
411.82	241.44
412.20	242.37
412.57	243.46
412.95	244.34
413.32	245.49
413.69	246.68
414.07	247.94
414.44	249.31
414.82	250.70
415.19	252.35
415.56	254.03
415.94	255.78
416.31	257.73
416.68	259.69
417.06	261.95
417.43	264.08
417.81	266.53
418.18	269.04
418.55	271.77
418.93	274.61
419.30	277.59
419.67	280.75
420.04	283.99
420.42	287.41
420.79	291.31
421.16	295.28
421.54	299.28
421.91	303.48
422.28	307.83
422.66	312.53
423.03	316.98
423.40	321.65
423.77	326.66
424.15	331.79
424.52	337.10
424.89	342.85
425.26	348.56
425.64	353.86
426.01	359.80
426.38	365.89
426.75	372.15
427.13	378.54
427.50	385.23
427.87	392.16
428.24	399.12
428.61	405.82
428.99	413.00
429.36	420.97
429.73	428.58
430.10	436.15
430.47	443.91
430.85	451.96
431.22	460.52
431.59	469.30
431.96	477.87
432.33	487.40
432.70	496.46
433.08	507.25
433.45	517.41
433.82	527.34
434.19	538.49
434.56	549.43
434.93	560.05
435.30	570.59
435.68	582.55
436.05	594.26
436.42	605.96
436.79	616.66
437.16	628.17
437.53	640.56
437.90	652.99
438.27	665.10
438.64	678.12
439.01	690.02
439.38	701.03
439.75	711.60
440.13	723.65
440.50	735.15
440.87	744.21
441.24	754.15
441.61	765.14
441.98	773.19
442.35	782.74
442.72	792.51
443.09	801.85
443.46	808.02
443.83	812.58
444.20	816.35
444.57	821.88
444.94	825.28
445.31	828.63
445.68	831.46
446.05	833.56
446.42	833.24
446.79	832.63
447.16	832.07
447.53	831.70
447.90	828.14
448.27	824.62
448.64	819.21
449.01	815.60
449.37	808.00
449.74	801.18
450.11	792.33
450.48	782.56
450.85	772.71
451.22	764.14
451.59	755.82
451.96	748.37
452.33	737.51
452.70	727.75
453.07	716.01
453.43	704.32
453.80	692.98
454.17	682.07
454.54	671.95
454.91	660.50
455.28	649.64
455.65	639.36
456.02	628.55
456.38	619.85
456.75	608.63
457.12	599.59
457.49	590.44
457.86	581.87
458.23	574.34
458.59	566.00
458.96	557.46
459.33	549.94
459.70	542.28
460.07	536.40
460.43	529.48
460.80	522.99
461.17	517.31
461.54	511.22
461.91	505.56
462.27	499.82
462.64	495.10
463.01	489.69
463.38	484.31
463.74	479.47
464.11	475.19
464.48	471.29
464.85	467.06
465.21	463.81
465.58	460.18
465.95	456.08
466.32	452.77
466.68	449.55
467.05	446.33
467.42	443.15
467.78	439.79
468.15	436.69
468.52	434.40
468.88	431.43
469.25	428.70
469.62	426.52
469.98	424.11
470.35	421.96
470.72	420.04
471.08	418.03
471.45	416.34
471.82	414.48
472.18	412.54
472.55	411.29
472.92	409.73
473.28	408.52
473.65	407.20
474.02	406.02
474.38	404.99
474.75	404.38
475.11	403.53
475.48	403.11
475.85	402.68
476.21	402.44
476.58	402.25
476.94	402.43
477.31	402.46
477.67	402.59
478.04	402.91
478.41	403.35
478.77	403.97
479.14	404.35
479.50	405.14
479.87	406.15
480.23	407.15
480.60	408.12
480.96	409.08
481.33	410.53
481.69	411.94
482.06	413.36
482.42	414.68
482.79	416.30
483.15	418.21
483.52	420.35
483.88	422.41
484.25	424.61
484.61	426.92
484.98	429.36
485.34	432.14
485.71	435.02
486.07	438.10
486.44	441.14
486.80	444.54
487.17	448.00
487.53	451.79
487.90	455.74
488.26	460.09
488.62	464.64
488.99	469.23
489.35	474.07
489.72	479.28
490.08	484.73
490.44	490.28
490.81	496.02
491.17	501.89
491.54	508.17
491.90	514.61
492.26	521.42
492.63	528.59
492.99	536.00
493.36	543.72
493.72	551.82
494.08	560.09
494.45	568.79
494.81	577.91
495.17	587.21
495.54	597.03
495.90	607.25
496.26	617.74
496.63	628.43
496.99	639.50
497.35	651.03
497.72	662.92
498.08	675.26
498.44	687.84
498.80	701.24
499.17	714.94
499.53	729.11
499.89	743.70
500.26	758.34
500.62	773.35
500.98	788.97
501.34	804.79
501.71	821.38
502.07	838.25
502.43	855.53
502.79	872.94
503.16	890.80
503.52	908.84
503.88	927.35
504.24	946.29
504.60	965.53
504.97	985.18
505.33	1005.29
505.69	1026.40
506.05	1047.59
506.41	1068.54
506.78	1089.82
507.14	1111.90
507.50	1134.40
507.86	1157.45
508.22	1180.52
508.59	1203.47
508.95	1227.16
509.31	1251.34
509.67	1276.02
510.03	1300.57
510.39	1325.38
510.75	1350.35
511.12	1375.54
511.48	1400.57
511.84	1425.70
512.20	1451.19
512.56	1477.30
512.92	1503.11
513.28	1528.40
513.64	1554.19
514.00	1580.03
514.37	1606.09
514.73	1631.95
515.09	1657.23
515.45	1682.63
515.81	1707.97
516.17	1733.43
516.53	1758.25
516.89	1783.05
517.25	1807.98
517.61	1832.81
517.97	1857.85
518.33	1882.11
518.69	1906.18
519.05	1930.50
519.41	1954.71
519.77	1978.76
520.13	2002.35
520.49	2025.95
520.85	2049.69
521.21	2072.84
521.57	2096.55
521.93	2119.03
522.29	2141.81
522.65	2164.15
523.01	2186.48
523.37	2208.07
523.73	2229.89
524.09	2251.82
524.45	2273.54
524.81	2294.43
525.17	2314.87
525.53	2334.74
525.89	2355.17
526.25	2374.81
526.61	2393.37
526.97	2412.09
527.33	2430.47
527.68	2447.68
528.04	2464.27
528.40	2479.80
528.76	2495.87
529.12	2510.62
529.48	2526.12
529.84	2540.27
530.20	2555.23
530.56	2568.98
530.91	2582.99
531.27	2595.98
531.63	2607.89
531.99	2619.17
532.35	2629.45
532.71	2639.49
533.07	2649.80
533.42	2658.49
533.78	2668.04
534.14	2678.02
534.50	2686.45
534.86	2694.90
535.21	2701.40
535.57	2708.40
535.93	2715.68
536.29	2721.63
536.65	2727.49
537.00	2731.24
537.36	2735.52
537.72	2738.24
538.08	2740.78
538.44	2742.08
538.79	2743.99
539.15	2745.06
539.51	2745.69
539.87	2746.30
540.22	2745.34
540.58	2744.76
540.94	2744.01
541.29	2742.09
541.65	2738.57
542.01	2735.18
542.37	2730.77
542.72	2728.18
543.08	2723.85
543.44	2719.50
543.79	2713.52
544.15	2707.35
544.51	2702.05
544.87	2694.78
545.22	2687.03
545.58	2679.19
545.94	2671.95
546.29	2663.16
546.65	2654.28
547.01	2645.45
547.36	2636.26
547.72	2627.10
548.07	2616.40
548.43	2605.58
548.79	2593.76
549.14	2582.74
549.50	2571.62
549.86	2560.00
550.21	2546.89
550.57	2534.90
550.92	2520.63
551.28	2507.64
551.64	2495.05
551.99	2482.26
552.35	2469.39
552.70	2456.58
553.06	2444.11
553.41	2430.86
553.77	2416.98
554.13	2403.05
554.48	2388.54
554.84	2373.86
555.19	2359.76
555.55	2345.27
555.90	2330.63
556.26	2316.94
556.61	2302.26
556.97	2286.72
557.32	2271.69
557.68	2256.57
558.03	2241.08
558.39	2226.64
558.74	2212.16
559.10	2196.04
559.45	2180.44
559.81	2165.81
560.16	2150.77
560.52	2135.40
560.87	2120.63
561.23	2105.43
561.58	2090.59
561.94	2075.02
562.29	2059.61
562.64	2044.15
563.00	2029.01
563.35	2014.47
563.71	1999.49
564.06	1984.46
564.42	1970.00
564.77	1955.29
565.12	1941.13
565.48	1926.88
565.83	1912.84
566.19	1898.72
566.54	1884.91
566.89	1869.92
567.25	1854.54
567.60	1840.26
567.96	1825.39
568.31	1809.94
568.66	1795.25
569.02	1780.80
569.37	1766.63
569.72	1752.62
570.08	1738.66
570.43	1724.36
570.78	1709.43
571.14	1694.53
571.49	1680.11
571.84	1666.38
572.20	1651.53
572.55	1636.94
572.90	1621.91
573.26	1606.71
573.61	1591.45
573.96	1576.84
574.31	1562.78
574.67	1549.01
575.02	1534.27
575.37	1519.53
575.72	1504.93
576.08	1490.80
576.43	1476.42
576.78	1462.17
577.13	1447.99
577.49	1433.94
577.84	1419.92
578.19	1405.99
578.54	1392.21
578.90	1378.43
579.25	1364.07
579.60	1350.74
579.95	1337.48
580.30	1324.14
580.66	1310.96
581.01	1297.95
581.36	1284.68
581.71	1271.45
582.06	1258.15
582.42	1245.00
582.77	1232.33
583.12	1219.86
583.47	1207.28
583.82	1194.96
584.17	1182.50
584.53	1170.31
584.88	1158.19
585.23	1146.09
585.58	1134.28
585.93	1122.56
586.28	1111.32
586.63	1100.08
586.98	1088.73
587.34	1077.65
587.69	1066.54
588.04	1055.74
588.39	1045.05
588.74	1034.10
589.09	1023.54
589.44	1012.79
589.79	1002.62
590.14	992.52
590.49	982.51
590.84	972.69
591.19	962.91
591.54	953.20
591.89	943.06
592.25	933.24
592.60	923.35
592.95	913.67
593.30	903.99
593.65	894.24
594.00	884.77
594.35	876.07
594.70	866.85
595.05	858.31
595.40	849.50
595.75	840.44
596.10	832.06
596.45	823.54
596.80	815.25
597.15	807.02
597.50	798.81
597.85	790.91
598.19	782.97
598.54	775.02
598.89	767.25
599.24	759.90
599.59	752.61
599.94	745.80
600.29	738.81
600.64	731.95
600.99	724.99
601.34	718.23
601.69	710.95
602.04	704.24
602.39	697.59
602.74	691.11
603.08	684.86
603.43	678.62
603.78	672.44
604.13	666.41
604.48	660.37
604.83	654.47
605.18	648.63
605.53	642.89
605.87	637.13
606.22	631.59
606.57	625.98
606.92	620.25
607.27	614.65
607.62	609.30
607.96	604.05
608.31	599.12
608.66	594.12
609.01	589.34
609.36	584.65
609.70	579.84
610.05	575.06
610.40	570.39
610.75	565.72
611.10	561.33
611.44	556.82
611.79	552.47
612.14	548.18
612.49	543.80
612.83	539.62
613.18	535.59
613.53	531.66
613.88	527.73
614.22	524.03
614.57	520.19
614.92	516.46
615.27	512.78
615.61	509.17
615.96	505.59
616.31	501.98
616.65	498.42
617.00	495.00
617.35	491.67
617.70	488.40
618.04	485.23
618.39	482.05
618.74	479.06
619.08	475.97
619.43	472.93
619.78	469.99
620.12	467.12
620.47	464.40
620.82	461.64
621.16	458.97
621.51	456.43
621.85	453.93
622.20	451.46
622.55	449.00
622.89	446.55
623.24	444.26
623.59	442.00
623.93	439.80
624.28	437.71
624.62	435.80
624.97	433.87
625.32	431.79
625.66	429.69
626.01	427.63
626.35	425.74
626.70	423.80
627.04	422.03
627.39	420.13
627.73	418.32
628.08	416.59
628.43	414.91
628.77	413.15
629.12	411.50
629.46	409.86
629.81	408.35
630.15	406.71
630.50	405.10
630.84	403.61
631.19	402.17
631.53	400.77
631.88	399.14
632.22	397.60
632.57	396.40
632.91	395.17
633.26	393.99
633.60	392.77
633.95	391.60
634.29	390.32
634.64	389.17
634.98	387.87
635.32	386.72
635.67	385.63
636.01	384.58
636.36	383.55
636.70	382.64
637.05	381.53
637.39	380.60
637.73	379.70
638.08	378.79
638.42	377.87
638.77	376.85
639.11	375.83
639.45	374.84
639.80	373.79
640.14	372.84
640.49	371.85
640.83	370.88
641.17	369.93
641.52	369.00
641.86	368.12
642.20	367.40
642.55	366.48
642.89	365.57
643.23	364.68
643.58	363.87
643.92	362.91
644.26	362.06
644.61	361.28
644.95	360.44
645.29	359.55
645.64	358.64
645.98	357.82
646.32	357.09
646.66	356.32
647.01	355.53
647.35	354.78
647.69	354.00
648.04	353.29
648.38	352.55
648.72	351.85
649.06	351.16
649.41	350.39
649.75	349.68
650.09	349.03
650.43	348.37
650.78	347.64
651.12	346.97
651.46	346.33
651.80	345.66
652.14	344.99
652.49	344.37
652.83	343.72
653.17	343.09
653.51	342.48
653.85	341.93
654.20	341.34
654.54	340.67
654.88	340.04
655.22	339.41
655.56	338.71
655.90	338.04
656.25	337.36
656.59	336.70
656.93	336.13
657.27	335.61
657.61	334.99
657.95	334.47
658.29	333.90
658.64	333.38
658.98	332.75
659.32	332.13
659.66	331.58
660.00	331.05
660.34	330.52
660.68	329.93
661.02	329.29
661.36	328.69
661.70	328.14
662.05	327.61
662.39	327.12
662.73	326.71
663.07	326.31
663.41	325.81
663.75	325.29
664.09	324.75
664.43	324.14
664.77	323.63
665.11	323.00
665.45	322.44
665.79	321.87
666.13	321.34
666.47	320.82
666.81	320.25
667.15	319.64
667.49	319.13
667.83	318.68
668.17	318.20
668.51	317.73
668.85	317.29
669.19	316.92
669.53	316.40
669.87	315.87
670.21	315.36
670.55	314.89
670.89	314.52
671.23	314.06
671.57	313.64
671.91	313.24
672.25	312.86
672.58	312.49
672.92	312.01
673.26	311.61
673.60	311.20
673.94	310.80
674.28	310.44
674.62	310.04
674.96	309.54
675.30	309.13
675.64	308.69
675.97	308.19
676.31	307.65
676.65	307.17
676.99	306.79
677.33	306.28
677.67	305.81
678.01	305.24
678.34	304.77
678.68	304.30
679.02	303.81
679.36	303.35
679.70	302.85
680.04	302.42
680.37	301.97
680.71	301.53
681.05	301.10
681.39	300.62
681.73	300.12
682.06	299.66
682.40	299.22
682.74	298.83
683.08	298.50
683.42	298.05
683.75	297.63
684.09	297.09
684.43	296.64
684.77	296.17
685.10	295.77
685.44	295.37
685.78	294.94
686.12	294.49
686.45	294.04
686.79	293.56
687.13	293.13
687.46	292.64
687.80	292.17
688.14	291.65
688.48	291.22
688.81	290.76
689.15	290.39
689.49	289.91
689.82	289.42
690.16	288.87
690.50	288.41
690.83	287.97
691.17	287.50
691.51	287.06
691.84	286.68
692.18	286.23
692.52	285.74
692.85	285.30
693.19	284.92
693.52	284.48
693.86	284.06
694.20	283.61
694.53	283.18
694.87	282.72
695.21	282.25
695.54	281.81
695.88	281.36
696.21	280.84
696.55	280.38
696.88	279.92
697.22	279.47
697.56	279.04
697.89	278.54
698.23	278.12
698.56	277.66
698.90	277.23
699.23	276.78
699.57	276.38
699.90	275.93
700.24	275.44
700.58	275.04
700.91	274.68
701.25	274.42
701.58	274.10
701.92	273.79
702.25	273.44
702.59	273.03
702.92	272.64
703.26	272.26
703.59	271.89
703.93	271.64
704.26	271.27
704.60	270.88
704.93	270.50
705.26	270.08
705.60	269.75
705.93	269.31
706.27	268.99
706.60	268.64
706.94	268.31
707.27	267.91
707.61	267.52
707.94	267.10
708.27	266.55
708.61	266.09
708.94	265.67
709.28	265.30
709.61	264.92
709.94	264.59
710.28	264.27
710.61	263.97
710.95	263.50
711.28	263.29
711.61	262.96
711.95	262.69
712.28	262.36
712.61	262.00
712.95	261.78
713.28	261.52
713.61	261.14
713.95	260.78
714.28	260.50
714.61	260.18
714.95	259.90
715.28	259.60
715.61	259.31
715.95	259.03
716.28	258.71
716.61	258.45
716.95	258.12
717.28	257.82
717.61	257.49
717.94	257.21
718.28	256.79
718.61	256.50
718.94	256.19
719.27	255.94
719.61	255.70
719.94	255.40
720.27	255.05
720.60	254.81
720.94	254.56
721.27	254.31
721.60	254.08
721.93	253.81
722.27	253.61
722.60	253.39
722.93	253.13
723.26	252.92
723.59	252.65
723.93	252.45
724.26	252.24
724.59	252.02
724.92	251.80
725.25	251.65
725.59	251.43
725.92	251.24
726.25	251.02
726.58	250.81
726.91	250.56
727.24	250.37
727.57	250.15
727.91	249.90
728.24	249.72
728.57	249.50
728.90	249.33
729.23	249.07
729.56	248.96
729.89	248.78
730.22	248.56
730.55	248.38
730.89	248.19
731.22	247.99
731.55	247.79
731.88	247.59
732.21	247.37
732.54	247.19
732.87	247.00
733.20	246.83
733.53	246.65
733.86	246.51
734.19	246.30
734.52	246.15
734.85	246.14
735.18	245.94
735.51	245.83
735.84	245.67
736.17	245.55
736.50	245.29
736.83	245.33
737.16	245.18
737.49	245.02
737.82	244.84
738.15	244.71
738.48	244.57
738.81	244.40
739.14	244.24
739.47	244.09
739.80	243.93
740.13	243.79
740.46	243.62
740.79	243.44
741.12	243.30
741.45	243.13
741.78	242.87
742.11	242.78
742.44	242.59
742.77	242.47
743.10	242.31
743.43	242.17
743.75	241.83
744.08	241.95
744.41	241.80
744.74	241.65
745.07	241.47
745.40	241.38
745.73	241.33
746.06	241.21
746.39	241.10
746.71	240.96
747.04	240.82
747.37	240.69
747.70	240.60
748.03	240.47
748.36	240.38
748.68	240.26
749.01	240.09
749.34	239.98
749.67	239.86
750.00	239.77
750.33	239.78
750.65	239.70
750.98	239.35
751.31	239.25
751.64	239.17
751.97	239.15
752.29	239.01
752.62	238.82
752.95	238.68
753.28	238.55
753.60	238.42
753.93	238.36
754.26	238.28
754.59	238.12
754.91	238.01
755.24	237.88
755.57	237.85
755.90	237.74
756.22	237.63
756.55	237.50
756.88	237.35
757.20	237.15
757.53	237.01
757.86	236.91
758.19	236.83
758.51	236.73
758.84	236.55
759.17	236.45
759.49	236.39
759.82	236.40
760.15	236.33
760.47	236.26
760.80	236.12
761.13	236.07
761.45	236.00
761.78	235.92
762.11	235.85
762.43	235.68
762.76	235.60
763.08	235.54
763.41	235.48
763.74	235.42
764.06	235.33
764.39	235.26
764.71	235.18
765.04	235.09
765.37	235.01
765.69	234.94
766.02	234.87
766.34	234.78
766.67	234.64
767.00	234.61
767.32	234.64
767.65	234.69
767.97	234.60
768.30	234.54
768.62	234.46
768.95	234.37
769.27	234.31
769.60	234.27
769.92	234.19
770.25	234.11
770.57	234.02
770.90	233.95
771.22	233.88
771.55	233.82
771.87	233.78
772.20	233.71
772.52	233.82
772.85	233.97
773.17	233.93
773.50	233.86
773.82	233.77
774.15	233.64
774.47	233.48
774.80	233.42
775.12	233.36
775.45	233.31
775.77	233.28
776.09	233.25
776.42	233.21
776.74	233.22
777.07	233.17
777.39	233.15
777.72	233.10
778.04	233.10
778.36	233.05
778.69	233.01
779.01	232.98
779.33	232.78
779.66	232.55
779.98	232.49
780.31	232.46
780.63	232.50
780.95	232.50
781.28	232.45
781.60	232.41
781.92	232.37
782.25	232.34
782.57	232.32
782.89	232.27
783.22	232.21
783.54	232.14
783.86	232.12
784.19	232.07
784.51	232.08
784.83	232.01
785.16	231.97
785.48	231.94
785.80	231.91
786.12	231.89
786.45	231.87
786.77	231.85
787.09	231.81
787.42	231.72
787.74	231.70
788.06	231.68
788.38	231.65
788.71	231.61
789.03	231.58
789.35	231.57
789.67	231.52
789.99	231.51
790.32	231.46
790.64	231.45
790.96	231.59
791.28	231.51
791.61	231.48
791.93	231.47
792.25	231.44
792.57	231.53
792.89	231.48
793.21	231.45
793.54	231.41
793.86	231.37
794.18	231.35
794.50	231.28
794.82	231.26
795.14	231.25
795.47	231.26
795.79	231.26
796.11	231.19
796.43	231.17
796.75	231.15
797.07	231.14
797.39	231.11
797.71	230.95
798.04	230.95
798.36	230.94
798.68	230.92
799.00	230.92
799.32	230.81
799.64	230.84
799.96	230.82
800.28	230.83
800.60	230.81
800.92	230.80
801.24	230.78
801.56	230.78
801.89	230.75
802.21	230.75
802.53	230.69
802.85	230.72
803.17	230.78
803.49	230.73
803.81	230.70
804.13	230.67
804.45	230.63
804.77	230.61
805.09	230.58
805.41	230.55
805.73	230.50
806.05	230.43
806.37	230.40
806.69	230.36
807.01	230.32
807.33	230.33
807.65	230.26
807.97	230.31
808.28	230.27
808.60	230.26
808.92	230.21
809.24	230.31
809.56	230.25
809.88	230.17
810.20	230.17
810.52	230.19
810.84	230.15
811.16	230.13
811.48	230.12
811.80	230.17
812.12	230.16
812.43	230.19
812.75	230.20
813.07	230.17
813.39	230.17
813.71	230.13
814.03	230.11
814.35	230.09
814.67	230.02
814.98	229.99
815.30	229.97
815.62	229.94
815.94	229.81
816.26	229.82
816.58	229.78
816.89	229.78
817.21	229.73
817.53	229.75
817.85	229.74
818.17	229.72
818.48	229.64
818.80	229.65
