SpectraSuite Data File
++++++++++++++++++++++++++++++++++++
Date: Tue Oct 06 20:29:39 EDT 2015
User: lab3
Dark Spectrum Present: No
Reference Spectrum Present: No
Number of Sampled Component Spectra: 1
Spectrometers: USB2E7196
Integration Time (usec): 66000 (USB2E7196)
Spectra Averaged: 5000 (USB2E7196)
Boxcar Smoothing: 10 (USB2E7196)
Correct for Electrical Dark: No (USB2E7196)
Strobe/Lamp Enabled: No (USB2E7196)
Correct for Detector Non-linearity: No (USB2E7196)
Correct for Stray Light: No (USB2E7196)
Number of Pixels in Processed Spectrum: 2048
>>>>>Begin Processed Spectral Data<<<<<
339.09	0.00
339.48	214.34
339.86	215.75
340.24	217.14
340.63	218.58
341.01	222.65
341.39	221.35
341.78	222.69
342.16	224.07
342.54	224.35
342.93	212.87
343.31	223.62
343.69	224.16
344.07	224.62
344.46	225.07
344.84	225.48
345.22	225.67
345.60	225.95
345.99	226.17
346.37	226.31
346.75	226.43
347.13	226.52
347.52	226.61
347.90	226.73
348.28	226.79
348.66	226.87
349.05	226.86
349.43	226.94
349.81	227.01
350.19	227.08
350.57	227.16
350.96	227.26
351.34	227.37
351.72	227.48
352.10	227.60
352.48	227.67
352.87	227.72
353.25	227.79
353.63	227.84
354.01	227.90
354.39	227.98
354.77	228.06
355.15	228.18
355.54	228.22
355.92	228.24
356.30	228.31
356.68	228.50
357.06	228.58
357.44	228.61
357.82	228.67
358.20	228.89
358.58	228.94
358.97	229.01
359.35	229.11
359.73	229.20
360.11	229.25
360.49	229.32
360.87	229.37
361.25	229.43
361.63	229.54
362.01	229.59
362.39	229.62
362.77	229.66
363.15	229.69
363.53	229.72
363.91	229.76
364.29	229.78
364.67	229.63
365.05	229.66
365.43	229.70
365.81	229.74
366.19	229.68
366.57	229.77
366.95	229.76
367.33	229.72
367.71	229.71
368.09	229.74
368.47	229.73
368.85	229.73
369.23	229.75
369.61	229.68
369.99	229.72
370.37	229.72
370.75	229.85
371.13	229.81
371.51	229.76
371.89	229.75
372.27	229.73
372.65	229.72
373.03	229.67
373.41	229.63
373.78	229.58
374.16	229.44
374.54	229.34
374.92	229.29
375.30	229.25
375.68	229.18
376.06	229.14
376.44	229.08
376.82	229.05
377.19	229.00
377.57	228.95
377.95	228.85
378.33	228.78
378.71	228.57
379.09	228.53
379.47	228.51
379.84	228.44
380.22	228.37
380.60	228.30
380.98	228.25
381.36	228.20
381.73	228.14
382.11	228.14
382.49	228.10
382.87	228.04
383.25	228.00
383.62	228.17
384.00	228.10
384.38	228.06
384.76	228.06
385.13	228.07
385.51	228.04
385.89	227.99
386.27	227.96
386.64	227.96
387.02	227.91
387.40	227.86
387.78	227.85
388.15	227.84
388.53	227.81
388.91	227.79
389.29	227.76
389.66	227.77
390.04	227.73
390.42	227.75
390.79	227.75
391.17	227.73
391.55	227.52
391.92	227.52
392.30	227.54
392.68	227.50
393.05	227.48
393.43	227.49
393.81	227.52
394.18	227.50
394.56	227.52
394.94	227.58
395.31	227.59
395.69	227.66
396.06	227.71
396.44	227.75
396.82	227.78
397.19	227.91
397.57	227.93
397.95	228.00
398.32	227.99
398.70	228.07
399.07	228.17
399.45	228.24
399.82	228.31
400.20	228.37
400.58	228.46
400.95	228.48
401.33	228.61
401.70	228.83
402.08	228.98
402.45	229.11
402.83	229.28
403.20	229.45
403.58	229.58
403.95	229.78
404.33	230.00
404.71	230.22
405.08	230.52
405.46	230.77
405.83	231.04
406.21	231.33
406.58	231.65
406.96	231.97
407.33	232.34
407.70	232.76
408.08	233.32
408.45	233.82
408.83	234.36
409.20	234.86
409.58	235.31
409.95	235.92
410.33	236.60
410.70	237.23
411.08	237.98
411.45	238.77
411.82	239.58
412.20	240.50
412.57	241.59
412.95	242.47
413.32	243.60
413.69	244.76
414.07	246.00
414.44	247.35
414.82	248.73
415.19	250.34
415.56	251.98
415.94	253.69
416.31	255.61
416.68	257.54
417.06	259.77
417.43	261.86
417.81	264.26
418.18	266.70
418.55	269.37
418.93	272.15
419.30	275.05
419.67	278.14
420.04	281.31
420.42	284.62
420.79	288.44
421.16	292.29
421.54	296.19
421.91	300.28
422.28	304.53
422.66	309.09
423.03	313.44
423.40	317.99
423.77	322.86
424.15	327.84
424.52	333.01
424.89	338.60
425.26	344.14
425.64	349.29
426.01	355.07
426.38	360.97
426.75	367.04
427.13	373.25
427.50	379.74
427.87	386.48
428.24	393.28
428.61	399.78
428.99	406.79
429.36	414.48
429.73	421.84
430.10	429.17
430.47	436.66
430.85	444.40
431.22	452.64
431.59	461.10
431.96	469.37
432.33	478.55
432.70	487.26
433.08	497.60
433.45	507.33
433.82	516.95
434.19	527.74
434.56	538.37
434.93	548.66
435.30	558.89
435.68	570.47
436.05	581.78
436.42	593.13
436.79	603.48
437.16	614.75
437.53	626.78
437.90	638.82
438.27	650.66
438.64	663.45
439.01	675.07
439.38	685.72
439.75	696.03
440.13	707.78
440.50	718.96
440.87	727.91
441.24	737.77
441.61	748.56
441.98	756.57
442.35	766.07
442.72	775.76
443.09	784.98
443.46	791.03
443.83	795.66
444.20	799.52
444.57	805.08
444.94	808.44
445.31	811.91
445.68	814.93
446.05	817.26
446.42	817.13
446.79	816.76
447.16	816.50
447.53	816.32
447.90	813.04
448.27	809.95
448.64	804.91
449.01	801.52
449.37	794.24
449.74	787.62
450.11	779.01
450.48	769.52
450.85	760.00
451.22	751.83
451.59	743.76
451.96	736.48
452.33	725.87
452.70	716.41
453.07	704.91
453.43	693.43
453.80	682.21
454.17	671.47
454.54	661.55
454.91	650.32
455.28	639.71
455.65	629.71
456.02	619.07
456.38	610.52
456.75	599.57
457.12	590.73
457.49	581.82
457.86	573.36
458.23	565.91
458.59	557.72
458.96	549.30
459.33	541.90
459.70	534.37
460.07	528.61
460.43	521.82
460.80	515.48
461.17	509.97
461.54	504.02
461.91	498.42
462.27	492.75
462.64	488.09
463.01	482.78
463.38	477.42
463.74	472.59
464.11	468.30
464.48	464.41
464.85	460.23
465.21	457.01
465.58	453.45
465.95	449.42
466.32	446.20
466.68	443.06
467.05	439.89
467.42	436.80
467.78	433.51
468.15	430.46
468.52	428.23
468.88	425.27
469.25	422.56
469.62	420.42
469.98	418.09
470.35	416.02
470.72	414.13
471.08	412.23
471.45	410.65
471.82	408.86
472.18	407.00
472.55	405.79
472.92	404.29
473.28	403.12
473.65	401.86
474.02	400.64
474.38	399.61
474.75	399.00
475.11	398.17
475.48	397.78
475.85	397.35
476.21	397.08
476.58	396.89
476.94	397.04
477.31	397.06
477.67	397.12
478.04	397.41
478.41	397.81
478.77	398.41
479.14	398.76
479.50	399.51
479.87	400.48
480.23	401.41
480.60	402.31
480.96	403.21
481.33	404.61
481.69	405.98
482.06	407.33
482.42	408.57
482.79	410.12
483.15	411.93
483.52	413.98
483.88	415.93
484.25	418.00
484.61	420.20
484.98	422.56
485.34	425.21
485.71	427.97
486.07	430.93
486.44	433.83
486.80	437.13
487.17	440.50
487.53	444.16
487.90	448.00
488.26	452.18
488.62	456.60
488.99	460.98
489.35	465.60
489.72	470.56
490.08	475.78
490.44	481.11
490.81	486.67
491.17	492.39
491.54	498.54
491.90	504.81
492.26	511.51
492.63	518.52
492.99	525.87
493.36	533.35
493.72	541.23
494.08	549.31
494.45	557.79
494.81	566.65
495.17	575.77
495.54	585.38
495.90	595.42
496.26	605.64
496.63	616.18
496.99	627.10
497.35	638.52
497.72	650.23
498.08	662.28
498.44	674.65
498.80	687.70
499.17	701.05
499.53	714.85
499.89	729.10
500.26	743.56
500.62	758.35
500.98	774.03
501.34	789.71
501.71	806.20
502.07	822.98
502.43	840.25
502.79	857.72
503.16	875.70
503.52	893.88
503.88	912.49
504.24	931.54
504.60	950.86
504.97	970.84
505.33	991.31
505.69	1012.80
506.05	1034.55
506.41	1056.24
506.78	1078.09
507.14	1100.50
507.50	1123.39
507.86	1146.70
508.22	1170.25
508.59	1193.70
508.95	1218.18
509.31	1243.21
509.67	1268.85
510.03	1294.42
510.39	1319.93
510.75	1345.59
511.12	1371.63
511.48	1397.92
511.84	1424.18
512.20	1450.84
512.56	1478.59
512.92	1506.14
513.28	1533.09
513.64	1560.47
514.00	1588.25
514.37	1616.29
514.73	1644.40
515.09	1671.85
515.45	1699.61
515.81	1727.61
516.17	1755.41
516.53	1782.54
516.89	1809.45
517.25	1836.71
517.61	1863.74
517.97	1891.52
518.33	1918.69
518.69	1945.77
519.05	1973.28
519.41	2000.99
519.77	2028.72
520.13	2054.89
520.49	2081.15
520.85	2107.83
521.21	2133.90
521.57	2160.32
521.93	2185.71
522.29	2211.77
522.65	2237.72
523.01	2263.36
523.37	2288.23
523.73	2313.86
524.09	2339.26
524.45	2364.39
524.81	2388.84
525.17	2413.28
525.53	2436.82
525.89	2460.80
526.25	2484.41
526.61	2506.34
526.97	2528.39
527.33	2550.28
527.68	2571.99
528.04	2593.37
528.40	2613.50
528.76	2633.78
529.12	2653.57
529.48	2674.02
529.84	2691.69
530.20	2709.76
530.56	2727.07
530.91	2744.62
531.27	2761.48
531.63	2777.42
531.99	2793.09
532.35	2808.55
532.71	2823.51
533.07	2838.84
533.42	2852.21
533.78	2865.82
534.14	2880.57
534.50	2894.07
534.86	2908.03
535.21	2919.82
535.57	2931.44
535.93	2942.86
536.29	2952.40
536.65	2961.88
537.00	2969.93
537.36	2979.36
537.72	2987.81
538.08	2995.78
538.44	3002.49
538.79	3008.95
539.15	3014.07
539.51	3018.37
539.87	3021.40
540.22	3022.84
540.58	3024.58
540.94	3027.12
541.29	3028.47
541.65	3028.42
542.01	3027.95
542.37	3025.85
542.72	3025.40
543.08	3023.13
543.44	3021.08
543.79	3018.81
544.15	3015.65
544.51	3012.56
544.87	3008.46
545.22	3003.35
545.58	2997.99
545.94	2992.84
546.29	2986.18
546.65	2979.73
547.01	2973.49
547.36	2967.80
547.72	2962.13
548.07	2954.72
548.43	2946.12
548.79	2937.29
549.14	2928.62
549.50	2920.08
549.86	2910.57
550.21	2899.33
550.57	2889.38
550.92	2877.57
551.28	2866.08
551.64	2854.98
551.99	2843.55
552.35	2831.64
552.70	2819.61
553.06	2808.07
553.41	2796.05
553.77	2783.83
554.13	2771.54
554.48	2757.99
554.84	2743.44
555.19	2729.47
555.55	2715.35
555.90	2701.82
556.26	2688.46
556.61	2674.00
556.97	2658.48
557.32	2643.41
557.68	2628.73
558.03	2613.64
558.39	2599.56
558.74	2586.11
559.10	2570.62
559.45	2555.18
559.81	2540.47
560.16	2525.39
560.52	2510.00
560.87	2494.84
561.23	2479.20
561.58	2464.25
561.94	2448.85
562.29	2432.92
562.64	2417.14
563.00	2401.42
563.35	2385.83
563.71	2369.86
564.06	2354.03
564.42	2338.70
564.77	2323.45
565.12	2307.86
565.48	2291.97
565.83	2276.22
566.19	2260.43
566.54	2244.91
566.89	2228.92
567.25	2212.86
567.60	2197.64
567.96	2181.67
568.31	2164.30
568.66	2147.92
569.02	2132.03
569.37	2116.72
569.72	2102.08
570.08	2086.90
570.43	2071.11
570.78	2055.10
571.14	2038.95
571.49	2022.79
571.84	2006.94
572.20	1989.81
572.55	1973.51
572.90	1957.30
573.26	1941.14
573.61	1924.31
573.96	1908.00
574.31	1891.53
574.67	1874.75
575.02	1857.68
575.37	1840.65
575.72	1824.48
576.08	1807.94
576.43	1790.64
576.78	1773.59
577.13	1756.75
577.49	1740.16
577.84	1724.06
578.19	1707.49
578.54	1690.94
578.90	1674.25
579.25	1657.41
579.60	1641.90
579.95	1626.02
580.30	1610.07
580.66	1593.84
581.01	1577.69
581.36	1561.65
581.71	1546.49
582.06	1531.34
582.42	1515.97
582.77	1501.09
583.12	1486.43
583.47	1471.81
583.82	1457.35
584.17	1442.31
584.53	1427.34
584.88	1412.72
585.23	1397.93
585.58	1383.56
585.93	1369.03
586.28	1355.65
586.63	1342.06
586.98	1327.96
587.34	1314.29
587.69	1300.47
588.04	1286.97
588.39	1273.79
588.74	1260.20
589.09	1246.71
589.44	1232.93
589.79	1219.78
590.14	1206.65
590.49	1193.57
590.84	1180.74
591.19	1168.29
591.54	1155.97
591.89	1143.24
592.25	1130.84
592.60	1118.32
592.95	1105.93
593.30	1094.01
593.65	1081.71
594.00	1069.71
594.35	1058.69
594.70	1046.94
595.05	1035.82
595.40	1024.51
595.75	1013.05
596.10	1002.25
596.45	991.43
596.80	981.03
597.15	970.59
597.50	960.14
597.85	949.99
598.19	939.83
598.54	929.66
598.89	920.06
599.24	910.87
599.59	901.45
599.94	892.72
600.29	884.01
600.64	875.05
600.99	866.00
601.34	857.28
601.69	848.03
602.04	839.74
602.39	831.32
602.74	823.13
603.08	815.06
603.43	806.98
603.78	798.89
604.13	790.86
604.48	782.87
604.83	775.14
605.18	767.47
605.53	759.97
605.87	752.43
606.22	745.00
606.57	737.49
606.92	729.92
607.27	722.39
607.62	715.06
607.96	708.01
608.31	701.49
608.66	694.86
609.01	688.50
609.36	682.08
609.70	675.63
610.05	669.18
610.40	662.94
610.75	656.67
611.10	650.64
611.44	644.59
611.79	638.70
612.14	632.71
612.49	626.81
612.83	621.22
613.18	615.69
613.53	610.16
613.88	604.77
614.22	599.78
614.57	594.69
614.92	589.70
615.27	584.85
615.61	579.86
615.96	574.92
616.31	570.00
616.65	565.22
617.00	560.59
617.35	556.05
617.70	551.50
618.04	547.08
618.39	542.77
618.74	538.73
619.08	534.64
619.43	530.69
619.78	526.69
620.12	522.67
620.47	518.86
620.82	515.16
621.16	511.47
621.51	507.82
621.85	504.19
622.20	500.64
622.55	497.06
622.89	493.54
623.24	490.21
623.59	486.94
623.93	483.76
624.28	480.72
624.62	477.85
624.97	475.02
625.32	472.11
625.66	469.17
626.01	466.18
626.35	463.38
626.70	460.49
627.04	457.85
627.39	455.15
627.73	452.54
628.08	449.97
628.43	447.43
628.77	444.84
629.12	442.35
629.46	439.98
629.81	437.75
630.15	435.44
630.50	433.16
630.84	430.93
631.19	428.74
631.53	426.63
631.88	424.37
632.22	422.19
632.57	420.32
632.91	418.39
633.26	416.54
633.60	414.72
633.95	413.00
634.29	411.13
634.64	409.33
634.98	407.42
635.32	405.69
635.67	404.13
636.01	402.55
636.36	401.03
636.70	399.59
637.05	398.00
637.39	396.56
637.73	395.11
638.08	393.75
638.42	392.42
638.77	390.95
639.11	389.45
639.45	388.01
639.80	386.52
640.14	385.13
640.49	383.72
640.83	382.32
641.17	380.97
641.52	379.65
641.86	378.38
642.20	377.25
642.55	375.94
642.89	374.64
643.23	373.42
643.58	372.33
643.92	371.07
644.26	369.92
644.61	368.80
644.95	367.65
645.29	366.43
645.64	365.19
645.98	364.09
646.32	363.10
646.66	362.05
647.01	361.02
647.35	360.09
647.69	359.12
648.04	358.23
648.38	357.26
648.72	356.36
649.06	355.43
649.41	354.49
649.75	353.59
650.09	352.74
650.43	351.86
650.78	350.95
651.12	350.09
651.46	349.24
651.80	348.40
652.14	347.62
652.49	346.91
652.83	346.12
653.17	345.31
653.51	344.53
653.85	343.87
654.20	343.15
654.54	342.32
654.88	341.54
655.22	340.82
655.56	340.08
655.90	339.38
656.25	338.68
656.59	338.01
656.93	337.37
657.27	336.78
657.61	336.11
657.95	335.50
658.29	334.87
658.64	334.26
658.98	333.59
659.32	332.94
659.66	332.32
660.00	331.76
660.34	331.19
660.68	330.57
661.02	329.89
661.36	329.25
661.70	328.67
662.05	328.10
662.39	327.54
662.73	327.06
663.07	326.61
663.41	326.13
663.75	325.59
664.09	325.04
664.43	324.39
664.77	323.86
665.11	323.26
665.45	322.72
665.79	322.21
666.13	321.68
666.47	321.12
666.81	320.54
667.15	319.92
667.49	319.44
667.83	319.01
668.17	318.54
668.51	318.12
668.85	317.71
669.19	317.35
669.53	316.81
669.87	316.25
670.21	315.70
670.55	315.17
670.89	314.76
671.23	314.31
671.57	313.91
671.91	313.56
672.25	313.22
672.58	312.88
672.92	312.44
673.26	312.10
673.60	311.75
673.94	311.38
674.28	311.06
674.62	310.68
674.96	310.25
675.30	309.87
675.64	309.43
675.97	308.98
676.31	308.49
676.65	308.08
676.99	307.75
677.33	307.31
677.67	306.93
678.01	306.45
678.34	306.04
678.68	305.65
679.02	305.20
679.36	304.75
679.70	304.30
680.04	303.90
680.37	303.49
680.71	303.10
681.05	302.74
681.39	302.31
681.73	301.85
682.06	301.43
682.40	301.04
682.74	300.69
683.08	300.39
683.42	300.00
683.75	299.66
684.09	299.20
684.43	298.82
684.77	298.40
685.10	298.02
685.44	297.63
685.78	297.22
686.12	296.82
686.45	296.40
686.79	295.96
687.13	295.56
687.46	295.11
687.80	294.70
688.14	294.23
688.48	293.82
688.81	293.39
689.15	293.03
689.49	292.58
689.82	292.14
690.16	291.60
690.50	291.15
690.83	290.69
691.17	290.24
691.51	289.81
691.84	289.41
692.18	288.97
692.52	288.50
692.85	288.05
693.19	287.68
693.52	287.25
693.86	286.81
694.20	286.37
694.53	285.94
694.87	285.47
695.21	285.02
695.54	284.57
695.88	284.11
696.21	283.61
696.55	283.16
696.88	282.71
697.22	282.29
697.56	281.89
697.89	281.41
698.23	281.00
698.56	280.54
698.90	280.11
699.23	279.65
699.57	279.25
699.90	278.82
700.24	278.35
700.58	277.93
700.91	277.57
701.25	277.32
701.58	276.99
701.92	276.64
702.25	276.26
702.59	275.84
702.92	275.45
703.26	275.03
703.59	274.62
703.93	274.35
704.26	273.96
704.60	273.54
704.93	273.14
705.26	272.73
705.60	272.38
705.93	271.93
706.27	271.62
706.60	271.28
706.94	270.96
707.27	270.54
707.61	270.15
707.94	269.71
708.27	269.15
708.61	268.68
708.94	268.25
709.28	267.86
709.61	267.48
709.94	267.13
710.28	266.79
710.61	266.46
710.95	265.94
711.28	265.69
711.61	265.33
711.95	265.02
712.28	264.64
712.61	264.27
712.95	264.01
713.28	263.72
713.61	263.32
713.95	262.93
714.28	262.60
714.61	262.24
714.95	261.92
715.28	261.58
715.61	261.27
715.95	260.97
716.28	260.64
716.61	260.36
716.95	260.03
717.28	259.71
717.61	259.39
717.94	259.10
718.28	258.68
718.61	258.38
718.94	258.05
719.27	257.77
719.61	257.50
719.94	257.17
720.27	256.79
720.60	256.51
720.94	256.23
721.27	255.95
721.60	255.71
721.93	255.42
722.27	255.20
722.60	254.93
722.93	254.62
723.26	254.38
723.59	254.07
723.93	253.83
724.26	253.59
724.59	253.32
724.92	253.08
725.25	252.89
725.59	252.64
725.92	252.42
726.25	252.17
726.58	251.92
726.91	251.66
727.24	251.44
727.57	251.20
727.91	250.93
728.24	250.72
728.57	250.47
728.90	250.26
729.23	249.98
729.56	249.84
729.89	249.63
730.22	249.40
730.55	249.18
730.89	248.96
731.22	248.72
731.55	248.51
731.88	248.31
732.21	248.06
732.54	247.85
732.87	247.64
733.20	247.46
733.53	247.27
733.86	247.10
734.19	246.88
734.52	246.72
734.85	246.68
735.18	246.47
735.51	246.34
735.84	246.17
736.17	246.04
736.50	245.76
736.83	245.79
737.16	245.61
737.49	245.44
737.82	245.25
738.15	245.10
738.48	244.92
738.81	244.73
739.14	244.54
739.47	244.35
739.80	244.17
740.13	244.01
740.46	243.80
740.79	243.60
741.12	243.43
741.45	243.23
741.78	242.95
742.11	242.82
742.44	242.60
742.77	242.44
743.10	242.25
743.43	242.07
743.75	241.73
744.08	241.84
744.41	241.66
744.74	241.50
745.07	241.31
745.40	241.20
745.73	241.13
746.06	240.99
746.39	240.88
746.71	240.72
747.04	240.55
747.37	240.41
747.70	240.30
748.03	240.17
748.36	240.06
748.68	239.93
749.01	239.74
749.34	239.62
749.67	239.49
750.00	239.39
750.33	239.40
750.65	239.28
750.98	238.90
751.31	238.79
751.64	238.68
751.97	238.66
752.29	238.52
752.62	238.31
752.95	238.18
753.28	238.03
753.60	237.90
753.93	237.82
754.26	237.73
754.59	237.55
754.91	237.41
755.24	237.27
755.57	237.16
755.90	237.04
756.22	236.91
756.55	236.77
756.88	236.62
757.20	236.39
757.53	236.23
757.86	236.11
758.19	236.01
758.51	235.90
758.84	235.70
759.17	235.58
759.49	235.49
759.82	235.47
760.15	235.40
760.47	235.30
760.80	235.15
761.13	235.07
761.45	234.98
761.78	234.89
762.11	234.81
762.43	234.69
762.76	234.60
763.08	234.53
763.41	234.46
763.74	234.38
764.06	234.29
764.39	234.21
764.71	234.12
765.04	234.02
765.37	233.92
765.69	233.83
766.02	233.75
766.34	233.65
766.67	233.50
767.00	233.46
767.32	233.48
767.65	233.52
767.97	233.43
768.30	233.37
768.62	233.29
768.95	233.19
769.27	233.12
769.60	233.08
769.92	232.97
770.25	232.87
770.57	232.77
770.90	232.70
771.22	232.62
771.55	232.57
771.87	232.53
772.20	232.46
772.52	232.56
772.85	232.72
773.17	232.67
773.50	232.60
773.82	232.51
774.15	232.36
774.47	232.19
774.80	232.12
775.12	232.06
775.45	232.01
775.77	231.97
776.09	231.93
776.42	231.88
776.74	231.88
777.07	231.83
777.39	231.80
777.72	231.74
778.04	231.72
778.36	231.65
778.69	231.60
779.01	231.57
779.33	231.38
779.66	231.13
779.98	231.06
780.31	231.04
780.63	231.07
780.95	231.06
781.28	231.01
781.60	230.96
781.92	230.92
782.25	230.88
782.57	230.84
782.89	230.79
783.22	230.75
783.54	230.67
783.86	230.65
784.19	230.60
784.51	230.63
784.83	230.57
785.16	230.53
785.48	230.50
785.80	230.46
786.12	230.44
786.45	230.41
786.77	230.39
787.09	230.35
787.42	230.24
787.74	230.22
788.06	230.20
788.38	230.17
788.71	230.12
789.03	230.10
789.35	230.09
789.67	230.04
789.99	230.02
790.32	229.97
790.64	229.96
790.96	230.10
791.28	230.01
791.61	229.97
791.93	229.95
792.25	229.91
792.57	230.00
792.89	229.95
793.21	229.93
793.54	229.88
793.86	229.84
794.18	229.82
794.50	229.76
794.82	229.73
795.14	229.74
795.47	229.74
795.79	229.71
796.11	229.65
796.43	229.62
796.75	229.59
797.07	229.57
797.39	229.54
797.71	229.37
798.04	229.36
798.36	229.35
798.68	229.33
799.00	229.32
799.32	229.20
799.64	229.21
799.96	229.18
800.28	229.20
800.60	229.17
800.92	229.16
801.24	229.13
801.56	229.13
801.89	229.09
802.21	229.08
802.53	229.02
802.85	229.04
803.17	229.11
803.49	229.05
803.81	229.02
804.13	228.98
804.45	228.94
804.77	228.93
805.09	228.91
805.41	228.87
805.73	228.83
806.05	228.77
806.37	228.73
806.69	228.70
807.01	228.66
807.33	228.66
807.65	228.58
807.97	228.64
808.28	228.59
808.60	228.57
808.92	228.53
809.24	228.63
809.56	228.58
809.88	228.50
810.20	228.50
810.52	228.52
810.84	228.47
811.16	228.45
811.48	228.42
811.80	228.47
812.12	228.45
812.43	228.48
812.75	228.48
813.07	228.45
813.39	228.45
813.71	228.41
814.03	228.38
814.35	228.38
814.67	228.29
814.98	228.26
815.30	228.25
815.62	228.21
815.94	228.08
816.26	228.09
816.58	228.04
816.89	228.04
817.21	227.99
817.53	227.99
817.85	227.99
818.17	227.97
818.48	227.89
