SpectraSuite Data File
++++++++++++++++++++++++++++++++++++
Date: Tue Oct 06 16:32:00 EDT 2015
User: lab3
Dark Spectrum Present: No
Reference Spectrum Present: No
Number of Sampled Component Spectra: 1
Spectrometers: USB2E7196
Integration Time (usec): 66000 (USB2E7196)
Spectra Averaged: 1000 (USB2E7196)
Boxcar Smoothing: 10 (USB2E7196)
Correct for Electrical Dark: No (USB2E7196)
Strobe/Lamp Enabled: No (USB2E7196)
Correct for Detector Non-linearity: No (USB2E7196)
Correct for Stray Light: No (USB2E7196)
Number of Pixels in Processed Spectrum: 2048
>>>>>Begin Processed Spectral Data<<<<<
339.09	0.00
339.48	215.15
339.86	216.91
340.24	218.38
340.63	219.76
341.01	223.58
341.39	222.10
341.78	223.87
342.16	225.04
342.54	225.46
342.93	213.87
343.31	224.66
343.69	225.21
344.07	225.68
344.46	226.12
344.84	226.51
345.22	226.73
345.60	227.01
345.99	227.22
346.37	227.37
346.75	227.49
347.13	227.57
347.52	227.67
347.90	227.78
348.28	227.83
348.66	227.91
349.05	227.90
349.43	227.98
349.81	228.05
350.19	228.11
350.57	228.20
350.96	228.29
351.34	228.40
351.72	228.50
352.10	228.61
352.48	228.68
352.87	228.73
353.25	228.79
353.63	228.85
354.01	228.89
354.39	228.97
354.77	229.05
355.15	229.16
355.54	229.19
355.92	229.21
356.30	229.28
356.68	229.45
357.06	229.53
357.44	229.55
357.82	229.61
358.20	229.82
358.58	229.87
358.97	229.94
359.35	230.03
359.73	230.12
360.11	230.16
360.49	230.23
360.87	230.27
361.25	230.33
361.63	230.44
362.01	230.50
362.39	230.52
362.77	230.57
363.15	230.58
363.53	230.62
363.91	230.66
364.29	230.68
364.67	230.53
365.05	230.56
365.43	230.60
365.81	230.64
366.19	230.60
366.57	230.68
366.95	230.67
367.33	230.62
367.71	230.61
368.09	230.66
368.47	230.65
368.85	230.64
369.23	230.67
369.61	230.59
369.99	230.62
370.37	230.63
370.75	230.74
371.13	230.71
371.51	230.66
371.89	230.65
372.27	230.62
372.65	230.60
373.03	230.56
373.41	230.52
373.78	230.45
374.16	230.32
374.54	230.22
374.92	230.15
375.30	230.11
375.68	230.04
376.06	229.99
376.44	229.91
376.82	229.87
377.19	229.82
377.57	229.76
377.95	229.66
378.33	229.60
378.71	229.40
379.09	229.35
379.47	229.34
379.84	229.27
380.22	229.21
380.60	229.14
380.98	229.10
381.36	229.04
381.73	228.98
382.11	228.97
382.49	228.94
382.87	228.88
383.25	228.85
383.62	229.02
384.00	228.95
384.38	228.93
384.76	228.93
385.13	228.96
385.51	228.94
385.89	228.88
386.27	228.86
386.64	228.86
387.02	228.81
387.40	228.76
387.78	228.76
388.15	228.75
388.53	228.71
388.91	228.69
389.29	228.66
389.66	228.68
390.04	228.65
390.42	228.66
390.79	228.67
391.17	228.65
391.55	228.44
391.92	228.44
392.30	228.47
392.68	228.43
393.05	228.41
393.43	228.41
393.81	228.43
394.18	228.40
394.56	228.42
394.94	228.48
395.31	228.48
395.69	228.54
396.06	228.58
396.44	228.63
396.82	228.65
397.19	228.78
397.57	228.80
397.95	228.87
398.32	228.86
398.70	228.92
399.07	229.02
399.45	229.09
399.82	229.16
400.20	229.21
400.58	229.31
400.95	229.33
401.33	229.47
401.70	229.70
402.08	229.85
402.45	229.98
402.83	230.15
403.20	230.33
403.58	230.47
403.95	230.68
404.33	230.90
404.71	231.12
405.08	231.44
405.46	231.68
405.83	231.97
406.21	232.27
406.58	232.60
406.96	232.94
407.33	233.30
407.70	233.73
408.08	234.29
408.45	234.79
408.83	235.34
409.20	235.84
409.58	236.30
409.95	236.93
410.33	237.61
410.70	238.25
411.08	239.02
411.45	239.83
411.82	240.66
412.20	241.59
412.57	242.69
412.95	243.58
413.32	244.73
413.69	245.91
414.07	247.17
414.44	248.54
414.82	249.94
415.19	251.59
415.56	253.27
415.94	255.02
416.31	256.98
416.68	258.95
417.06	261.20
417.43	263.32
417.81	265.77
418.18	268.25
418.55	270.97
418.93	273.79
419.30	276.76
419.67	279.91
420.04	283.13
420.42	286.50
420.79	290.37
421.16	294.30
421.54	298.27
421.91	302.42
422.28	306.73
422.66	311.39
423.03	315.82
423.40	320.46
423.77	325.45
424.15	330.52
424.52	335.80
424.89	341.50
425.26	347.16
425.64	352.40
426.01	358.29
426.38	364.31
426.75	370.50
427.13	376.84
427.50	383.47
427.87	390.37
428.24	397.31
428.61	403.97
428.99	411.14
429.36	419.01
429.73	426.53
430.10	434.01
430.47	441.65
430.85	449.55
431.22	457.96
431.59	466.57
431.96	475.00
432.33	484.36
432.70	493.28
433.08	503.81
433.45	513.77
433.82	523.61
434.19	534.60
434.56	545.42
434.93	555.91
435.30	566.31
435.68	578.11
436.05	589.64
436.42	601.20
436.79	611.74
437.16	623.22
437.53	635.51
437.90	647.80
438.27	659.86
438.64	672.88
439.01	684.72
439.38	695.59
439.75	706.11
440.13	718.08
440.50	729.46
440.87	738.61
441.24	748.61
441.61	759.58
441.98	767.74
442.35	777.41
442.72	787.30
443.09	796.66
443.46	802.82
443.83	807.57
444.20	811.49
444.57	817.14
444.94	820.54
445.31	824.02
445.68	827.04
446.05	829.42
446.42	829.28
446.79	828.89
447.16	828.61
447.53	828.40
447.90	825.04
448.27	821.85
448.64	816.67
449.01	813.20
449.37	805.77
449.74	799.03
450.11	790.26
450.48	780.58
450.85	770.93
451.22	762.60
451.59	754.36
451.96	746.97
452.33	736.17
452.70	726.56
453.07	714.90
453.43	703.25
453.80	691.84
454.17	680.93
454.54	670.85
454.91	659.45
455.28	648.67
455.65	638.53
456.02	627.75
456.38	619.11
456.75	608.01
457.12	599.04
457.49	589.99
457.86	581.41
458.23	573.83
458.59	565.50
458.96	556.95
459.33	549.46
459.70	541.80
460.07	535.95
460.43	529.06
460.80	522.61
461.17	517.02
461.54	510.96
461.91	505.27
462.27	499.51
462.64	494.76
463.01	489.35
463.38	483.89
463.74	478.98
464.11	474.60
464.48	470.64
464.85	466.39
465.21	463.15
465.58	459.54
465.95	455.44
466.32	452.17
466.68	448.99
467.05	445.74
467.42	442.59
467.78	439.24
468.15	436.14
468.52	433.87
468.88	430.87
469.25	428.11
469.62	425.92
469.98	423.55
470.35	421.45
470.72	419.53
471.08	417.60
471.45	415.97
471.82	414.16
472.18	412.27
472.55	411.03
472.92	409.49
473.28	408.29
473.65	406.99
474.02	405.77
474.38	404.70
474.75	404.10
475.11	403.27
475.48	402.87
475.85	402.45
476.21	402.19
476.58	402.00
476.94	402.18
477.31	402.23
477.67	402.31
478.04	402.63
478.41	403.06
478.77	403.67
479.14	404.05
479.50	404.85
479.87	405.84
480.23	406.84
480.60	407.77
480.96	408.72
481.33	410.18
481.69	411.59
482.06	413.00
482.42	414.28
482.79	415.87
483.15	417.74
483.52	419.84
483.88	421.86
484.25	424.00
484.61	426.25
484.98	428.67
485.34	431.40
485.71	434.25
486.07	437.29
486.44	440.29
486.80	443.67
487.17	447.13
487.53	450.88
487.90	454.81
488.26	459.10
488.62	463.61
488.99	468.09
489.35	472.82
489.72	477.91
490.08	483.26
490.44	488.72
490.81	494.43
491.17	500.29
491.54	506.59
491.90	512.99
492.26	519.82
492.63	527.00
492.99	534.48
493.36	542.09
493.72	550.12
494.08	558.35
494.45	566.97
494.81	575.95
495.17	585.19
495.54	594.94
495.90	605.12
496.26	615.47
496.63	626.14
496.99	637.18
497.35	648.70
497.72	660.51
498.08	672.66
498.44	685.11
498.80	698.25
499.17	711.68
499.53	725.56
499.89	739.89
500.26	754.38
500.62	769.23
500.98	784.93
501.34	800.65
501.71	817.14
502.07	833.91
502.43	851.15
502.79	868.57
503.16	886.46
503.52	904.54
503.88	923.06
504.24	941.97
504.60	961.15
504.97	980.94
505.33	1001.16
505.69	1022.45
506.05	1043.93
506.41	1065.26
506.78	1086.73
507.14	1108.78
507.50	1131.24
507.86	1154.12
508.22	1177.14
508.59	1200.01
508.95	1223.92
509.31	1248.26
509.67	1273.23
510.03	1298.12
510.39	1322.91
510.75	1347.77
511.12	1373.01
511.48	1398.33
511.84	1423.68
512.20	1449.30
512.56	1475.91
512.92	1502.36
513.28	1528.11
513.64	1554.28
514.00	1580.75
514.37	1607.47
514.73	1634.15
515.09	1660.16
515.45	1686.45
515.81	1712.91
516.17	1739.09
516.53	1764.56
516.89	1789.93
517.25	1815.52
517.61	1840.84
517.97	1866.85
518.33	1892.15
518.69	1917.31
519.05	1942.92
519.41	1968.63
519.77	1994.27
520.13	2018.39
520.49	2042.65
520.85	2067.21
521.21	2091.16
521.57	2115.38
521.93	2138.62
522.29	2162.46
522.65	2186.09
523.01	2209.38
523.37	2231.97
523.73	2255.23
524.09	2278.18
524.45	2300.73
524.81	2322.62
525.17	2344.33
525.53	2365.27
525.89	2386.61
526.25	2407.52
526.61	2426.89
526.97	2446.20
527.33	2465.47
527.68	2484.35
528.04	2502.76
528.40	2519.96
528.76	2537.35
529.12	2554.30
529.48	2571.75
529.84	2586.53
530.20	2601.74
530.56	2616.01
530.91	2630.48
531.27	2644.37
531.63	2657.39
531.99	2670.15
532.35	2682.55
532.71	2694.46
533.07	2706.72
533.42	2717.12
533.78	2727.75
534.14	2739.25
534.50	2749.62
534.86	2760.37
535.21	2769.25
535.57	2777.88
535.93	2786.38
536.29	2793.17
536.65	2799.77
537.00	2804.87
537.36	2811.29
537.72	2816.71
538.08	2821.74
538.44	2825.66
538.79	2829.34
539.15	2831.61
539.51	2833.21
539.87	2833.69
540.22	2832.69
540.58	2831.85
540.94	2831.91
541.29	2830.76
541.65	2828.32
542.01	2825.51
542.37	2821.21
542.72	2818.37
543.08	2813.96
543.44	2809.72
543.79	2804.99
544.15	2799.54
544.51	2794.44
544.87	2788.27
545.22	2781.20
545.58	2773.96
545.94	2766.91
546.29	2758.37
546.65	2750.20
547.01	2742.11
547.36	2734.43
547.72	2726.90
548.07	2717.74
548.43	2707.47
548.79	2697.03
549.14	2686.88
549.50	2676.88
549.86	2665.93
550.21	2653.46
550.57	2642.08
550.92	2629.03
551.28	2616.48
551.64	2604.26
551.99	2591.65
552.35	2578.69
552.70	2565.69
553.06	2553.11
553.41	2540.13
553.77	2526.97
554.13	2513.81
554.48	2499.59
554.84	2484.62
555.19	2470.26
555.55	2455.81
555.90	2441.70
556.26	2427.94
556.61	2413.12
556.97	2397.35
557.32	2382.01
557.68	2367.02
558.03	2351.79
558.39	2337.49
558.74	2323.76
559.10	2308.22
559.45	2293.01
559.81	2278.42
560.16	2263.52
560.52	2248.46
560.87	2233.56
561.23	2218.26
561.58	2203.54
561.94	2188.36
562.29	2172.76
562.64	2157.29
563.00	2141.95
563.35	2126.87
563.71	2111.39
564.06	2096.08
564.42	2081.25
564.77	2066.49
565.12	2051.54
565.48	2036.38
565.83	2021.48
566.19	2006.53
566.54	1991.87
566.89	1976.61
567.25	1961.24
567.60	1946.68
567.96	1931.39
568.31	1915.00
568.66	1899.63
569.02	1884.75
569.37	1870.44
569.72	1856.73
570.08	1842.53
570.43	1827.79
570.78	1812.93
571.14	1797.87
571.49	1782.85
571.84	1768.20
572.20	1752.52
572.55	1737.58
572.90	1722.66
573.26	1707.63
573.61	1692.06
573.96	1677.01
574.31	1661.90
574.67	1646.74
575.02	1631.24
575.37	1615.84
575.72	1601.10
576.08	1586.14
576.43	1570.57
576.78	1555.19
577.13	1539.98
577.49	1525.06
577.84	1510.57
578.19	1495.61
578.54	1480.71
578.90	1465.85
579.25	1450.86
579.60	1436.95
579.95	1422.79
580.30	1408.59
580.66	1394.20
581.01	1379.88
581.36	1365.72
581.71	1352.27
582.06	1338.79
582.42	1325.19
582.77	1312.04
583.12	1299.08
583.47	1286.07
583.82	1273.26
584.17	1260.07
584.53	1246.95
584.88	1234.11
585.23	1221.11
585.58	1208.50
585.93	1195.88
586.28	1184.13
586.63	1172.25
586.98	1160.05
587.34	1148.17
587.69	1136.13
588.04	1124.50
588.39	1113.09
588.74	1101.30
589.09	1089.68
589.44	1077.74
589.79	1066.39
590.14	1055.06
590.49	1043.86
590.84	1032.89
591.19	1022.17
591.54	1011.54
591.89	1000.54
592.25	989.89
592.60	979.18
592.95	968.64
593.30	958.39
593.65	947.85
594.00	937.58
594.35	928.14
594.70	918.07
595.05	908.60
595.40	898.92
595.75	889.15
596.10	879.94
596.45	870.71
596.80	861.88
597.15	853.02
597.50	844.18
597.85	835.57
598.19	826.94
598.54	818.31
598.89	810.16
599.24	802.41
599.59	794.47
599.94	787.10
600.29	779.70
600.64	772.18
600.99	764.62
601.34	757.25
601.69	749.40
602.04	742.40
602.39	735.30
602.74	728.39
603.08	721.60
603.43	714.80
603.78	708.00
604.13	701.25
604.48	694.59
604.83	688.13
605.18	681.72
605.53	675.45
605.87	669.15
606.22	662.96
606.57	656.71
606.92	650.40
607.27	644.09
607.62	638.00
607.96	632.18
608.31	626.74
608.66	621.24
609.01	615.98
609.36	610.70
609.70	605.36
610.05	600.04
610.40	594.90
610.75	589.74
611.10	584.77
611.44	579.82
611.79	574.95
612.14	570.03
612.49	565.19
612.83	560.61
613.18	556.06
613.53	551.53
613.88	547.14
614.22	543.04
614.57	538.91
614.92	534.83
615.27	530.89
615.61	526.84
615.96	522.86
616.31	518.86
616.65	514.99
617.00	511.24
617.35	507.53
617.70	503.84
618.04	500.25
618.39	496.77
618.74	493.49
619.08	490.22
619.43	487.02
619.78	483.78
620.12	480.52
620.47	477.50
620.82	474.51
621.16	471.53
621.51	468.61
621.85	465.68
622.20	462.85
622.55	459.93
622.89	457.11
623.24	454.45
623.59	451.85
623.93	449.32
624.28	446.91
624.62	444.70
624.97	442.52
625.32	440.23
625.66	437.89
626.01	435.54
626.35	433.30
626.70	431.02
627.04	428.96
627.39	426.83
627.73	424.76
628.08	422.76
628.43	420.78
628.77	418.72
629.12	416.79
629.46	414.93
629.81	413.23
630.15	411.43
630.50	409.65
630.84	407.92
631.19	406.20
631.53	404.53
631.88	402.71
632.22	400.98
632.57	399.53
632.91	398.04
633.26	396.63
633.60	395.23
633.95	393.91
634.29	392.43
634.64	391.04
634.98	389.52
635.32	388.19
635.67	386.96
636.01	385.72
636.36	384.54
636.70	383.44
637.05	382.18
637.39	381.04
637.73	379.91
638.08	378.85
638.42	377.84
638.77	376.69
639.11	375.50
639.45	374.35
639.80	373.15
640.14	372.03
640.49	370.90
640.83	369.76
641.17	368.64
641.52	367.59
641.86	366.56
642.20	365.69
642.55	364.61
642.89	363.56
643.23	362.61
643.58	361.74
643.92	360.70
644.26	359.76
644.61	358.87
644.95	357.92
645.29	356.90
645.64	355.87
645.98	354.96
646.32	354.15
646.66	353.29
647.01	352.46
647.35	351.70
647.69	350.89
648.04	350.18
648.38	349.41
648.72	348.66
649.06	347.89
649.41	347.06
649.75	346.32
650.09	345.61
650.43	344.86
650.78	344.08
651.12	343.35
651.46	342.62
651.80	341.90
652.14	341.24
652.49	340.64
652.83	339.96
653.17	339.26
653.51	338.60
653.85	338.02
654.20	337.38
654.54	336.65
654.88	335.97
655.22	335.33
655.56	334.67
655.90	334.02
656.25	333.39
656.59	332.79
656.93	332.22
657.27	331.71
657.61	331.10
657.95	330.55
658.29	329.98
658.64	329.44
658.98	328.82
659.32	328.22
659.66	327.65
660.00	327.14
660.34	326.61
660.68	326.04
661.02	325.41
661.36	324.82
661.70	324.29
662.05	323.76
662.39	323.22
662.73	322.77
663.07	322.36
663.41	321.91
663.75	321.39
664.09	320.88
664.43	320.25
664.77	319.73
665.11	319.14
665.45	318.62
665.79	318.11
666.13	317.60
666.47	317.08
666.81	316.52
667.15	315.91
667.49	315.45
667.83	315.02
668.17	314.58
668.51	314.16
668.85	313.74
669.19	313.38
669.53	312.85
669.87	312.31
670.21	311.76
670.55	311.25
670.89	310.86
671.23	310.42
671.57	310.04
671.91	309.68
672.25	309.34
672.58	309.02
672.92	308.57
673.26	308.21
673.60	307.83
673.94	307.46
674.28	307.13
674.62	306.74
674.96	306.29
675.30	305.90
675.64	305.45
675.97	304.98
676.31	304.49
676.65	304.07
676.99	303.75
677.33	303.33
677.67	302.93
678.01	302.43
678.34	302.01
678.68	301.61
679.02	301.17
679.36	300.72
679.70	300.25
680.04	299.86
680.37	299.47
680.71	299.09
681.05	298.72
681.39	298.29
681.73	297.83
682.06	297.40
682.40	297.00
682.74	296.65
683.08	296.36
683.42	295.99
683.75	295.63
684.09	295.16
684.43	294.75
684.77	294.35
685.10	293.96
685.44	293.57
685.78	293.16
686.12	292.75
686.45	292.33
686.79	291.89
687.13	291.49
687.46	291.04
687.80	290.62
688.14	290.15
688.48	289.73
688.81	289.32
689.15	288.98
689.49	288.54
689.82	288.11
690.16	287.58
690.50	287.12
690.83	286.68
691.17	286.23
691.51	285.83
691.84	285.44
692.18	285.01
692.52	284.56
692.85	284.12
693.19	283.76
693.52	283.33
693.86	282.92
694.20	282.49
694.53	282.08
694.87	281.62
695.21	281.19
695.54	280.77
695.88	280.33
696.21	279.84
696.55	279.41
696.88	278.98
697.22	278.55
697.56	278.17
697.89	277.70
698.23	277.31
698.56	276.88
698.90	276.46
699.23	276.02
699.57	275.63
699.90	275.22
700.24	274.76
700.58	274.37
700.91	274.02
701.25	273.79
701.58	273.47
701.92	273.15
702.25	272.79
702.59	272.40
702.92	272.02
703.26	271.63
703.59	271.24
703.93	270.99
704.26	270.64
704.60	270.26
704.93	269.89
705.26	269.49
705.60	269.15
705.93	268.73
706.27	268.44
706.60	268.12
706.94	267.81
707.27	267.41
707.61	267.05
707.94	266.65
708.27	266.12
708.61	265.68
708.94	265.28
709.28	264.91
709.61	264.55
709.94	264.23
710.28	263.92
710.61	263.61
710.95	263.13
711.28	262.91
711.61	262.57
711.95	262.29
712.28	261.96
712.61	261.60
712.95	261.38
713.28	261.12
713.61	260.76
713.95	260.40
714.28	260.10
714.61	259.77
714.95	259.47
715.28	259.16
715.61	258.86
715.95	258.59
716.28	258.30
716.61	258.05
716.95	257.73
717.28	257.43
717.61	257.13
717.94	256.85
718.28	256.46
718.61	256.17
718.94	255.86
719.27	255.60
719.61	255.37
719.94	255.07
720.27	254.72
720.60	254.47
720.94	254.21
721.27	253.96
721.60	253.75
721.93	253.50
722.27	253.29
722.60	253.05
722.93	252.79
723.26	252.56
723.59	252.28
723.93	252.08
724.26	251.87
724.59	251.63
724.92	251.42
725.25	251.24
725.59	251.01
725.92	250.82
726.25	250.59
726.58	250.36
726.91	250.13
727.24	249.93
727.57	249.70
727.91	249.45
728.24	249.26
728.57	249.04
728.90	248.85
729.23	248.59
729.56	248.47
729.89	248.27
730.22	248.07
730.55	247.87
730.89	247.66
731.22	247.44
731.55	247.25
731.88	247.06
732.21	246.85
732.54	246.66
732.87	246.47
733.20	246.29
733.53	246.12
733.86	245.95
734.19	245.76
734.52	245.63
734.85	245.60
735.18	245.40
735.51	245.29
735.84	245.13
736.17	245.02
736.50	244.76
736.83	244.80
737.16	244.65
737.49	244.49
737.82	244.32
738.15	244.19
738.48	244.04
738.81	243.87
739.14	243.69
739.47	243.52
739.80	243.37
740.13	243.24
740.46	243.06
740.79	242.89
741.12	242.72
741.45	242.54
741.78	242.28
742.11	242.17
742.44	241.97
742.77	241.84
743.10	241.66
743.43	241.51
743.75	241.18
744.08	241.30
744.41	241.14
744.74	241.00
745.07	240.83
745.40	240.72
745.73	240.66
746.06	240.54
746.39	240.44
746.71	240.29
747.04	240.12
747.37	239.99
747.70	239.89
748.03	239.77
748.36	239.69
748.68	239.56
749.01	239.39
749.34	239.29
749.67	239.16
750.00	239.07
750.33	239.08
750.65	238.98
750.98	238.60
751.31	238.51
751.64	238.41
751.97	238.40
752.29	238.27
752.62	238.08
752.95	237.96
753.28	237.81
753.60	237.71
753.93	237.66
754.26	237.57
754.59	237.41
754.91	237.28
755.24	237.15
755.57	237.05
755.90	236.94
756.22	236.80
756.55	236.67
756.88	236.53
757.20	236.31
757.53	236.15
757.86	236.06
758.19	235.97
758.51	235.88
758.84	235.69
759.17	235.58
759.49	235.50
759.82	235.51
760.15	235.45
760.47	235.35
760.80	235.21
761.13	235.15
761.45	235.07
761.78	235.01
762.11	234.93
762.43	234.83
762.76	234.76
763.08	234.70
763.41	234.64
763.74	234.59
764.06	234.51
764.39	234.45
764.71	234.37
765.04	234.29
765.37	234.19
765.69	234.12
766.02	234.05
766.34	233.95
766.67	233.80
767.00	233.76
767.32	233.80
767.65	233.83
767.97	233.76
768.30	233.71
768.62	233.65
768.95	233.56
769.27	233.49
769.60	233.45
769.92	233.38
770.25	233.27
770.57	233.17
770.90	233.12
771.22	233.04
771.55	232.99
771.87	232.94
772.20	232.88
772.52	232.97
772.85	233.12
773.17	233.08
773.50	233.02
773.82	232.94
774.15	232.79
774.47	232.64
774.80	232.56
775.12	232.50
775.45	232.44
775.77	232.42
776.09	232.39
776.42	232.33
776.74	232.35
777.07	232.30
777.39	232.27
777.72	232.22
778.04	232.21
778.36	232.15
778.69	232.12
779.01	232.09
779.33	231.88
779.66	231.64
779.98	231.60
780.31	231.56
780.63	231.59
780.95	231.59
781.28	231.55
781.60	231.50
781.92	231.47
782.25	231.44
782.57	231.40
782.89	231.35
783.22	231.31
783.54	231.23
783.86	231.22
784.19	231.18
784.51	231.20
784.83	231.14
785.16	231.11
785.48	231.08
785.80	231.05
786.12	231.05
786.45	231.02
786.77	231.00
787.09	230.95
787.42	230.86
787.74	230.83
788.06	230.80
788.38	230.78
788.71	230.74
789.03	230.70
789.35	230.68
789.67	230.63
789.99	230.60
790.32	230.54
790.64	230.53
790.96	230.67
791.28	230.58
791.61	230.55
791.93	230.53
792.25	230.49
792.57	230.59
792.89	230.55
793.21	230.54
793.54	230.50
793.86	230.48
794.18	230.46
794.50	230.41
794.82	230.39
795.14	230.39
795.47	230.39
795.79	230.38
796.11	230.32
796.43	230.31
796.75	230.29
797.07	230.29
797.39	230.25
797.71	230.08
798.04	230.06
798.36	230.05
798.68	230.02
799.00	230.01
799.32	229.90
799.64	229.90
799.96	229.88
800.28	229.89
800.60	229.87
800.92	229.86
801.24	229.83
801.56	229.83
801.89	229.80
802.21	229.78
802.53	229.73
802.85	229.76
803.17	229.82
803.49	229.78
803.81	229.74
804.13	229.71
804.45	229.67
804.77	229.68
805.09	229.66
805.41	229.63
805.73	229.58
806.05	229.53
806.37	229.50
806.69	229.48
807.01	229.44
807.33	229.43
807.65	229.35
807.97	229.41
808.28	229.38
808.60	229.37
808.92	229.34
809.24	229.44
809.56	229.39
809.88	229.31
810.20	229.31
810.52	229.35
810.84	229.31
811.16	229.29
811.48	229.24
811.80	229.30
812.12	229.30
812.43	229.32
812.75	229.31
813.07	229.28
813.39	229.27
813.71	229.23
814.03	229.20
814.35	229.20
814.67	229.12
814.98	229.09
815.30	229.07
815.62	229.03
815.94	228.89
816.26	228.90
816.58	228.86
816.89	228.86
817.21	228.78
817.53	228.79
817.85	228.80
818.17	228.79
818.48	228.71
