SpectraSuite Data File
++++++++++++++++++++++++++++++++++++
Date: Tue Oct 06 12:13:35 EDT 2015
User: lab3
Dark Spectrum Present: No
Reference Spectrum Present: No
Number of Sampled Component Spectra: 1
Spectrometers: USB2E7196
Integration Time (usec): 66000 (USB2E7196)
Spectra Averaged: 400 (USB2E7196)
Boxcar Smoothing: 10 (USB2E7196)
Correct for Electrical Dark: No (USB2E7196)
Strobe/Lamp Enabled: No (USB2E7196)
Correct for Detector Non-linearity: No (USB2E7196)
Correct for Stray Light: No (USB2E7196)
Number of Pixels in Processed Spectrum: 2048
>>>>>Begin Processed Spectral Data<<<<<
339.09	0.00
339.48	216.54
339.86	218.06
340.24	219.39
340.63	220.86
341.01	224.78
341.39	223.44
341.78	225.09
342.16	226.38
342.54	226.84
342.93	215.06
343.31	225.92
343.69	226.46
344.07	226.93
344.46	227.38
344.84	227.78
345.22	227.99
345.60	228.27
345.99	228.47
346.37	228.62
346.75	228.73
347.13	228.82
347.52	228.93
347.90	229.06
348.28	229.11
348.66	229.21
349.05	229.21
349.43	229.28
349.81	229.35
350.19	229.39
350.57	229.47
350.96	229.57
351.34	229.66
351.72	229.78
352.10	229.88
352.48	229.95
352.87	230.00
353.25	230.09
353.63	230.15
354.01	230.23
354.39	230.31
354.77	230.39
355.15	230.53
355.54	230.55
355.92	230.55
356.30	230.64
356.68	230.81
357.06	230.89
357.44	230.94
357.82	230.99
358.20	231.21
358.58	231.26
358.97	231.33
359.35	231.45
359.73	231.55
360.11	231.62
360.49	231.67
360.87	231.75
361.25	231.80
361.63	231.91
362.01	231.98
362.39	231.99
362.77	232.05
363.15	232.06
363.53	232.10
363.91	232.13
364.29	232.14
364.67	232.00
365.05	232.01
365.43	232.03
365.81	232.08
366.19	232.03
366.57	232.12
366.95	232.10
367.33	232.06
367.71	232.03
368.09	232.07
368.47	232.06
368.85	232.02
369.23	232.04
369.61	231.96
369.99	231.98
370.37	231.98
370.75	232.07
371.13	232.03
371.51	231.98
371.89	231.97
372.27	231.95
372.65	231.94
373.03	231.92
373.41	231.88
373.78	231.82
374.16	231.69
374.54	231.60
374.92	231.54
375.30	231.49
375.68	231.41
376.06	231.34
376.44	231.28
376.82	231.25
377.19	231.21
377.57	231.16
377.95	231.06
378.33	230.98
378.71	230.78
379.09	230.75
379.47	230.71
379.84	230.65
380.22	230.57
380.60	230.48
380.98	230.44
381.36	230.38
381.73	230.30
382.11	230.29
382.49	230.24
382.87	230.17
383.25	230.13
383.62	230.28
384.00	230.23
384.38	230.22
384.76	230.22
385.13	230.22
385.51	230.18
385.89	230.11
386.27	230.10
386.64	230.10
387.02	230.04
387.40	230.01
387.78	229.99
388.15	229.99
388.53	229.96
388.91	229.95
389.29	229.92
389.66	229.92
390.04	229.87
390.42	229.88
390.79	229.89
391.17	229.87
391.55	229.67
391.92	229.66
392.30	229.66
392.68	229.61
393.05	229.58
393.43	229.59
393.81	229.62
394.18	229.59
394.56	229.60
394.94	229.66
395.31	229.67
395.69	229.74
396.06	229.77
396.44	229.83
396.82	229.84
397.19	229.96
397.57	229.99
397.95	230.07
398.32	230.06
398.70	230.13
399.07	230.22
399.45	230.29
399.82	230.37
400.20	230.41
400.58	230.51
400.95	230.54
401.33	230.67
401.70	230.88
402.08	231.02
402.45	231.16
402.83	231.33
403.20	231.49
403.58	231.63
403.95	231.84
404.33	232.04
404.71	232.26
405.08	232.57
405.46	232.81
405.83	233.09
406.21	233.38
406.58	233.70
406.96	234.03
407.33	234.39
407.70	234.79
408.08	235.34
408.45	235.82
408.83	236.36
409.20	236.86
409.58	237.30
409.95	237.91
410.33	238.55
410.70	239.17
411.08	239.88
411.45	240.65
411.82	241.43
412.20	242.34
412.57	243.43
412.95	244.25
413.32	245.37
413.69	246.50
414.07	247.72
414.44	249.05
414.82	250.41
415.19	252.02
415.56	253.65
415.94	255.35
416.31	257.27
416.68	259.17
417.06	261.38
417.43	263.45
417.81	265.83
418.18	268.27
418.55	270.94
418.93	273.73
419.30	276.63
419.67	279.70
420.04	282.83
420.42	286.13
420.79	289.94
421.16	293.79
421.54	297.69
421.91	301.77
422.28	306.00
422.66	310.54
423.03	314.84
423.40	319.39
423.77	324.23
424.15	329.21
424.52	334.37
424.89	339.95
425.26	345.51
425.64	350.67
426.01	356.44
426.38	362.35
426.75	368.45
427.13	374.65
427.50	381.17
427.87	387.93
428.24	394.70
428.61	401.22
428.99	408.20
429.36	415.96
429.73	423.36
430.10	430.72
430.47	438.28
430.85	446.10
431.22	454.41
431.59	462.93
431.96	471.24
432.33	480.51
432.70	489.31
433.08	499.79
433.45	509.64
433.82	519.32
434.19	530.13
434.56	540.74
434.93	551.06
435.30	561.31
435.68	572.95
436.05	584.32
436.42	595.71
436.79	606.11
437.16	617.32
437.53	629.38
437.90	641.50
438.27	653.27
438.64	665.99
439.01	677.54
439.38	688.24
439.75	698.49
440.13	710.12
440.50	721.26
440.87	730.09
441.24	739.75
441.61	750.41
441.98	758.23
442.35	767.47
442.72	776.95
443.09	786.06
443.46	792.02
443.83	796.44
444.20	800.00
444.57	805.38
444.94	808.61
445.31	811.85
445.68	814.58
446.05	816.63
446.42	816.27
446.79	815.76
447.16	815.22
447.53	814.89
447.90	811.44
448.27	807.98
448.64	802.67
449.01	799.14
449.37	791.73
449.74	785.10
450.11	776.55
450.48	767.03
450.85	757.38
451.22	749.01
451.59	740.93
451.96	733.72
452.33	723.15
452.70	713.68
453.07	702.22
453.43	690.83
453.80	679.75
454.17	669.16
454.54	659.26
454.91	648.13
455.28	637.55
455.65	627.55
456.02	617.13
456.38	608.71
456.75	597.79
457.12	589.00
457.49	580.10
457.86	571.74
458.23	564.42
458.59	556.32
458.96	548.07
459.33	540.77
459.70	533.36
460.07	527.63
460.43	520.89
460.80	514.58
461.17	509.04
461.54	503.13
461.91	497.61
462.27	492.00
462.64	487.40
463.01	482.17
463.38	476.95
463.74	472.21
464.11	468.01
464.48	464.28
464.85	460.18
465.21	457.04
465.58	453.52
465.95	449.54
466.32	446.36
466.68	443.22
467.05	440.10
467.42	437.02
467.78	433.75
468.15	430.75
468.52	428.55
468.88	425.63
469.25	423.00
469.62	420.86
469.98	418.55
470.35	416.47
470.72	414.59
471.08	412.68
471.45	411.06
471.82	409.28
472.18	407.38
472.55	406.14
472.92	404.63
473.28	403.45
473.65	402.17
474.02	401.02
474.38	400.01
474.75	399.41
475.11	398.55
475.48	398.16
475.85	397.75
476.21	397.51
476.58	397.37
476.94	397.57
477.31	397.62
477.67	397.76
478.04	398.03
478.41	398.46
478.77	399.06
479.14	399.44
479.50	400.18
479.87	401.14
480.23	402.15
480.60	403.08
480.96	404.03
481.33	405.47
481.69	406.84
482.06	408.24
482.42	409.51
482.79	411.10
483.15	412.94
483.52	415.06
483.88	417.10
484.25	419.26
484.61	421.48
484.98	423.88
485.34	426.56
485.71	429.40
486.07	432.42
486.44	435.37
486.80	438.66
487.17	442.06
487.53	445.81
487.90	449.70
488.26	453.95
488.62	458.40
488.99	462.85
489.35	467.59
489.72	472.69
490.08	478.01
490.44	483.45
490.81	489.05
491.17	494.77
491.54	500.89
491.90	507.15
492.26	513.86
492.63	520.89
492.99	528.18
493.36	535.70
493.72	543.65
494.08	551.76
494.45	560.26
494.81	569.15
495.17	578.24
495.54	587.85
495.90	597.82
496.26	608.08
496.63	618.57
496.99	629.40
497.35	640.66
497.72	652.32
498.08	664.41
498.44	676.78
498.80	689.92
499.17	703.41
499.53	717.34
499.89	731.58
500.26	745.91
500.62	760.54
500.98	775.91
501.34	791.39
501.71	807.60
502.07	824.09
502.43	841.04
502.79	858.11
503.16	875.60
503.52	893.40
503.88	911.63
504.24	930.31
504.60	949.22
504.97	968.58
505.33	988.40
505.69	1009.15
506.05	1029.99
506.41	1050.70
506.78	1071.68
507.14	1093.47
507.50	1115.76
507.86	1138.54
508.22	1161.38
508.59	1183.99
508.95	1207.48
509.31	1231.39
509.67	1255.95
510.03	1280.38
510.39	1305.24
510.75	1330.06
511.12	1354.95
511.48	1379.85
511.84	1404.83
512.20	1430.26
512.56	1456.07
512.92	1481.68
513.28	1506.95
513.64	1532.57
514.00	1558.27
514.37	1584.26
514.73	1609.92
515.09	1635.03
515.45	1660.32
515.81	1685.74
516.17	1711.26
516.53	1736.10
516.89	1760.84
517.25	1785.69
517.61	1810.30
517.97	1835.06
518.33	1859.47
518.69	1883.79
519.05	1908.30
519.41	1932.65
519.77	1956.95
520.13	1980.95
520.49	2004.71
520.85	2028.54
521.21	2052.23
521.57	2076.03
521.93	2098.69
522.29	2121.84
522.65	2144.49
523.01	2166.95
523.37	2188.65
523.73	2210.71
524.09	2232.89
524.45	2255.11
524.81	2276.30
525.17	2297.47
525.53	2317.85
525.89	2338.55
526.25	2358.83
526.61	2377.91
526.97	2397.18
527.33	2415.95
527.68	2433.87
528.04	2451.21
528.40	2467.51
528.76	2484.22
529.12	2499.81
529.48	2515.81
529.84	2530.51
530.20	2546.37
530.56	2561.04
530.91	2575.56
531.27	2589.21
531.63	2601.82
531.99	2614.18
532.35	2625.10
532.71	2635.88
533.07	2646.96
533.42	2656.58
533.78	2666.88
534.14	2677.41
534.50	2686.60
534.86	2695.82
535.21	2703.21
535.57	2710.66
535.93	2718.57
536.29	2725.28
536.65	2732.24
537.00	2737.07
537.36	2742.38
537.72	2745.91
538.08	2749.26
538.44	2751.71
538.79	2754.43
539.15	2756.52
539.51	2758.01
539.87	2760.07
540.22	2760.18
540.58	2760.83
540.94	2760.96
541.29	2759.73
541.65	2757.07
542.01	2754.40
542.37	2750.78
542.72	2748.84
543.08	2745.57
543.44	2741.98
543.79	2736.70
544.15	2731.25
544.51	2726.71
544.87	2720.17
545.22	2713.07
545.58	2706.22
545.94	2700.08
546.29	2692.28
546.65	2683.85
547.01	2675.49
547.36	2666.79
547.72	2657.99
548.07	2648.04
548.43	2637.94
548.79	2626.74
549.14	2616.53
549.50	2606.08
549.86	2595.15
550.21	2582.34
550.57	2570.94
550.92	2557.78
551.28	2545.36
551.64	2533.19
551.99	2521.05
552.35	2508.97
552.70	2496.62
553.06	2484.61
553.41	2471.52
553.77	2458.00
554.13	2444.84
554.48	2430.83
554.84	2416.42
555.19	2402.89
555.55	2388.51
555.90	2374.30
556.26	2360.98
556.61	2346.96
556.97	2332.10
557.32	2317.51
557.68	2303.20
558.03	2288.23
558.39	2274.18
558.74	2260.36
559.10	2244.49
559.45	2229.17
559.81	2214.54
560.16	2199.65
560.52	2184.42
560.87	2169.93
561.23	2155.07
561.58	2140.52
561.94	2125.25
562.29	2110.08
562.64	2094.98
563.00	2079.99
563.35	2065.58
563.71	2050.97
564.06	2035.91
564.42	2021.45
564.77	2007.08
565.12	1993.05
565.48	1978.94
565.83	1964.47
566.19	1950.12
566.54	1936.32
566.89	1921.23
567.25	1905.77
567.60	1891.51
567.96	1876.72
568.31	1861.41
568.66	1846.90
569.02	1832.33
569.37	1817.99
569.72	1803.99
570.08	1789.82
570.43	1775.53
570.78	1760.49
571.14	1745.55
571.49	1730.97
571.84	1717.19
572.20	1702.14
572.55	1687.30
572.90	1671.97
573.26	1656.70
573.61	1641.15
573.96	1626.19
574.31	1611.92
574.67	1598.09
575.02	1583.39
575.37	1568.42
575.72	1553.42
576.08	1538.71
576.43	1524.15
576.78	1509.60
577.13	1495.15
577.49	1480.65
577.84	1466.22
578.19	1452.00
578.54	1437.74
578.90	1423.41
579.25	1408.59
579.60	1394.90
579.95	1381.13
580.30	1367.55
580.66	1354.08
581.01	1340.78
581.36	1327.33
581.71	1313.84
582.06	1300.35
582.42	1287.09
582.77	1274.20
583.12	1261.62
583.47	1248.91
583.82	1236.25
584.17	1223.67
584.53	1211.07
584.88	1198.92
585.23	1186.54
585.58	1174.40
585.93	1162.27
586.28	1150.80
586.63	1139.15
586.98	1127.45
587.34	1116.05
587.69	1104.51
588.04	1093.27
588.39	1082.19
588.74	1071.03
589.09	1060.23
589.44	1048.95
589.79	1038.21
590.14	1027.57
590.49	1017.01
590.84	1006.77
591.19	996.60
591.54	986.45
591.89	976.10
592.25	965.75
592.60	955.42
592.95	945.42
593.30	935.44
593.65	925.35
594.00	915.50
594.35	906.27
594.70	896.68
595.05	887.71
595.40	878.55
595.75	869.24
596.10	860.38
596.45	851.41
596.80	842.83
597.15	834.25
597.50	825.77
597.85	817.56
598.19	809.30
598.54	801.00
598.89	792.90
599.24	785.20
599.59	777.60
599.94	770.44
600.29	763.01
600.64	755.73
600.99	748.44
601.34	741.35
601.69	733.68
602.04	726.58
602.39	719.65
602.74	712.90
603.08	706.26
603.43	699.68
603.78	693.18
604.13	686.82
604.48	680.44
604.83	674.26
605.18	668.04
605.53	661.99
605.87	655.85
606.22	649.93
606.57	643.96
606.92	637.93
607.27	632.06
607.62	626.50
607.96	621.03
608.31	615.85
608.66	610.55
609.01	605.51
609.36	600.65
609.70	595.62
610.05	590.60
610.40	585.73
610.75	580.75
611.10	576.09
611.44	571.39
611.79	566.79
612.14	562.17
612.49	557.57
612.83	553.11
613.18	548.93
613.53	544.76
613.88	540.60
614.22	536.66
614.57	532.61
614.92	528.59
615.27	524.71
615.61	520.80
615.96	517.02
616.31	513.28
616.65	509.51
617.00	505.88
617.35	502.30
617.70	498.82
618.04	495.50
618.39	492.07
618.74	488.81
619.08	485.48
619.43	482.23
619.78	479.10
620.12	476.01
620.47	473.07
620.82	470.13
621.16	467.25
621.51	464.47
621.85	461.76
622.20	459.12
622.55	456.44
622.89	453.82
623.24	451.38
623.59	448.92
623.93	446.53
624.28	444.22
624.62	442.12
624.97	440.02
625.32	437.74
625.66	435.49
626.01	433.28
626.35	431.29
626.70	429.22
627.04	427.30
627.39	425.30
627.73	423.28
628.08	421.40
628.43	419.59
628.77	417.75
629.12	416.01
629.46	414.22
629.81	412.59
630.15	410.86
630.50	409.12
630.84	407.48
631.19	405.90
631.53	404.36
631.88	402.65
632.22	400.99
632.57	399.69
632.91	398.38
633.26	397.09
633.60	395.72
633.95	394.44
634.29	393.05
634.64	391.79
634.98	390.39
635.32	389.13
635.67	387.94
636.01	386.73
636.36	385.55
636.70	384.53
637.05	383.33
637.39	382.28
637.73	381.26
638.08	380.26
638.42	379.24
638.77	378.12
639.11	376.96
639.45	375.90
639.80	374.79
640.14	373.73
640.49	372.64
640.83	371.58
641.17	370.52
641.52	369.51
641.86	368.51
642.20	367.73
642.55	366.68
642.89	365.70
643.23	364.76
643.58	363.94
643.92	362.92
644.26	361.99
644.61	361.15
644.95	360.25
645.29	359.30
645.64	358.39
645.98	357.55
646.32	356.80
646.66	355.95
647.01	355.08
647.35	354.30
647.69	353.52
648.04	352.78
648.38	352.01
648.72	351.29
649.06	350.57
649.41	349.78
649.75	349.06
650.09	348.38
650.43	347.66
650.78	346.89
651.12	346.18
651.46	345.50
651.80	344.81
652.14	344.12
652.49	343.49
652.83	342.78
653.17	342.11
653.51	341.44
653.85	340.87
654.20	340.29
654.54	339.58
654.88	338.92
655.22	338.30
655.56	337.61
655.90	336.94
656.25	336.28
656.59	335.65
656.93	335.07
657.27	334.54
657.61	333.93
657.95	333.38
658.29	332.81
658.64	332.30
658.98	331.72
659.32	331.13
659.66	330.56
660.00	330.04
660.34	329.48
660.68	328.91
661.02	328.28
661.36	327.67
661.70	327.12
662.05	326.59
662.39	326.09
662.73	325.68
663.07	325.26
663.41	324.81
663.75	324.27
664.09	323.74
664.43	323.12
664.77	322.60
665.11	322.02
665.45	321.49
665.79	320.95
666.13	320.39
666.47	319.86
666.81	319.29
667.15	318.68
667.49	318.21
667.83	317.77
668.17	317.32
668.51	316.87
668.85	316.43
669.19	316.04
669.53	315.50
669.87	314.98
670.21	314.47
670.55	314.00
670.89	313.66
671.23	313.24
671.57	312.81
671.91	312.43
672.25	312.06
672.58	311.67
672.92	311.19
673.26	310.79
673.60	310.38
673.94	309.98
674.28	309.63
674.62	309.25
674.96	308.80
675.30	308.37
675.64	307.93
675.97	307.52
676.31	307.01
676.65	306.57
676.99	306.23
677.33	305.76
677.67	305.32
678.01	304.76
678.34	304.29
678.68	303.87
679.02	303.40
679.36	302.95
679.70	302.47
680.04	302.06
680.37	301.60
680.71	301.18
681.05	300.77
681.39	300.34
681.73	299.86
682.06	299.39
682.40	298.97
682.74	298.61
683.08	298.24
683.42	297.83
683.75	297.41
684.09	296.87
684.43	296.43
684.77	295.95
685.10	295.57
685.44	295.19
685.78	294.77
686.12	294.35
686.45	293.90
686.79	293.45
687.13	293.04
687.46	292.61
687.80	292.16
688.14	291.67
688.48	291.23
688.81	290.80
689.15	290.43
689.49	289.95
689.82	289.46
690.16	288.91
690.50	288.47
690.83	288.02
691.17	287.57
691.51	287.14
691.84	286.74
692.18	286.30
692.52	285.82
692.85	285.38
693.19	285.03
693.52	284.61
693.86	284.21
694.20	283.78
694.53	283.36
694.87	282.93
695.21	282.52
695.54	282.10
695.88	281.64
696.21	281.14
696.55	280.71
696.88	280.30
697.22	279.89
697.56	279.48
697.89	279.02
698.23	278.59
698.56	278.16
698.90	277.74
699.23	277.32
699.57	276.92
699.90	276.48
700.24	275.96
700.58	275.58
700.91	275.19
701.25	274.97
701.58	274.66
701.92	274.32
702.25	273.95
702.59	273.54
702.92	273.16
703.26	272.79
703.59	272.42
703.93	272.16
704.26	271.81
704.60	271.42
704.93	271.04
705.26	270.64
705.60	270.30
705.93	269.89
706.27	269.56
706.60	269.22
706.94	268.92
707.27	268.54
707.61	268.14
707.94	267.76
708.27	267.22
708.61	266.77
708.94	266.39
709.28	266.03
709.61	265.67
709.94	265.36
710.28	265.05
710.61	264.74
710.95	264.27
711.28	264.05
711.61	263.74
711.95	263.47
712.28	263.16
712.61	262.80
712.95	262.57
713.28	262.30
713.61	261.94
713.95	261.58
714.28	261.30
714.61	260.99
714.95	260.67
715.28	260.36
715.61	260.06
715.95	259.78
716.28	259.48
716.61	259.21
716.95	258.88
717.28	258.56
717.61	258.23
717.94	257.94
718.28	257.54
718.61	257.25
718.94	256.94
719.27	256.68
719.61	256.43
719.94	256.15
720.27	255.82
720.60	255.56
720.94	255.32
721.27	255.09
721.60	254.87
721.93	254.63
722.27	254.45
722.60	254.22
722.93	253.92
723.26	253.69
723.59	253.45
723.93	253.25
724.26	253.03
724.59	252.83
724.92	252.62
725.25	252.45
725.59	252.24
725.92	252.05
726.25	251.84
726.58	251.63
726.91	251.40
727.24	251.18
727.57	250.96
727.91	250.73
728.24	250.52
728.57	250.28
728.90	250.10
729.23	249.82
729.56	249.71
729.89	249.54
730.22	249.32
730.55	249.11
730.89	248.90
731.22	248.68
731.55	248.47
731.88	248.27
732.21	248.04
732.54	247.84
732.87	247.66
733.20	247.49
733.53	247.31
733.86	247.14
734.19	246.93
734.52	246.80
734.85	246.76
735.18	246.55
735.51	246.44
735.84	246.30
736.17	246.19
736.50	245.91
736.83	245.94
737.16	245.78
737.49	245.63
737.82	245.47
738.15	245.35
738.48	245.21
738.81	245.05
739.14	244.87
739.47	244.69
739.80	244.54
740.13	244.39
740.46	244.22
740.79	244.03
741.12	243.90
741.45	243.72
741.78	243.46
742.11	243.36
742.44	243.17
742.77	243.03
743.10	242.86
743.43	242.73
743.75	242.40
744.08	242.53
744.41	242.38
744.74	242.22
745.07	242.05
745.40	241.95
745.73	241.88
746.06	241.77
746.39	241.68
746.71	241.53
747.04	241.37
747.37	241.26
747.70	241.17
748.03	241.03
748.36	240.95
748.68	240.85
749.01	240.67
749.34	240.57
749.67	240.44
750.00	240.35
750.33	240.37
750.65	240.27
750.98	239.91
751.31	239.81
751.64	239.74
751.97	239.71
752.29	239.59
752.62	239.39
752.95	239.27
753.28	239.11
753.60	238.98
753.93	238.91
754.26	238.81
754.59	238.64
754.91	238.52
755.24	238.39
755.57	238.37
755.90	238.26
756.22	238.12
756.55	238.00
756.88	237.86
757.20	237.64
757.53	237.50
757.86	237.39
758.19	237.30
758.51	237.19
758.84	237.03
759.17	236.91
759.49	236.85
759.82	236.83
760.15	236.77
760.47	236.70
760.80	236.56
761.13	236.49
761.45	236.40
761.78	236.33
762.11	236.24
762.43	236.06
762.76	235.99
763.08	235.94
763.41	235.87
763.74	235.80
764.06	235.72
764.39	235.65
764.71	235.57
765.04	235.48
765.37	235.40
765.69	235.31
766.02	235.26
766.34	235.17
766.67	235.04
767.00	235.01
767.32	235.04
767.65	235.10
767.97	235.03
768.30	234.98
768.62	234.93
768.95	234.85
769.27	234.78
769.60	234.74
769.92	234.64
770.25	234.55
770.57	234.46
770.90	234.40
771.22	234.31
771.55	234.27
771.87	234.22
772.20	234.15
772.52	234.27
772.85	234.41
773.17	234.35
773.50	234.29
773.82	234.21
774.15	234.06
774.47	233.88
774.80	233.82
775.12	233.76
775.45	233.69
775.77	233.65
776.09	233.61
776.42	233.57
776.74	233.57
777.07	233.51
777.39	233.49
777.72	233.45
778.04	233.45
778.36	233.40
778.69	233.37
779.01	233.33
779.33	233.14
779.66	232.90
779.98	232.85
780.31	232.82
780.63	232.84
780.95	232.84
781.28	232.81
781.60	232.77
781.92	232.74
782.25	232.72
782.57	232.70
782.89	232.66
783.22	232.60
783.54	232.54
783.86	232.52
784.19	232.48
784.51	232.48
784.83	232.44
785.16	232.40
785.48	232.37
785.80	232.35
786.12	232.32
786.45	232.30
786.77	232.29
787.09	232.26
787.42	232.17
787.74	232.14
788.06	232.13
788.38	232.10
788.71	232.04
789.03	232.03
789.35	232.01
789.67	231.96
789.99	231.96
790.32	231.93
790.64	231.94
790.96	232.08
791.28	231.98
791.61	231.94
791.93	231.94
792.25	231.91
792.57	232.02
792.89	231.96
793.21	231.94
793.54	231.90
793.86	231.86
794.18	231.86
794.50	231.79
794.82	231.77
795.14	231.76
795.47	231.79
795.79	231.76
796.11	231.70
796.43	231.68
796.75	231.65
797.07	231.63
797.39	231.59
797.71	231.43
798.04	231.43
798.36	231.41
798.68	231.38
799.00	231.36
799.32	231.24
799.64	231.26
799.96	231.23
800.28	231.24
800.60	231.20
800.92	231.20
801.24	231.19
801.56	231.18
801.89	231.13
802.21	231.11
802.53	231.07
802.85	231.08
803.17	231.15
803.49	231.11
803.81	231.07
804.13	231.03
804.45	231.00
804.77	230.99
805.09	230.98
805.41	230.94
805.73	230.89
806.05	230.83
806.37	230.79
806.69	230.77
807.01	230.72
807.33	230.74
807.65	230.65
807.97	230.70
808.28	230.67
808.60	230.65
808.92	230.62
809.24	230.72
809.56	230.69
809.88	230.61
810.20	230.59
810.52	230.61
810.84	230.56
811.16	230.51
811.48	230.48
811.80	230.51
812.12	230.49
812.43	230.53
812.75	230.53
813.07	230.50
813.39	230.49
813.71	230.47
814.03	230.43
814.35	230.42
814.67	230.35
814.98	230.33
815.30	230.32
815.62	230.29
815.94	230.15
816.26	230.15
816.58	230.09
816.89	230.10
817.21	230.06
817.53	230.07
817.85	230.10
818.17	230.10
818.48	230.02
818.80	230.03
