SpectraSuite Data File
++++++++++++++++++++++++++++++++++++
Date: Tue Oct 06 13:53:37 EDT 2015
User: lab3
Dark Spectrum Present: No
Reference Spectrum Present: No
Number of Sampled Component Spectra: 1
Spectrometers: USB2E7196
Integration Time (usec): 66000 (USB2E7196)
Spectra Averaged: 1000 (USB2E7196)
Boxcar Smoothing: 10 (USB2E7196)
Correct for Electrical Dark: No (USB2E7196)
Strobe/Lamp Enabled: No (USB2E7196)
Correct for Detector Non-linearity: No (USB2E7196)
Correct for Stray Light: No (USB2E7196)
Number of Pixels in Processed Spectrum: 2048
>>>>>Begin Processed Spectral Data<<<<<
339.09	0.00
339.48	215.55
339.86	217.21
340.24	218.39
340.63	219.78
341.01	223.94
341.39	222.61
341.78	224.12
342.16	225.29
342.54	225.49
342.93	214.06
343.31	224.88
343.69	225.42
344.07	225.88
344.46	226.32
344.84	226.74
345.22	226.94
345.60	227.20
345.99	227.39
346.37	227.54
346.75	227.67
347.13	227.76
347.52	227.85
347.90	227.98
348.28	228.02
348.66	228.12
349.05	228.11
349.43	228.18
349.81	228.27
350.19	228.34
350.57	228.42
350.96	228.52
351.34	228.62
351.72	228.73
352.10	228.85
352.48	228.93
352.87	228.96
353.25	229.03
353.63	229.10
354.01	229.17
354.39	229.26
354.77	229.34
355.15	229.46
355.54	229.51
355.92	229.52
356.30	229.59
356.68	229.77
357.06	229.86
357.44	229.89
357.82	229.94
358.20	230.15
358.58	230.22
358.97	230.29
359.35	230.39
359.73	230.48
360.11	230.53
360.49	230.60
360.87	230.65
361.25	230.72
361.63	230.83
362.01	230.88
362.39	230.89
362.77	230.94
363.15	230.97
363.53	231.00
363.91	231.04
364.29	231.06
364.67	230.92
365.05	230.94
365.43	230.98
365.81	231.03
366.19	230.98
366.57	231.06
366.95	231.05
367.33	231.01
367.71	231.01
368.09	231.05
368.47	231.05
368.85	231.04
369.23	231.06
369.61	230.99
369.99	231.04
370.37	231.05
370.75	231.16
371.13	231.13
371.51	231.08
371.89	231.06
372.27	231.05
372.65	231.03
373.03	230.99
373.41	230.95
373.78	230.90
374.16	230.78
374.54	230.68
374.92	230.64
375.30	230.59
375.68	230.52
376.06	230.47
376.44	230.41
376.82	230.38
377.19	230.34
377.57	230.28
377.95	230.17
378.33	230.10
378.71	229.90
379.09	229.85
379.47	229.83
379.84	229.77
380.22	229.70
380.60	229.63
380.98	229.58
381.36	229.52
381.73	229.45
382.11	229.44
382.49	229.41
382.87	229.33
383.25	229.28
383.62	229.45
384.00	229.37
384.38	229.33
384.76	229.32
385.13	229.33
385.51	229.30
385.89	229.25
386.27	229.22
386.64	229.21
387.02	229.16
387.40	229.11
387.78	229.09
388.15	229.07
388.53	229.04
388.91	229.01
389.29	228.97
389.66	228.98
390.04	228.93
390.42	228.94
390.79	228.94
391.17	228.93
391.55	228.70
391.92	228.71
392.30	228.72
392.68	228.67
393.05	228.65
393.43	228.67
393.81	228.68
394.18	228.67
394.56	228.68
394.94	228.73
395.31	228.73
395.69	228.80
396.06	228.85
396.44	228.90
396.82	228.93
397.19	229.06
397.57	229.09
397.95	229.17
398.32	229.17
398.70	229.25
399.07	229.35
399.45	229.42
399.82	229.48
400.20	229.53
400.58	229.63
400.95	229.64
401.33	229.77
401.70	229.99
402.08	230.13
402.45	230.27
402.83	230.46
403.20	230.63
403.58	230.76
403.95	230.97
404.33	231.18
404.71	231.38
405.08	231.69
405.46	231.93
405.83	232.20
406.21	232.49
406.58	232.81
406.96	233.14
407.33	233.51
407.70	233.93
408.08	234.50
408.45	235.00
408.83	235.55
409.20	236.04
409.58	236.50
409.95	237.11
410.33	237.78
410.70	238.40
411.08	239.14
411.45	239.94
411.82	240.75
412.20	241.67
412.57	242.76
412.95	243.63
413.32	244.76
413.69	245.92
414.07	247.15
414.44	248.51
414.82	249.89
415.19	251.52
415.56	253.17
415.94	254.87
416.31	256.79
416.68	258.71
417.06	260.96
417.43	263.04
417.81	265.46
418.18	267.92
418.55	270.60
418.93	273.40
419.30	276.32
419.67	279.43
420.04	282.61
420.42	285.96
420.79	289.80
421.16	293.69
421.54	297.63
421.91	301.75
422.28	306.02
422.66	310.62
423.03	314.98
423.40	319.57
423.77	324.49
424.15	329.50
424.52	334.70
424.89	340.33
425.26	345.93
425.64	351.11
426.01	356.92
426.38	362.88
426.75	368.99
427.13	375.21
427.50	381.71
427.87	388.45
428.24	395.23
428.61	401.74
428.99	408.74
429.36	416.48
429.73	423.90
430.10	431.24
430.47	438.79
430.85	446.61
431.22	454.93
431.59	463.45
431.96	471.77
432.33	481.03
432.70	489.84
433.08	500.31
433.45	510.17
433.82	519.86
434.19	530.69
434.56	541.36
434.93	551.69
435.30	561.97
435.68	573.62
436.05	585.03
436.42	596.46
436.79	606.89
437.16	618.12
437.53	630.20
437.90	642.35
438.27	654.15
438.64	666.82
439.01	678.41
439.38	689.12
439.75	699.42
440.13	711.15
440.50	722.32
440.87	731.19
441.24	740.96
441.61	751.67
441.98	759.57
442.35	768.90
442.72	778.48
443.09	787.66
443.46	793.73
443.83	798.24
444.20	801.95
444.57	807.43
444.94	810.80
445.31	814.15
445.68	817.00
446.05	819.19
446.42	819.00
446.79	818.61
447.16	818.26
447.53	818.12
447.90	814.79
448.27	811.56
448.64	806.42
449.01	803.02
449.37	795.82
449.74	789.34
450.11	780.90
450.48	771.50
450.85	762.03
451.22	753.78
451.59	745.80
451.96	738.67
452.33	728.20
452.70	718.82
453.07	707.43
453.43	696.09
453.80	685.04
454.17	674.49
454.54	664.60
454.91	653.41
455.28	642.76
455.65	632.72
456.02	622.15
456.38	613.64
456.75	602.61
457.12	593.68
457.49	584.66
457.86	576.15
458.23	568.75
458.59	560.53
458.96	552.13
459.33	544.72
459.70	537.18
460.07	531.31
460.43	524.45
460.80	518.06
461.17	512.44
461.54	506.46
461.91	500.83
462.27	495.12
462.64	490.46
463.01	485.14
463.38	479.85
463.74	475.05
464.11	470.82
464.48	467.03
464.85	462.88
465.21	459.69
465.58	456.16
465.95	452.11
466.32	448.88
466.68	445.71
467.05	442.52
467.42	439.40
467.78	436.10
468.15	433.07
468.52	430.83
468.88	427.90
469.25	425.20
469.62	423.07
469.98	420.73
470.35	418.64
470.72	416.74
471.08	414.81
471.45	413.20
471.82	411.38
472.18	409.46
472.55	408.24
472.92	406.72
473.28	405.51
473.65	404.20
474.02	403.02
474.38	402.00
474.75	401.39
475.11	400.51
475.48	400.08
475.85	399.64
476.21	399.40
476.58	399.22
476.94	399.41
477.31	399.44
477.67	399.57
478.04	399.88
478.41	400.29
478.77	400.88
479.14	401.22
479.50	401.97
479.87	402.93
480.23	403.90
480.60	404.83
480.96	405.77
481.33	407.18
481.69	408.54
482.06	409.93
482.42	411.23
482.79	412.80
483.15	414.66
483.52	416.76
483.88	418.75
484.25	420.89
484.61	423.11
484.98	425.48
485.34	428.15
485.71	430.93
486.07	433.93
486.44	436.83
486.80	440.13
487.17	443.49
487.53	447.17
487.90	451.00
488.26	455.22
488.62	459.63
488.99	464.06
489.35	468.75
489.72	473.79
490.08	479.07
490.44	484.49
490.81	490.06
491.17	495.73
491.54	501.81
491.90	508.05
492.26	514.70
492.63	521.70
492.99	528.93
493.36	536.42
493.72	544.32
494.08	552.36
494.45	560.79
494.81	569.64
495.17	578.69
495.54	588.25
495.90	598.18
496.26	608.42
496.63	618.87
496.99	629.68
497.35	640.91
497.72	652.50
498.08	664.51
498.44	676.82
498.80	689.94
499.17	703.39
499.53	717.23
499.89	731.43
500.26	745.76
500.62	760.39
500.98	775.73
501.34	791.19
501.71	807.43
502.07	823.91
502.43	840.83
502.79	857.86
503.16	875.35
503.52	893.11
503.88	911.32
504.24	929.99
504.60	948.89
504.97	968.21
505.33	988.05
505.69	1008.80
506.05	1029.61
506.41	1050.31
506.78	1071.31
507.14	1093.12
507.50	1115.37
507.86	1138.07
508.22	1160.89
508.59	1183.53
508.95	1207.02
509.31	1230.94
509.67	1255.53
510.03	1280.01
510.39	1304.89
510.75	1329.76
511.12	1354.74
511.48	1379.71
511.84	1404.72
512.20	1430.20
512.56	1456.20
512.92	1481.89
513.28	1507.33
513.64	1533.12
514.00	1558.95
514.37	1584.98
514.73	1610.72
515.09	1636.02
515.45	1661.52
515.81	1687.11
516.17	1712.79
516.53	1737.80
516.89	1762.75
517.25	1787.78
517.61	1812.64
517.97	1837.71
518.33	1862.44
518.69	1886.96
519.05	1911.67
519.41	1936.39
519.77	1960.97
520.13	1985.24
520.49	2009.40
520.85	2033.52
521.21	2057.46
521.57	2081.65
521.93	2104.73
522.29	2128.41
522.65	2151.54
523.01	2174.45
523.37	2196.54
523.73	2219.05
524.09	2241.66
524.45	2264.30
524.81	2286.14
525.17	2307.78
525.53	2328.74
525.89	2349.94
526.25	2370.78
526.61	2390.52
526.97	2410.35
527.33	2429.77
527.68	2448.34
528.04	2466.31
528.40	2483.27
528.76	2500.76
529.12	2517.08
529.48	2533.84
529.84	2549.22
530.20	2565.71
530.56	2581.17
530.91	2596.51
531.27	2610.80
531.63	2624.15
531.99	2637.28
532.35	2648.81
532.71	2660.38
533.07	2672.22
533.42	2682.55
533.78	2693.57
534.14	2704.83
534.50	2714.68
534.86	2724.65
535.21	2732.71
535.57	2740.81
535.93	2749.32
536.29	2756.69
536.65	2764.29
537.00	2769.77
537.36	2775.63
537.72	2779.75
538.08	2783.57
538.44	2786.55
538.79	2789.92
539.15	2792.64
539.51	2794.70
539.87	2797.42
540.22	2798.09
540.58	2799.22
540.94	2799.97
541.29	2799.26
541.65	2797.12
542.01	2794.96
542.37	2791.87
542.72	2790.44
543.08	2787.73
543.44	2784.77
543.79	2780.07
544.15	2775.23
544.51	2771.25
544.87	2765.25
545.22	2758.71
545.58	2752.30
545.94	2746.74
546.29	2739.40
546.65	2731.37
547.01	2723.44
547.36	2715.13
547.72	2706.71
548.07	2697.12
548.43	2687.29
548.79	2676.43
549.14	2666.52
549.50	2656.59
549.86	2645.95
550.21	2633.40
550.57	2622.22
550.92	2609.34
551.28	2597.05
551.64	2585.03
551.99	2573.06
552.35	2561.26
552.70	2549.24
553.06	2537.58
553.41	2524.75
553.77	2511.64
554.13	2498.79
554.48	2485.13
554.84	2470.93
555.19	2457.70
555.55	2443.64
555.90	2429.78
556.26	2416.87
556.61	2403.19
556.97	2388.51
557.32	2374.19
557.68	2360.12
558.03	2345.43
558.39	2331.60
558.74	2318.03
559.10	2302.32
559.45	2287.15
559.81	2272.64
560.16	2257.76
560.52	2242.68
560.87	2228.31
561.23	2213.41
561.58	2198.90
561.94	2183.64
562.29	2168.59
562.64	2153.43
563.00	2138.37
563.35	2123.90
563.71	2109.24
564.06	2094.11
564.42	2079.48
564.77	2064.90
565.12	2050.79
565.48	2036.60
565.83	2021.98
566.19	2007.51
566.54	1993.61
566.89	1978.45
567.25	1962.86
567.60	1948.47
567.96	1933.44
568.31	1917.87
568.66	1903.21
569.02	1888.52
569.37	1873.99
569.72	1859.77
570.08	1845.40
570.43	1831.05
570.78	1815.89
571.14	1800.72
571.49	1785.96
571.84	1772.04
572.20	1756.86
572.55	1741.84
572.90	1726.29
573.26	1710.77
573.61	1694.98
573.96	1679.75
574.31	1665.23
574.67	1651.17
575.02	1636.29
575.37	1621.13
575.72	1605.87
576.08	1590.92
576.43	1576.04
576.78	1561.22
577.13	1546.42
577.49	1531.73
577.84	1516.92
578.19	1502.33
578.54	1487.73
578.90	1473.05
579.25	1457.83
579.60	1443.81
579.95	1429.69
580.30	1415.81
580.66	1402.00
581.01	1388.36
581.36	1374.63
581.71	1360.76
582.06	1346.95
582.42	1333.31
582.77	1320.02
583.12	1307.07
583.47	1293.98
583.82	1281.00
584.17	1268.06
584.53	1255.12
584.88	1242.48
585.23	1229.68
585.58	1217.12
585.93	1204.63
586.28	1192.78
586.63	1180.78
586.98	1168.62
587.34	1156.86
587.69	1144.80
588.04	1133.14
588.39	1121.60
588.74	1109.97
589.09	1098.73
589.44	1087.00
589.79	1075.86
590.14	1064.84
590.49	1053.84
590.84	1043.14
591.19	1032.48
591.54	1021.81
591.89	1010.97
592.25	1000.21
592.60	989.42
592.95	978.88
593.30	968.37
593.65	957.77
594.00	947.50
594.35	937.87
594.70	927.74
595.05	918.33
595.40	908.73
595.75	899.00
596.10	889.74
596.45	880.34
596.80	871.34
597.15	862.26
597.50	853.28
597.85	844.66
598.19	835.98
598.54	827.34
598.89	818.86
599.24	810.82
599.59	802.84
599.94	795.39
600.29	787.75
600.64	780.18
600.99	772.60
601.34	765.23
601.69	757.31
602.04	750.02
602.39	742.84
602.74	735.87
603.08	728.95
603.43	722.05
603.78	715.27
604.13	708.64
604.48	702.01
604.83	695.63
605.18	689.20
605.53	682.89
605.87	676.48
606.22	670.35
606.57	664.14
606.92	657.84
607.27	651.65
607.62	645.84
607.96	640.11
608.31	634.68
608.66	629.09
609.01	623.73
609.36	618.58
609.70	613.28
610.05	607.96
610.40	602.81
610.75	597.57
611.10	592.69
611.44	587.72
611.79	582.91
612.14	578.01
612.49	573.12
612.83	568.47
613.18	564.04
613.53	559.63
613.88	555.24
614.22	551.07
614.57	546.80
614.92	542.54
615.27	538.44
615.61	534.32
615.96	530.35
616.31	526.39
616.65	522.43
617.00	518.58
617.35	514.82
617.70	511.12
618.04	507.61
618.39	503.98
618.74	500.52
619.08	496.97
619.43	493.51
619.78	490.20
620.12	486.90
620.47	483.73
620.82	480.56
621.16	477.50
621.51	474.54
621.85	471.63
622.20	468.79
622.55	465.91
622.89	463.08
623.24	460.41
623.59	457.79
623.93	455.19
624.28	452.68
624.62	450.39
624.97	448.09
625.32	445.64
625.66	443.21
626.01	440.83
626.35	438.63
626.70	436.40
627.04	434.28
627.39	432.12
627.73	429.97
628.08	427.95
628.43	425.95
628.77	423.95
629.12	422.07
629.46	420.14
629.81	418.37
630.15	416.52
630.50	414.66
630.84	412.88
631.19	411.19
631.53	409.53
631.88	407.70
632.22	405.95
632.57	404.54
632.91	403.10
633.26	401.71
633.60	400.25
633.95	398.88
634.29	397.40
634.64	396.00
634.98	394.51
635.32	393.12
635.67	391.83
636.01	390.54
636.36	389.26
636.70	388.13
637.05	386.84
637.39	385.69
637.73	384.54
638.08	383.44
638.42	382.32
638.77	381.13
639.11	379.90
639.45	378.75
639.80	377.53
640.14	376.37
640.49	375.16
640.83	374.02
641.17	372.88
641.52	371.78
641.86	370.72
642.20	369.83
642.55	368.75
642.89	367.71
643.23	366.66
643.58	365.74
643.92	364.64
644.26	363.63
644.61	362.70
644.95	361.74
645.29	360.74
645.64	359.73
645.98	358.77
646.32	357.91
646.66	357.00
647.01	356.08
647.35	355.25
647.69	354.40
648.04	353.60
648.38	352.75
648.72	351.97
649.06	351.20
649.41	350.36
649.75	349.59
650.09	348.84
650.43	348.10
650.78	347.31
651.12	346.59
651.46	345.88
651.80	345.16
652.14	344.44
652.49	343.77
652.83	343.07
653.17	342.38
653.51	341.70
653.85	341.10
654.20	340.47
654.54	339.74
654.88	339.07
655.22	338.43
655.56	337.72
655.90	337.01
656.25	336.32
656.59	335.65
656.93	335.04
657.27	334.47
657.61	333.81
657.95	333.20
658.29	332.58
658.64	332.02
658.98	331.40
659.32	330.79
659.66	330.20
660.00	329.61
660.34	329.04
660.68	328.45
661.02	327.81
661.36	327.17
661.70	326.59
662.05	326.04
662.39	325.52
662.73	325.08
663.07	324.66
663.41	324.18
663.75	323.65
664.09	323.12
664.43	322.50
664.77	322.00
665.11	321.43
665.45	320.90
665.79	320.35
666.13	319.82
666.47	319.28
666.81	318.70
667.15	318.11
667.49	317.64
667.83	317.20
668.17	316.74
668.51	316.32
668.85	315.91
669.19	315.53
669.53	315.01
669.87	314.50
670.21	313.99
670.55	313.52
670.89	313.18
671.23	312.74
671.57	312.30
671.91	311.90
672.25	311.53
672.58	311.17
672.92	310.73
673.26	310.32
673.60	309.92
673.94	309.55
674.28	309.20
674.62	308.81
674.96	308.35
675.30	307.93
675.64	307.50
675.97	307.06
676.31	306.55
676.65	306.11
676.99	305.75
677.33	305.26
677.67	304.81
678.01	304.25
678.34	303.79
678.68	303.39
679.02	302.91
679.36	302.46
679.70	301.96
680.04	301.53
680.37	301.10
680.71	300.68
681.05	300.27
681.39	299.83
681.73	299.36
682.06	298.91
682.40	298.49
682.74	298.11
683.08	297.76
683.42	297.32
683.75	296.92
684.09	296.40
684.43	295.97
684.77	295.53
685.10	295.15
685.44	294.77
685.78	294.36
686.12	293.96
686.45	293.52
686.79	293.07
687.13	292.67
687.46	292.22
687.80	291.80
688.14	291.31
688.48	290.88
688.81	290.45
689.15	290.10
689.49	289.63
689.82	289.15
690.16	288.63
690.50	288.21
690.83	287.79
691.17	287.34
691.51	286.93
691.84	286.55
692.18	286.12
692.52	285.65
692.85	285.20
693.19	284.83
693.52	284.43
693.86	284.03
694.20	283.61
694.53	283.19
694.87	282.74
695.21	282.31
695.54	281.90
695.88	281.43
696.21	280.92
696.55	280.50
696.88	280.07
697.22	279.64
697.56	279.23
697.89	278.76
698.23	278.36
698.56	277.92
698.90	277.49
699.23	277.04
699.57	276.64
699.90	276.21
700.24	275.72
700.58	275.32
700.91	274.94
701.25	274.69
701.58	274.37
701.92	274.03
702.25	273.67
702.59	273.27
702.92	272.90
703.26	272.52
703.59	272.13
703.93	271.90
704.26	271.54
704.60	271.16
704.93	270.77
705.26	270.36
705.60	270.02
705.93	269.60
706.27	269.29
706.60	268.95
706.94	268.65
707.27	268.26
707.61	267.88
707.94	267.50
708.27	266.97
708.61	266.51
708.94	266.12
709.28	265.75
709.61	265.38
709.94	265.05
710.28	264.73
710.61	264.43
710.95	263.96
711.28	263.74
711.61	263.42
711.95	263.14
712.28	262.81
712.61	262.44
712.95	262.21
713.28	261.96
713.61	261.59
713.95	261.22
714.28	260.92
714.61	260.58
714.95	260.27
715.28	259.95
715.61	259.67
715.95	259.39
716.28	259.07
716.61	258.80
716.95	258.47
717.28	258.15
717.61	257.83
717.94	257.53
718.28	257.11
718.61	256.80
718.94	256.47
719.27	256.21
719.61	255.97
719.94	255.65
720.27	255.29
720.60	255.04
720.94	254.78
721.27	254.54
721.60	254.31
721.93	254.04
722.27	253.86
722.60	253.63
722.93	253.35
723.26	253.13
723.59	252.85
723.93	252.65
724.26	252.44
724.59	252.21
724.92	251.98
725.25	251.81
725.59	251.60
725.92	251.42
726.25	251.19
726.58	250.98
726.91	250.75
727.24	250.53
727.57	250.29
727.91	250.05
728.24	249.86
728.57	249.64
728.90	249.46
729.23	249.19
729.56	249.07
729.89	248.87
730.22	248.64
730.55	248.46
730.89	248.24
731.22	248.02
731.55	247.82
731.88	247.62
732.21	247.40
732.54	247.20
732.87	247.00
733.20	246.83
733.53	246.64
733.86	246.46
734.19	246.27
734.52	246.13
734.85	246.08
735.18	245.86
735.51	245.74
735.84	245.58
736.17	245.45
736.50	245.18
736.83	245.21
737.16	245.05
737.49	244.89
737.82	244.73
738.15	244.60
738.48	244.44
738.81	244.27
739.14	244.09
739.47	243.92
739.80	243.75
740.13	243.61
740.46	243.44
740.79	243.28
741.12	243.13
741.45	242.95
741.78	242.71
742.11	242.62
742.44	242.41
742.77	242.28
743.10	242.11
743.43	241.97
743.75	241.64
744.08	241.78
744.41	241.61
744.74	241.46
745.07	241.27
745.40	241.17
745.73	241.12
746.06	241.00
746.39	240.89
746.71	240.75
747.04	240.60
747.37	240.46
747.70	240.36
748.03	240.24
748.36	240.14
748.68	240.01
749.01	239.84
749.34	239.73
749.67	239.61
750.00	239.51
750.33	239.53
750.65	239.43
750.98	239.06
751.31	238.97
751.64	238.87
751.97	238.86
752.29	238.73
752.62	238.53
752.95	238.41
753.28	238.27
753.60	238.15
753.93	238.09
754.26	238.00
754.59	237.84
754.91	237.71
755.24	237.59
755.57	237.48
755.90	237.37
756.22	237.24
756.55	237.11
756.88	236.97
757.20	236.76
757.53	236.61
757.86	236.51
758.19	236.41
758.51	236.32
758.84	236.13
759.17	236.02
759.49	235.95
759.82	235.95
760.15	235.89
760.47	235.81
760.80	235.68
761.13	235.61
761.45	235.52
761.78	235.44
762.11	235.36
762.43	235.26
762.76	235.18
763.08	235.12
763.41	235.05
763.74	234.98
764.06	234.89
764.39	234.81
764.71	234.72
765.04	234.63
765.37	234.53
765.69	234.47
766.02	234.39
766.34	234.31
766.67	234.15
767.00	234.10
767.32	234.13
767.65	234.18
767.97	234.10
768.30	234.04
768.62	233.98
768.95	233.90
769.27	233.83
769.60	233.79
769.92	233.70
770.25	233.61
770.57	233.53
770.90	233.47
771.22	233.41
771.55	233.36
771.87	233.32
772.20	233.26
772.52	233.36
772.85	233.52
773.17	233.47
773.50	233.41
773.82	233.33
774.15	233.18
774.47	233.01
774.80	232.93
775.12	232.88
775.45	232.83
775.77	232.79
776.09	232.76
776.42	232.73
776.74	232.74
777.07	232.70
777.39	232.68
777.72	232.63
778.04	232.60
778.36	232.54
778.69	232.51
779.01	232.49
779.33	232.29
779.66	232.04
779.98	231.98
780.31	231.95
780.63	232.00
780.95	232.00
781.28	231.97
781.60	231.93
781.92	231.89
782.25	231.85
782.57	231.81
782.89	231.76
783.22	231.71
783.54	231.64
783.86	231.61
784.19	231.55
784.51	231.56
784.83	231.50
785.16	231.47
785.48	231.44
785.80	231.41
786.12	231.40
786.45	231.38
786.77	231.37
787.09	231.33
787.42	231.23
787.74	231.20
788.06	231.18
788.38	231.15
788.71	231.11
789.03	231.10
789.35	231.09
789.67	231.04
789.99	231.03
790.32	230.97
790.64	230.96
790.96	231.10
791.28	231.01
791.61	230.99
791.93	230.98
792.25	230.94
792.57	231.03
792.89	230.98
793.21	230.96
793.54	230.92
793.86	230.86
794.18	230.85
794.50	230.79
794.82	230.75
795.14	230.75
795.47	230.76
795.79	230.72
796.11	230.66
796.43	230.63
796.75	230.61
797.07	230.60
797.39	230.58
797.71	230.42
798.04	230.42
798.36	230.40
798.68	230.38
799.00	230.37
799.32	230.26
799.64	230.26
799.96	230.24
800.28	230.25
800.60	230.24
800.92	230.23
801.24	230.20
801.56	230.22
801.89	230.18
802.21	230.16
802.53	230.11
802.85	230.13
803.17	230.22
803.49	230.15
803.81	230.11
804.13	230.07
804.45	230.03
804.77	230.01
805.09	229.99
805.41	229.95
805.73	229.91
806.05	229.85
806.37	229.82
806.69	229.80
807.01	229.77
807.33	229.76
807.65	229.68
807.97	229.75
808.28	229.71
808.60	229.70
808.92	229.66
809.24	229.76
809.56	229.71
809.88	229.63
810.20	229.63
810.52	229.66
810.84	229.63
811.16	229.61
811.48	229.59
811.80	229.64
812.12	229.63
812.43	229.64
812.75	229.64
813.07	229.62
813.39	229.61
813.71	229.57
814.03	229.54
814.35	229.55
814.67	229.45
814.98	229.43
815.30	229.41
815.62	229.37
815.94	229.24
816.26	229.25
816.58	229.21
816.89	229.22
817.21	229.16
817.53	229.17
817.85	229.16
818.17	229.15
818.48	229.06
