SpectraSuite Data File
++++++++++++++++++++++++++++++++++++
Date: Wed Oct 07 09:26:50 EDT 2015
User: lab3
Dark Spectrum Present: No
Reference Spectrum Present: No
Number of Sampled Component Spectra: 1
Spectrometers: USB2E7196
Integration Time (usec): 66000 (USB2E7196)
Spectra Averaged: 10000 (USB2E7196)
Boxcar Smoothing: 10 (USB2E7196)
Correct for Electrical Dark: No (USB2E7196)
Strobe/Lamp Enabled: No (USB2E7196)
Correct for Detector Non-linearity: No (USB2E7196)
Correct for Stray Light: No (USB2E7196)
Number of Pixels in Processed Spectrum: 2048
>>>>>Begin Processed Spectral Data<<<<<
339.09	0.00
339.48	212.49
339.86	214.01
340.24	215.35
340.63	216.77
341.01	220.97
341.39	219.46
341.78	221.00
342.16	222.35
342.54	222.51
342.93	211.16
343.31	221.82
343.69	222.36
344.07	222.83
344.46	223.28
344.84	223.69
345.22	223.88
345.60	224.17
345.99	224.38
346.37	224.52
346.75	224.65
347.13	224.74
347.52	224.83
347.90	224.96
348.28	225.02
348.66	225.11
349.05	225.10
349.43	225.18
349.81	225.26
350.19	225.32
350.57	225.41
350.96	225.51
351.34	225.63
351.72	225.74
352.10	225.86
352.48	225.93
352.87	225.98
353.25	226.05
353.63	226.10
354.01	226.16
354.39	226.24
354.77	226.32
355.15	226.45
355.54	226.49
355.92	226.50
356.30	226.58
356.68	226.77
357.06	226.85
357.44	226.89
357.82	226.95
358.20	227.17
358.58	227.23
358.97	227.29
359.35	227.39
359.73	227.48
360.11	227.53
360.49	227.60
360.87	227.65
361.25	227.72
361.63	227.83
362.01	227.89
362.39	227.92
362.77	227.97
363.15	227.99
363.53	228.03
363.91	228.07
364.29	228.09
364.67	227.94
365.05	227.96
365.43	228.00
365.81	228.04
366.19	227.99
366.57	228.07
366.95	228.07
367.33	228.03
367.71	228.02
368.09	228.06
368.47	228.05
368.85	228.04
369.23	228.07
369.61	227.99
369.99	228.02
370.37	228.03
370.75	228.15
371.13	228.12
371.51	228.07
371.89	228.05
372.27	228.04
372.65	228.03
373.03	227.99
373.41	227.94
373.78	227.89
374.16	227.76
374.54	227.66
374.92	227.61
375.30	227.58
375.68	227.50
376.06	227.46
376.44	227.40
376.82	227.37
377.19	227.32
377.57	227.27
377.95	227.16
378.33	227.10
378.71	226.88
379.09	226.85
379.47	226.83
379.84	226.76
380.22	226.69
380.60	226.62
380.98	226.57
381.36	226.52
381.73	226.45
382.11	226.44
382.49	226.41
382.87	226.34
383.25	226.30
383.62	226.48
384.00	226.40
384.38	226.37
384.76	226.38
385.13	226.39
385.51	226.36
385.89	226.31
386.27	226.28
386.64	226.28
387.02	226.23
387.40	226.18
387.78	226.17
388.15	226.16
388.53	226.13
388.91	226.11
389.29	226.08
389.66	226.10
390.04	226.06
390.42	226.07
390.79	226.07
391.17	226.06
391.55	225.84
391.92	225.85
392.30	225.86
392.68	225.81
393.05	225.79
393.43	225.81
393.81	225.83
394.18	225.81
394.56	225.83
394.94	225.89
395.31	225.89
395.69	225.97
396.06	226.02
396.44	226.06
396.82	226.09
397.19	226.22
397.57	226.25
397.95	226.32
398.32	226.32
398.70	226.39
399.07	226.50
399.45	226.57
399.82	226.64
400.20	226.70
400.58	226.79
400.95	226.82
401.33	226.95
401.70	227.19
402.08	227.34
402.45	227.48
402.83	227.66
403.20	227.84
403.58	227.98
403.95	228.20
404.33	228.43
404.71	228.66
405.08	228.98
405.46	229.25
405.83	229.54
406.21	229.85
406.58	230.19
406.96	230.53
407.33	230.92
407.70	231.37
408.08	231.97
408.45	232.50
408.83	233.08
409.20	233.61
409.58	234.09
409.95	234.74
410.33	235.46
410.70	236.14
411.08	236.94
411.45	237.79
411.82	238.66
412.20	239.64
412.57	240.81
412.95	241.75
413.32	242.95
413.69	244.20
414.07	245.52
414.44	246.96
414.82	248.43
415.19	250.15
415.56	251.90
415.94	253.73
416.31	255.77
416.68	257.82
417.06	260.19
417.43	262.42
417.81	264.98
418.18	267.59
418.55	270.43
418.93	273.39
419.30	276.48
419.67	279.76
420.04	283.13
420.42	286.65
420.79	290.71
421.16	294.82
421.54	298.96
421.91	303.30
422.28	307.82
422.66	312.68
423.03	317.29
423.40	322.14
423.77	327.32
424.15	332.62
424.52	338.13
424.89	344.09
425.26	350.01
425.64	355.50
426.01	361.66
426.38	367.96
426.75	374.45
427.13	381.08
427.50	388.03
427.87	395.25
428.24	402.52
428.61	409.50
428.99	417.02
429.36	425.30
429.73	433.20
430.10	441.08
430.47	449.16
430.85	457.52
431.22	466.40
431.59	475.52
431.96	484.46
432.33	494.38
432.70	503.83
433.08	515.00
433.45	525.54
433.82	535.98
434.19	547.69
434.56	559.22
434.93	570.39
435.30	581.49
435.68	594.06
436.05	606.38
436.42	618.72
436.79	630.02
437.16	642.31
437.53	655.40
437.90	668.51
438.27	681.38
438.64	695.31
439.01	708.00
439.38	719.64
439.75	730.86
440.13	743.68
440.50	755.87
440.87	765.65
441.24	776.39
441.61	788.15
441.98	796.87
442.35	807.22
442.72	817.74
443.09	827.76
443.46	834.32
443.83	839.30
444.20	843.47
444.57	849.41
444.94	852.98
445.31	856.67
445.68	859.87
446.05	862.32
446.42	862.10
446.79	861.57
447.16	861.15
447.53	860.82
447.90	857.10
448.27	853.60
448.64	848.02
449.01	844.19
449.37	836.12
449.74	828.79
450.11	819.32
450.48	808.90
450.85	798.44
451.22	789.47
451.59	780.61
451.96	772.58
452.33	761.01
452.70	750.65
453.07	738.14
453.43	725.63
453.80	713.41
454.17	701.70
454.54	690.92
454.91	678.76
455.28	667.23
455.65	656.37
456.02	644.83
456.38	635.56
456.75	623.70
457.12	614.16
457.49	604.53
457.86	595.41
458.23	587.36
458.59	578.53
458.96	569.46
459.33	561.51
459.70	553.40
460.07	547.22
460.43	539.96
460.80	533.18
461.17	527.28
461.54	520.91
461.91	514.92
462.27	508.82
462.64	503.86
463.01	498.22
463.38	492.52
463.74	487.40
464.11	482.82
464.48	478.69
464.85	474.23
465.21	470.82
465.58	467.04
465.95	462.76
466.32	459.36
466.68	456.04
467.05	452.69
467.42	449.43
467.78	445.94
468.15	442.71
468.52	440.34
468.88	437.19
469.25	434.32
469.62	432.05
469.98	429.59
470.35	427.39
470.72	425.38
471.08	423.37
471.45	421.69
471.82	419.79
472.18	417.81
472.55	416.54
472.92	414.94
473.28	413.68
473.65	412.34
474.02	411.03
474.38	409.92
474.75	409.25
475.11	408.34
475.48	407.90
475.85	407.41
476.21	407.11
476.58	406.89
476.94	407.03
477.31	407.03
477.67	407.05
478.04	407.32
478.41	407.71
478.77	408.28
479.14	408.61
479.50	409.38
479.87	410.37
480.23	411.34
480.60	412.25
480.96	413.17
481.33	414.61
481.69	416.02
482.06	417.40
482.42	418.65
482.79	420.24
483.15	422.11
483.52	424.23
483.88	426.25
484.25	428.40
484.61	430.65
484.98	433.09
485.34	435.83
485.71	438.68
486.07	441.78
486.44	444.81
486.80	448.24
487.17	451.72
487.53	455.52
487.90	459.50
488.26	463.83
488.62	468.41
488.99	472.99
489.35	477.81
489.72	482.99
490.08	488.44
490.44	494.00
490.81	499.79
491.17	505.76
491.54	512.18
491.90	518.72
492.26	525.73
492.63	533.08
492.99	540.79
493.36	548.67
493.72	556.92
494.08	565.42
494.45	574.33
494.81	583.64
495.17	593.20
495.54	603.32
495.90	613.89
496.26	624.63
496.63	635.71
496.99	647.17
497.35	659.18
497.72	671.51
498.08	684.18
498.44	697.20
498.80	710.93
499.17	724.95
499.53	739.45
499.89	754.39
500.26	769.60
500.62	785.16
500.98	801.65
501.34	818.17
501.71	835.46
502.07	853.09
502.43	871.22
502.79	889.67
503.16	908.57
503.52	927.67
503.88	947.22
504.24	967.27
504.60	987.57
504.97	1008.52
505.33	1030.01
505.69	1052.61
506.05	1075.45
506.41	1098.28
506.78	1121.28
507.14	1144.80
507.50	1168.87
507.86	1193.30
508.22	1217.97
508.59	1242.53
508.95	1268.15
509.31	1294.32
509.67	1321.21
510.03	1348.09
510.39	1374.79
510.75	1401.58
511.12	1428.67
511.48	1456.15
511.84	1483.53
512.20	1511.30
512.56	1540.20
512.92	1568.93
513.28	1596.93
513.64	1625.35
514.00	1654.21
514.37	1683.34
514.73	1712.58
515.09	1741.08
515.45	1769.82
515.81	1798.94
516.17	1827.75
516.53	1855.87
516.89	1883.66
517.25	1911.73
517.61	1939.63
517.97	1968.14
518.33	1996.21
518.69	2024.19
519.05	2052.45
519.41	2080.89
519.77	2109.50
520.13	2136.48
520.49	2163.40
520.85	2190.79
521.21	2217.55
521.57	2244.61
521.93	2270.51
522.29	2297.10
522.65	2323.51
523.01	2349.68
523.37	2374.96
523.73	2401.09
524.09	2426.86
524.45	2452.48
524.81	2477.42
525.17	2502.20
525.53	2526.01
525.89	2550.29
526.25	2574.31
526.61	2596.49
526.97	2618.68
527.33	2640.50
527.68	2662.37
528.04	2683.81
528.40	2704.12
528.76	2724.41
529.12	2744.14
529.48	2764.69
529.84	2782.40
530.20	2800.36
530.56	2817.67
530.91	2834.99
531.27	2851.61
531.63	2867.34
531.99	2882.54
532.35	2897.57
532.71	2912.24
533.07	2927.41
533.42	2940.47
533.78	2953.68
534.14	2968.05
534.50	2981.35
534.86	2995.24
535.21	3006.62
535.57	3017.91
535.93	3028.74
536.29	3037.85
536.65	3046.81
537.00	3054.45
537.36	3063.24
537.72	3071.25
538.08	3078.80
538.44	3084.97
538.79	3091.02
539.15	3095.81
539.51	3099.85
539.87	3102.49
540.22	3103.36
540.58	3104.53
540.94	3106.38
541.29	3107.23
541.65	3106.63
542.01	3105.54
542.37	3102.65
542.72	3101.58
543.08	3098.70
543.44	3095.97
543.79	3093.16
544.15	3089.53
544.51	3085.58
544.87	3080.88
545.22	3075.09
545.58	3068.77
545.94	3062.92
546.29	3055.52
546.65	3048.23
547.01	3041.15
547.36	3034.71
547.72	3028.44
548.07	3020.32
548.43	3011.02
548.79	3001.28
549.14	2991.82
549.50	2982.55
549.86	2972.42
550.21	2960.41
550.57	2949.83
550.92	2937.56
551.28	2925.34
551.64	2913.43
551.99	2901.44
552.35	2888.89
552.70	2876.28
553.06	2864.24
553.41	2851.73
553.77	2838.80
554.13	2825.91
554.48	2811.97
554.84	2796.70
555.19	2781.81
555.55	2767.00
555.90	2752.74
556.26	2738.73
556.61	2723.64
556.97	2707.36
557.32	2691.55
557.68	2676.16
558.03	2660.25
558.39	2645.21
558.74	2631.06
559.10	2614.96
559.45	2598.83
559.81	2583.35
560.16	2567.42
560.52	2551.16
560.87	2535.26
561.23	2518.96
561.58	2503.26
561.94	2487.08
562.29	2470.51
562.64	2454.12
563.00	2437.74
563.35	2421.57
563.71	2404.98
564.06	2388.54
564.42	2372.68
564.77	2356.94
565.12	2340.81
565.48	2324.30
565.83	2307.94
566.19	2291.44
566.54	2275.16
566.89	2258.47
567.25	2241.88
567.60	2226.22
567.96	2209.98
568.31	2192.13
568.66	2175.00
569.02	2158.55
569.37	2142.68
569.72	2127.37
570.08	2111.66
570.43	2095.26
570.78	2078.62
571.14	2061.97
571.49	2045.28
571.84	2028.81
572.20	2011.08
572.55	1994.05
572.90	1977.27
573.26	1960.73
573.61	1943.49
573.96	1926.77
574.31	1909.90
574.67	1892.61
575.02	1874.90
575.37	1857.17
575.72	1840.42
576.08	1823.51
576.43	1805.66
576.78	1788.10
577.13	1770.84
577.49	1753.74
577.84	1737.23
578.19	1720.25
578.54	1703.19
578.90	1686.04
579.25	1668.67
579.60	1652.67
579.95	1636.36
580.30	1620.02
580.66	1603.33
581.01	1586.76
581.36	1570.20
581.71	1554.57
582.06	1539.03
582.42	1523.34
582.77	1508.08
583.12	1493.04
583.47	1478.07
583.82	1463.25
584.17	1447.83
584.53	1432.53
584.88	1417.63
585.23	1402.53
585.58	1387.87
585.93	1373.03
586.28	1359.25
586.63	1345.38
586.98	1330.97
587.34	1317.05
587.69	1302.91
588.04	1289.04
588.39	1275.49
588.74	1261.60
589.09	1247.84
589.44	1233.70
589.79	1220.29
590.14	1206.87
590.49	1193.48
590.84	1180.30
591.19	1167.59
591.54	1155.05
591.89	1142.10
592.25	1129.45
592.60	1116.68
592.95	1104.05
593.30	1091.93
593.65	1079.49
594.00	1067.38
594.35	1056.21
594.70	1044.27
595.05	1032.96
595.40	1021.57
595.75	1009.99
596.10	999.10
596.45	988.10
596.80	977.65
597.15	967.10
597.50	956.52
597.85	946.36
598.19	936.17
598.54	925.92
598.89	916.20
599.24	906.91
599.59	897.36
599.94	888.53
600.29	879.80
600.64	870.82
600.99	861.72
601.34	853.01
601.69	843.73
602.04	835.45
602.39	827.07
602.74	818.92
603.08	810.87
603.43	802.85
603.78	794.83
604.13	786.80
604.48	778.80
604.83	771.14
605.18	763.44
605.53	755.97
605.87	748.51
606.22	741.16
606.57	733.73
606.92	726.27
607.27	718.83
607.62	711.53
607.96	704.51
608.31	698.04
608.66	691.38
609.01	685.05
609.36	678.67
609.70	672.29
610.05	665.87
610.40	659.67
610.75	653.41
611.10	647.41
611.44	641.41
611.79	635.57
612.14	629.60
612.49	623.73
612.83	618.17
613.18	612.67
613.53	607.15
613.88	601.78
614.22	596.80
614.57	591.76
614.92	586.86
615.27	582.06
615.61	577.11
615.96	572.26
616.31	567.37
616.65	562.63
617.00	558.01
617.35	553.50
617.70	548.99
618.04	544.59
618.39	540.31
618.74	536.30
619.08	532.24
619.43	528.32
619.78	524.37
620.12	520.34
620.47	516.54
620.82	512.87
621.16	509.22
621.51	505.61
621.85	502.00
622.20	498.44
622.55	494.90
622.89	491.38
623.24	488.04
623.59	484.79
623.93	481.62
624.28	478.57
624.62	475.73
624.97	472.90
625.32	470.01
625.66	467.07
626.01	464.09
626.35	461.31
626.70	458.46
627.04	455.82
627.39	453.17
627.73	450.58
628.08	448.02
628.43	445.48
628.77	442.87
629.12	440.37
629.46	437.99
629.81	435.76
630.15	433.44
630.50	431.17
630.84	428.93
631.19	426.74
631.53	424.66
631.88	422.38
632.22	420.19
632.57	418.31
632.91	416.37
633.26	414.53
633.60	412.68
633.95	410.94
634.29	409.05
634.64	407.23
634.98	405.29
635.32	403.55
635.67	401.98
636.01	400.40
636.36	398.87
636.70	397.40
637.05	395.78
637.39	394.33
637.73	392.86
638.08	391.46
638.42	390.10
638.77	388.61
639.11	387.10
639.45	385.64
639.80	384.14
640.14	382.70
640.49	381.28
640.83	379.86
641.17	378.49
641.52	377.16
641.86	375.87
642.20	374.73
642.55	373.40
642.89	372.08
643.23	370.84
643.58	369.74
643.92	368.48
644.26	367.33
644.61	366.20
644.95	365.04
645.29	363.84
645.64	362.60
645.98	361.50
646.32	360.51
646.66	359.45
647.01	358.41
647.35	357.49
647.69	356.50
648.04	355.61
648.38	354.64
648.72	353.72
649.06	352.80
649.41	351.86
649.75	350.97
650.09	350.11
650.43	349.23
650.78	348.28
651.12	347.43
651.46	346.59
651.80	345.76
652.14	344.97
652.49	344.26
652.83	343.48
653.17	342.67
653.51	341.88
653.85	341.22
654.20	340.50
654.54	339.69
654.88	338.93
655.22	338.22
655.56	337.48
655.90	336.78
656.25	336.10
656.59	335.43
656.93	334.80
657.27	334.24
657.61	333.58
657.95	333.00
658.29	332.38
658.64	331.78
658.98	331.12
659.32	330.48
659.66	329.87
660.00	329.31
660.34	328.75
660.68	328.13
661.02	327.46
661.36	326.82
661.70	326.25
662.05	325.68
662.39	325.12
662.73	324.67
663.07	324.24
663.41	323.77
663.75	323.26
664.09	322.75
664.43	322.12
664.77	321.60
665.11	321.02
665.45	320.50
665.79	319.99
666.13	319.48
666.47	318.96
666.81	318.40
667.15	317.80
667.49	317.33
667.83	316.92
668.17	316.47
668.51	316.07
668.85	315.69
669.19	315.36
669.53	314.85
669.87	314.30
670.21	313.76
670.55	313.25
670.89	312.85
671.23	312.40
671.57	312.00
671.91	311.65
672.25	311.33
672.58	311.00
672.92	310.58
673.26	310.25
673.60	309.92
673.94	309.55
674.28	309.23
674.62	308.86
674.96	308.44
675.30	308.08
675.64	307.66
675.97	307.22
676.31	306.74
676.65	306.34
676.99	306.03
677.33	305.59
677.67	305.21
678.01	304.73
678.34	304.33
678.68	303.96
679.02	303.51
679.36	303.07
679.70	302.62
680.04	302.23
680.37	301.81
680.71	301.42
681.05	301.08
681.39	300.68
681.73	300.23
682.06	299.81
682.40	299.43
682.74	299.08
683.08	298.77
683.42	298.39
683.75	298.05
684.09	297.59
684.43	297.22
684.77	296.82
685.10	296.45
685.44	296.05
685.78	295.63
686.12	295.24
686.45	294.83
686.79	294.41
687.13	294.01
687.46	293.57
687.80	293.15
688.14	292.68
688.48	292.27
688.81	291.85
689.15	291.48
689.49	291.03
689.82	290.60
690.16	290.06
690.50	289.62
690.83	289.16
691.17	288.71
691.51	288.28
691.84	287.88
692.18	287.44
692.52	286.98
692.85	286.54
693.19	286.15
693.52	285.72
693.86	285.27
694.20	284.84
694.53	284.41
694.87	283.94
695.21	283.48
695.54	283.03
695.88	282.56
696.21	282.06
696.55	281.62
696.88	281.16
697.22	280.74
697.56	280.33
697.89	279.85
698.23	279.42
698.56	278.97
698.90	278.55
699.23	278.10
699.57	277.69
699.90	277.27
700.24	276.80
700.58	276.39
700.91	276.03
701.25	275.77
701.58	275.44
701.92	275.10
702.25	274.71
702.59	274.29
702.92	273.91
703.26	273.49
703.59	273.07
703.93	272.80
704.26	272.40
704.60	271.97
704.93	271.56
705.26	271.14
705.60	270.78
705.93	270.32
706.27	270.00
706.60	269.65
706.94	269.32
707.27	268.88
707.61	268.48
707.94	268.05
708.27	267.48
708.61	267.01
708.94	266.58
709.28	266.18
709.61	265.79
709.94	265.44
710.28	265.09
710.61	264.76
710.95	264.24
711.28	263.99
711.61	263.62
711.95	263.31
712.28	262.93
712.61	262.55
712.95	262.30
713.28	262.00
713.61	261.61
713.95	261.21
714.28	260.89
714.61	260.51
714.95	260.17
715.28	259.83
715.61	259.50
715.95	259.20
716.28	258.86
716.61	258.58
716.95	258.24
717.28	257.91
717.61	257.58
717.94	257.29
718.28	256.85
718.61	256.55
718.94	256.21
719.27	255.93
719.61	255.65
719.94	255.32
720.27	254.94
720.60	254.65
720.94	254.36
721.27	254.08
721.60	253.84
721.93	253.56
722.27	253.34
722.60	253.06
722.93	252.75
723.26	252.51
723.59	252.19
723.93	251.95
724.26	251.71
724.59	251.45
724.92	251.21
725.25	251.02
725.59	250.77
725.92	250.55
726.25	250.30
726.58	250.05
726.91	249.79
727.24	249.57
727.57	249.33
727.91	249.06
728.24	248.85
728.57	248.60
728.90	248.39
729.23	248.10
729.56	247.96
729.89	247.75
730.22	247.51
730.55	247.30
730.89	247.07
731.22	246.84
731.55	246.63
731.88	246.42
732.21	246.16
732.54	245.94
732.87	245.74
733.20	245.55
733.53	245.37
733.86	245.19
734.19	244.97
734.52	244.81
734.85	244.77
735.18	244.55
735.51	244.42
735.84	244.23
736.17	244.11
736.50	243.83
736.83	243.86
737.16	243.68
737.49	243.51
737.82	243.32
738.15	243.16
738.48	242.98
738.81	242.79
739.14	242.60
739.47	242.41
739.80	242.23
740.13	242.07
740.46	241.86
740.79	241.66
741.12	241.48
741.45	241.27
741.78	240.99
742.11	240.87
742.44	240.65
742.77	240.50
743.10	240.31
743.43	240.14
743.75	239.78
744.08	239.89
744.41	239.72
744.74	239.56
745.07	239.37
745.40	239.27
745.73	239.19
746.06	239.06
746.39	238.95
746.71	238.79
747.04	238.63
747.37	238.48
747.70	238.37
748.03	238.24
748.36	238.13
748.68	237.99
749.01	237.80
749.34	237.68
749.67	237.55
750.00	237.45
750.33	237.46
750.65	237.35
750.98	236.95
751.31	236.85
751.64	236.74
751.97	236.72
752.29	236.57
752.62	236.36
752.95	236.23
753.28	236.08
753.60	235.95
753.93	235.87
754.26	235.78
754.59	235.60
754.91	235.47
755.24	235.33
755.57	235.22
755.90	235.11
756.22	234.97
756.55	234.82
756.88	234.67
757.20	234.44
757.53	234.28
757.86	234.16
758.19	234.06
758.51	233.95
758.84	233.75
759.17	233.63
759.49	233.55
759.82	233.53
760.15	233.46
760.47	233.36
760.80	233.21
761.13	233.13
761.45	233.04
761.78	232.95
762.11	232.87
762.43	232.75
762.76	232.66
763.08	232.59
763.41	232.53
763.74	232.46
764.06	232.38
764.39	232.30
764.71	232.22
765.04	232.12
765.37	232.03
765.69	231.95
766.02	231.87
766.34	231.77
766.67	231.63
767.00	231.59
767.32	231.62
767.65	231.66
767.97	231.57
768.30	231.51
768.62	231.44
768.95	231.36
769.27	231.29
769.60	231.25
769.92	231.15
770.25	231.05
770.57	230.94
770.90	230.88
771.22	230.80
771.55	230.75
771.87	230.70
772.20	230.64
772.52	230.73
772.85	230.90
773.17	230.84
773.50	230.77
773.82	230.68
774.15	230.53
774.47	230.36
774.80	230.29
775.12	230.23
775.45	230.18
775.77	230.14
776.09	230.10
776.42	230.05
776.74	230.06
777.07	230.01
777.39	229.97
777.72	229.91
778.04	229.88
778.36	229.82
778.69	229.78
779.01	229.75
779.33	229.54
779.66	229.28
779.98	229.23
780.31	229.20
780.63	229.24
780.95	229.23
781.28	229.18
781.60	229.13
781.92	229.09
782.25	229.05
782.57	229.01
782.89	228.96
783.22	228.91
783.54	228.84
783.86	228.82
784.19	228.78
784.51	228.80
784.83	228.74
785.16	228.71
785.48	228.67
785.80	228.63
786.12	228.62
786.45	228.59
786.77	228.57
787.09	228.52
787.42	228.42
787.74	228.40
788.06	228.38
788.38	228.34
788.71	228.30
789.03	228.28
789.35	228.27
789.67	228.22
789.99	228.20
790.32	228.15
790.64	228.14
790.96	228.28
791.28	228.19
791.61	228.15
791.93	228.14
792.25	228.10
792.57	228.20
792.89	228.15
793.21	228.13
793.54	228.09
793.86	228.04
794.18	228.02
794.50	227.96
794.82	227.94
795.14	227.93
795.47	227.95
795.79	227.92
796.11	227.85
796.43	227.82
796.75	227.80
797.07	227.78
797.39	227.75
797.71	227.57
798.04	227.56
798.36	227.55
798.68	227.52
799.00	227.51
799.32	227.39
799.64	227.40
799.96	227.37
800.28	227.39
800.60	227.36
800.92	227.36
801.24	227.33
801.56	227.33
801.89	227.29
802.21	227.27
802.53	227.22
802.85	227.25
803.17	227.32
803.49	227.26
803.81	227.22
804.13	227.19
804.45	227.15
804.77	227.15
805.09	227.13
805.41	227.10
805.73	227.04
806.05	226.98
806.37	226.95
806.69	226.92
807.01	226.88
807.33	226.87
807.65	226.78
807.97	226.85
808.28	226.80
808.60	226.78
808.92	226.74
809.24	226.84
809.56	226.79
809.88	226.70
810.20	226.70
810.52	226.73
810.84	226.69
811.16	226.65
811.48	226.62
811.80	226.67
812.12	226.65
812.43	226.67
812.75	226.67
813.07	226.64
813.39	226.63
813.71	226.59
814.03	226.56
814.35	226.56
814.67	226.47
814.98	226.45
815.30	226.44
815.62	226.40
815.94	226.26
816.26	226.27
816.58	226.22
816.89	226.22
817.21	226.16
817.53	226.16
817.85	226.16
818.17	226.14
