SpectraSuite Data File
++++++++++++++++++++++++++++++++++++
Date: Tue Oct 06 15:12:15 EDT 2015
User: lab3
Dark Spectrum Present: No
Reference Spectrum Present: No
Number of Sampled Component Spectra: 1
Spectrometers: USB2E7196
Integration Time (usec): 66000 (USB2E7196)
Spectra Averaged: 400 (USB2E7196)
Boxcar Smoothing: 10 (USB2E7196)
Correct for Electrical Dark: No (USB2E7196)
Strobe/Lamp Enabled: No (USB2E7196)
Correct for Detector Non-linearity: No (USB2E7196)
Correct for Stray Light: No (USB2E7196)
Number of Pixels in Processed Spectrum: 2048
>>>>>Begin Processed Spectral Data<<<<<
339.09	0.00
339.48	215.04
339.86	216.28
340.24	217.94
340.63	219.14
341.01	223.32
341.39	221.98
341.78	223.52
342.16	224.81
342.54	225.19
342.93	213.45
343.31	224.23
343.69	224.76
344.07	225.23
344.46	225.66
344.84	226.08
345.22	226.26
345.60	226.54
345.99	226.73
346.37	226.87
346.75	226.98
347.13	227.06
347.52	227.15
347.90	227.25
348.28	227.29
348.66	227.37
349.05	227.37
349.43	227.44
349.81	227.53
350.19	227.59
350.57	227.65
350.96	227.75
351.34	227.86
351.72	227.96
352.10	228.08
352.48	228.15
352.87	228.17
353.25	228.25
353.63	228.30
354.01	228.36
354.39	228.44
354.77	228.51
355.15	228.65
355.54	228.70
355.92	228.69
356.30	228.78
356.68	228.96
357.06	229.05
357.44	229.09
357.82	229.15
358.20	229.37
358.58	229.44
358.97	229.51
359.35	229.60
359.73	229.69
360.11	229.74
360.49	229.83
360.87	229.89
361.25	229.98
361.63	230.09
362.01	230.15
362.39	230.18
362.77	230.24
363.15	230.26
363.53	230.31
363.91	230.37
364.29	230.39
364.67	230.23
365.05	230.26
365.43	230.30
365.81	230.33
366.19	230.30
366.57	230.38
366.95	230.38
367.33	230.36
367.71	230.36
368.09	230.40
368.47	230.40
368.85	230.38
369.23	230.39
369.61	230.32
369.99	230.36
370.37	230.37
370.75	230.51
371.13	230.46
371.51	230.41
371.89	230.40
372.27	230.40
372.65	230.40
373.03	230.36
373.41	230.31
373.78	230.27
374.16	230.13
374.54	230.04
374.92	229.98
375.30	229.94
375.68	229.86
376.06	229.82
376.44	229.77
376.82	229.74
377.19	229.71
377.57	229.65
377.95	229.55
378.33	229.49
378.71	229.26
379.09	229.22
379.47	229.19
379.84	229.13
380.22	229.06
380.60	228.98
380.98	228.94
381.36	228.88
381.73	228.83
382.11	228.82
382.49	228.79
382.87	228.75
383.25	228.70
383.62	228.89
384.00	228.81
384.38	228.78
384.76	228.79
385.13	228.79
385.51	228.77
385.89	228.70
386.27	228.67
386.64	228.67
387.02	228.63
387.40	228.58
387.78	228.56
388.15	228.53
388.53	228.51
388.91	228.48
389.29	228.45
389.66	228.46
390.04	228.43
390.42	228.43
390.79	228.41
391.17	228.40
391.55	228.18
391.92	228.18
392.30	228.18
392.68	228.14
393.05	228.11
393.43	228.11
393.81	228.14
394.18	228.13
394.56	228.13
394.94	228.17
395.31	228.18
395.69	228.26
396.06	228.32
396.44	228.36
396.82	228.38
397.19	228.51
397.57	228.53
397.95	228.60
398.32	228.58
398.70	228.64
399.07	228.76
399.45	228.80
399.82	228.85
400.20	228.91
400.58	229.00
400.95	229.03
401.33	229.15
401.70	229.38
402.08	229.51
402.45	229.66
402.83	229.86
403.20	230.02
403.58	230.14
403.95	230.34
404.33	230.55
404.71	230.77
405.08	231.05
405.46	231.29
405.83	231.55
406.21	231.86
406.58	232.18
406.96	232.48
407.33	232.85
407.70	233.28
408.08	233.84
408.45	234.32
408.83	234.87
409.20	235.37
409.58	235.81
409.95	236.45
410.33	237.11
410.70	237.75
411.08	238.51
411.45	239.32
411.82	240.14
412.20	241.07
412.57	242.17
412.95	243.07
413.32	244.24
413.69	245.43
414.07	246.68
414.44	248.05
414.82	249.45
415.19	251.10
415.56	252.79
415.94	254.54
416.31	256.51
416.68	258.49
417.06	260.76
417.43	262.90
417.81	265.35
418.18	267.84
418.55	270.55
418.93	273.38
419.30	276.34
419.67	279.47
420.04	282.72
420.42	286.14
420.79	290.05
421.16	293.95
421.54	297.94
421.91	302.14
422.28	306.49
422.66	311.17
423.03	315.62
423.40	320.28
423.77	325.29
424.15	330.39
424.52	335.66
424.89	341.39
425.26	347.07
425.64	352.35
426.01	358.30
426.38	364.36
426.75	370.61
427.13	376.97
427.50	383.66
427.87	390.58
428.24	397.55
428.61	404.24
428.99	411.47
429.36	419.39
429.73	426.93
430.10	434.46
430.47	442.16
430.85	450.14
431.22	458.64
431.59	467.35
431.96	475.84
432.33	485.30
432.70	494.30
433.08	504.95
433.45	514.96
433.82	524.85
434.19	535.96
434.56	546.87
434.93	557.46
435.30	567.98
435.68	579.95
436.05	591.60
436.42	603.24
436.79	613.90
437.16	625.46
437.53	637.88
437.90	650.30
438.27	662.46
438.64	675.55
439.01	687.48
439.38	698.49
439.75	709.12
440.13	721.20
440.50	732.70
440.87	741.92
441.24	752.01
441.61	763.07
441.98	771.18
442.35	780.90
442.72	790.80
443.09	800.20
443.46	806.32
443.83	810.98
444.20	814.87
444.57	820.53
444.94	823.94
445.31	827.40
445.68	830.36
446.05	832.66
446.42	832.45
446.79	831.94
447.16	831.51
447.53	831.15
447.90	827.63
448.27	824.22
448.64	818.86
449.01	815.21
449.37	807.60
449.74	800.77
450.11	791.84
450.48	782.05
450.85	772.19
451.22	763.70
451.59	755.36
451.96	747.86
452.33	736.90
452.70	727.14
453.07	715.33
453.43	703.56
453.80	692.04
454.17	681.01
454.54	670.83
454.91	659.35
455.28	648.50
455.65	638.24
456.02	627.46
456.38	618.73
456.75	607.59
457.12	598.58
457.49	589.48
457.86	580.87
458.23	573.25
458.59	564.91
458.96	556.35
459.33	548.83
459.70	541.13
460.07	535.23
460.43	528.32
460.80	521.84
461.17	516.19
461.54	510.09
461.91	504.41
462.27	498.64
462.64	493.87
463.01	488.50
463.38	483.05
463.74	478.12
464.11	473.79
464.48	469.82
464.85	465.56
465.21	462.32
465.58	458.71
465.95	454.62
466.32	451.32
466.68	448.09
467.05	444.83
467.42	441.69
467.78	438.37
468.15	435.26
468.52	432.98
468.88	429.98
469.25	427.27
469.62	425.09
469.98	422.71
470.35	420.57
470.72	418.62
471.08	416.67
471.45	415.03
471.82	413.16
472.18	411.24
472.55	409.99
472.92	408.43
473.28	407.19
473.65	405.90
474.02	404.68
474.38	403.64
474.75	403.04
475.11	402.19
475.48	401.77
475.85	401.33
476.21	401.07
476.58	400.86
476.94	401.00
477.31	401.05
477.67	401.14
478.04	401.49
478.41	401.93
478.77	402.54
479.14	402.94
479.50	403.75
479.87	404.77
480.23	405.77
480.60	406.74
480.96	407.72
481.33	409.13
481.69	410.53
482.06	411.93
482.42	413.22
482.79	414.83
483.15	416.69
483.52	418.81
483.88	420.84
484.25	422.98
484.61	425.25
484.98	427.69
485.34	430.43
485.71	433.28
486.07	436.31
486.44	439.34
486.80	442.74
487.17	446.20
487.53	449.98
487.90	453.94
488.26	458.23
488.62	462.77
488.99	467.30
489.35	472.07
489.72	477.20
490.08	482.57
490.44	488.06
490.81	493.80
491.17	499.67
491.54	505.98
491.90	512.44
492.26	519.30
492.63	526.46
492.99	533.95
493.36	541.64
493.72	549.74
494.08	557.97
494.45	566.60
494.81	575.59
495.17	584.84
495.54	594.58
495.90	604.76
496.26	615.14
496.63	625.78
496.99	636.85
497.35	648.39
497.72	660.26
498.08	672.45
498.44	684.96
498.80	698.19
499.17	711.65
499.53	725.64
499.89	740.00
500.26	754.55
500.62	769.45
500.98	785.12
501.34	800.86
501.71	817.39
502.07	834.22
502.43	851.50
502.79	868.94
503.16	886.95
503.52	905.12
503.88	923.72
504.24	942.82
504.60	962.11
504.97	981.94
505.33	1002.11
505.69	1023.42
506.05	1044.85
506.41	1066.15
506.78	1087.62
507.14	1109.67
507.50	1132.22
507.86	1155.13
508.22	1178.20
508.59	1201.01
508.95	1224.93
509.31	1249.25
509.67	1274.19
510.03	1299.10
510.39	1323.91
510.75	1348.75
511.12	1373.94
511.48	1399.18
511.84	1424.33
512.20	1449.70
512.56	1476.13
512.92	1502.44
513.28	1528.11
513.64	1554.14
514.00	1580.48
514.37	1607.15
514.73	1633.68
515.09	1659.53
515.45	1685.59
515.81	1711.81
516.17	1737.78
516.53	1762.97
516.89	1788.17
517.25	1813.50
517.61	1838.61
517.97	1864.30
518.33	1889.25
518.69	1914.11
519.05	1939.29
519.41	1964.58
519.77	1989.86
520.13	2013.81
520.49	2037.84
520.85	2062.11
521.21	2085.84
521.57	2109.84
521.93	2132.71
522.29	2156.37
522.65	2179.62
523.01	2202.76
523.37	2225.26
523.73	2248.39
524.09	2271.15
524.45	2293.49
524.81	2315.30
525.17	2336.69
525.53	2357.47
525.89	2378.71
526.25	2399.42
526.61	2418.64
526.97	2437.86
527.33	2456.94
527.68	2475.47
528.04	2493.57
528.40	2510.44
528.76	2527.58
529.12	2544.17
529.48	2561.33
529.84	2575.97
530.20	2591.03
530.56	2605.13
530.91	2619.35
531.27	2632.88
531.63	2645.78
531.99	2658.14
532.35	2669.99
532.71	2681.46
533.07	2693.28
533.42	2703.30
533.78	2713.64
534.14	2724.85
534.50	2734.87
534.86	2745.42
535.21	2753.95
535.57	2762.35
535.93	2770.64
536.29	2777.52
536.65	2784.01
537.00	2788.85
537.36	2794.60
537.72	2799.58
538.08	2803.98
538.44	2807.17
538.79	2810.48
539.15	2812.42
539.51	2814.03
539.87	2814.59
540.22	2813.56
540.58	2812.65
540.94	2812.50
541.29	2811.23
541.65	2808.34
542.01	2805.34
542.37	2800.81
542.72	2797.90
543.08	2793.38
543.44	2789.01
543.79	2783.69
544.15	2777.93
544.51	2772.61
544.87	2766.29
545.22	2759.01
545.58	2751.64
545.94	2744.65
546.29	2736.24
546.65	2727.85
547.01	2719.24
547.36	2711.14
547.72	2703.25
548.07	2693.79
548.43	2683.33
548.79	2672.41
549.14	2662.22
549.50	2652.10
549.86	2641.14
550.21	2628.55
550.57	2616.87
550.92	2603.54
551.28	2590.80
551.64	2578.34
551.99	2565.64
552.35	2552.65
552.70	2539.54
553.06	2526.96
553.41	2513.97
553.77	2500.46
554.13	2487.17
554.48	2472.98
554.84	2457.91
555.19	2443.78
555.55	2429.40
555.90	2415.17
556.26	2401.63
556.61	2386.91
556.97	2371.06
557.32	2355.61
557.68	2340.48
558.03	2325.21
558.39	2310.81
558.74	2296.95
559.10	2281.38
559.45	2266.11
559.81	2251.55
560.16	2236.61
560.52	2221.56
560.87	2206.58
561.23	2191.34
561.58	2176.54
561.94	2161.42
562.29	2146.07
562.64	2130.54
563.00	2115.23
563.35	2100.30
563.71	2084.86
564.06	2069.56
564.42	2054.74
564.77	2040.00
565.12	2025.24
565.48	2010.36
565.83	1995.72
566.19	1981.14
566.54	1966.77
566.89	1951.69
567.25	1936.43
567.60	1922.02
567.96	1906.93
568.31	1890.59
568.66	1875.17
569.02	1860.32
569.37	1845.97
569.72	1832.17
570.08	1817.95
570.43	1803.27
570.78	1788.36
571.14	1773.32
571.49	1758.38
571.84	1743.98
572.20	1728.47
572.55	1713.56
572.90	1698.54
573.26	1683.51
573.61	1667.82
573.96	1652.70
574.31	1637.75
574.67	1622.69
575.02	1607.38
575.37	1591.97
575.72	1577.39
576.08	1562.79
576.43	1547.54
576.78	1532.43
577.13	1517.35
577.49	1502.69
577.84	1488.42
578.19	1473.67
578.54	1458.92
578.90	1444.25
579.25	1429.39
579.60	1415.67
579.95	1401.70
580.30	1387.80
580.66	1373.67
581.01	1359.74
581.36	1345.86
581.71	1332.48
582.06	1319.07
582.42	1305.59
582.77	1292.63
583.12	1279.82
583.47	1266.86
583.82	1254.25
584.17	1241.31
584.53	1228.42
584.88	1215.77
585.23	1202.93
585.58	1190.51
585.93	1178.15
586.28	1166.61
586.63	1154.91
586.98	1142.88
587.34	1131.23
587.69	1119.36
588.04	1107.92
588.39	1096.69
588.74	1085.18
589.09	1073.83
589.44	1062.18
589.79	1051.05
590.14	1039.94
590.49	1028.97
590.84	1018.31
591.19	1007.75
591.54	997.35
591.89	986.60
592.25	976.12
592.60	965.66
592.95	955.35
593.30	945.24
593.65	934.85
594.00	924.77
594.35	915.56
594.70	905.75
595.05	896.54
595.40	887.10
595.75	877.52
596.10	868.48
596.45	859.42
596.80	850.75
597.15	842.13
597.50	833.57
597.85	825.22
598.19	816.79
598.54	808.30
598.89	800.20
599.24	792.56
599.59	784.81
599.94	777.50
600.29	770.25
600.64	762.95
600.99	755.56
601.34	748.37
601.69	740.66
602.04	733.75
602.39	726.75
602.74	719.91
603.08	713.21
603.43	706.48
603.78	699.79
604.13	693.18
604.48	686.59
604.83	680.18
605.18	673.86
605.53	667.68
605.87	661.56
606.22	655.48
606.57	649.35
606.92	643.12
607.27	636.99
607.62	631.07
607.96	625.31
608.31	619.95
608.66	614.51
609.01	609.33
609.36	604.13
609.70	598.86
610.05	593.65
610.40	588.58
610.75	583.56
611.10	578.73
611.44	573.91
611.79	569.17
612.14	564.40
612.49	559.68
612.83	555.18
613.18	550.76
613.53	546.41
613.88	542.11
614.22	538.10
614.57	534.01
614.92	529.98
615.27	526.08
615.61	522.14
615.96	518.25
616.31	514.35
616.65	510.59
617.00	506.94
617.35	503.31
617.70	499.75
618.04	496.24
618.39	492.82
618.74	489.63
619.08	486.42
619.43	483.28
619.78	480.12
620.12	476.96
620.47	473.95
620.82	470.95
621.16	468.06
621.51	465.24
621.85	462.45
622.20	459.68
622.55	456.91
622.89	454.24
623.24	451.68
623.59	449.15
623.93	446.68
624.28	444.34
624.62	442.22
624.97	440.07
625.32	437.82
625.66	435.53
626.01	433.20
626.35	431.02
626.70	428.79
627.04	426.76
627.39	424.66
627.73	422.66
628.08	420.74
628.43	418.83
628.77	416.82
629.12	414.93
629.46	413.14
629.81	411.46
630.15	409.65
630.50	407.88
630.84	406.18
631.19	404.51
631.53	402.93
631.88	401.16
632.22	399.50
632.57	398.11
632.91	396.69
633.26	395.34
633.60	393.98
633.95	392.70
634.29	391.30
634.64	389.97
634.98	388.53
635.32	387.19
635.67	386.00
636.01	384.80
636.36	383.63
636.70	382.55
637.05	381.33
637.39	380.25
637.73	379.17
638.08	378.12
638.42	377.12
638.77	375.99
639.11	374.85
639.45	373.72
639.80	372.55
640.14	371.45
640.49	370.35
640.83	369.24
641.17	368.17
641.52	367.11
641.86	366.10
642.20	365.23
642.55	364.21
642.89	363.21
643.23	362.26
643.58	361.42
643.92	360.43
644.26	359.51
644.61	358.61
644.95	357.69
645.29	356.73
645.64	355.73
645.98	354.81
646.32	353.99
646.66	353.16
647.01	352.32
647.35	351.56
647.69	350.77
648.04	350.05
648.38	349.27
648.72	348.55
649.06	347.79
649.41	346.99
649.75	346.25
650.09	345.54
650.43	344.79
650.78	344.03
651.12	343.29
651.46	342.57
651.80	341.86
652.14	341.20
652.49	340.57
652.83	339.89
653.17	339.20
653.51	338.53
653.85	337.94
654.20	337.30
654.54	336.57
654.88	335.89
655.22	335.25
655.56	334.58
655.90	333.93
656.25	333.28
656.59	332.65
656.93	332.06
657.27	331.51
657.61	330.90
657.95	330.32
658.29	329.75
658.64	329.19
658.98	328.57
659.32	327.99
659.66	327.43
660.00	326.91
660.34	326.41
660.68	325.84
661.02	325.18
661.36	324.60
661.70	324.07
662.05	323.52
662.39	322.99
662.73	322.53
663.07	322.09
663.41	321.63
663.75	321.13
664.09	320.62
664.43	320.00
664.77	319.44
665.11	318.86
665.45	318.32
665.79	317.81
666.13	317.27
666.47	316.72
666.81	316.17
667.15	315.53
667.49	315.03
667.83	314.60
668.17	314.13
668.51	313.71
668.85	313.30
669.19	312.93
669.53	312.40
669.87	311.85
670.21	311.30
670.55	310.80
670.89	310.39
671.23	309.93
671.57	309.51
671.91	309.16
672.25	308.81
672.58	308.47
672.92	308.04
673.26	307.66
673.60	307.26
673.94	306.86
674.28	306.54
674.62	306.15
674.96	305.71
675.30	305.33
675.64	304.88
675.97	304.40
676.31	303.90
676.65	303.46
676.99	303.13
677.33	302.70
677.67	302.28
678.01	301.80
678.34	301.36
678.68	300.96
679.02	300.51
679.36	300.07
679.70	299.58
680.04	299.18
680.37	298.79
680.71	298.41
681.05	298.04
681.39	297.60
681.73	297.12
682.06	296.69
682.40	296.27
682.74	295.89
683.08	295.59
683.42	295.22
683.75	294.86
684.09	294.37
684.43	293.98
684.77	293.56
685.10	293.16
685.44	292.78
685.78	292.36
686.12	291.94
686.45	291.52
686.79	291.10
687.13	290.70
687.46	290.22
687.80	289.78
688.14	289.28
688.48	288.86
688.81	288.44
689.15	288.08
689.49	287.65
689.82	287.22
690.16	286.67
690.50	286.21
690.83	285.79
691.17	285.35
691.51	284.91
691.84	284.54
692.18	284.10
692.52	283.65
692.85	283.22
693.19	282.84
693.52	282.41
693.86	281.97
694.20	281.56
694.53	281.15
694.87	280.70
695.21	280.30
695.54	279.89
695.88	279.46
696.21	278.97
696.55	278.53
696.88	278.08
697.22	277.68
697.56	277.27
697.89	276.79
698.23	276.40
698.56	275.98
698.90	275.56
699.23	275.14
699.57	274.76
699.90	274.34
700.24	273.90
700.58	273.53
700.91	273.19
701.25	272.92
701.58	272.64
701.92	272.33
702.25	271.96
702.59	271.56
702.92	271.19
703.26	270.81
703.59	270.42
703.93	270.21
704.26	269.83
704.60	269.46
704.93	269.11
705.26	268.71
705.60	268.38
705.93	267.97
706.27	267.66
706.60	267.35
706.94	267.05
707.27	266.67
707.61	266.31
707.94	265.90
708.27	265.39
708.61	264.93
708.94	264.53
709.28	264.17
709.61	263.83
709.94	263.48
710.28	263.17
710.61	262.87
710.95	262.37
711.28	262.17
711.61	261.85
711.95	261.56
712.28	261.22
712.61	260.88
712.95	260.67
713.28	260.40
713.61	260.02
713.95	259.65
714.28	259.38
714.61	259.05
714.95	258.74
715.28	258.44
715.61	258.19
715.95	257.93
716.28	257.61
716.61	257.35
716.95	257.07
717.28	256.77
717.61	256.48
717.94	256.21
718.28	255.82
718.61	255.53
718.94	255.23
719.27	254.96
719.61	254.72
719.94	254.41
720.27	254.06
720.60	253.82
720.94	253.57
721.27	253.30
721.60	253.08
721.93	252.82
722.27	252.62
722.60	252.36
722.93	252.09
723.26	251.86
723.59	251.59
723.93	251.38
724.26	251.16
724.59	250.92
724.92	250.71
725.25	250.54
725.59	250.32
725.92	250.12
726.25	249.90
726.58	249.69
726.91	249.45
727.24	249.25
727.57	249.02
727.91	248.78
728.24	248.59
728.57	248.38
728.90	248.21
729.23	247.94
729.56	247.83
729.89	247.64
730.22	247.45
730.55	247.25
730.89	247.04
731.22	246.83
731.55	246.64
731.88	246.47
732.21	246.26
732.54	246.07
732.87	245.90
733.20	245.73
733.53	245.54
733.86	245.40
734.19	245.21
734.52	245.08
734.85	245.05
735.18	244.85
735.51	244.73
735.84	244.58
736.17	244.48
736.50	244.22
736.83	244.24
737.16	244.08
737.49	243.93
737.82	243.76
738.15	243.64
738.48	243.48
738.81	243.29
739.14	243.10
739.47	242.94
739.80	242.79
740.13	242.67
740.46	242.49
740.79	242.30
741.12	242.15
741.45	241.96
741.78	241.72
742.11	241.61
742.44	241.41
742.77	241.29
743.10	241.10
743.43	240.95
743.75	240.62
744.08	240.75
744.41	240.61
744.74	240.46
745.07	240.28
745.40	240.18
745.73	240.14
746.06	240.03
746.39	239.94
746.71	239.79
747.04	239.64
747.37	239.51
747.70	239.42
748.03	239.30
748.36	239.20
748.68	239.09
749.01	238.92
749.34	238.82
749.67	238.69
750.00	238.62
750.33	238.64
750.65	238.54
750.98	238.18
751.31	238.08
751.64	237.99
751.97	237.98
752.29	237.85
752.62	237.67
752.95	237.54
753.28	237.40
753.60	237.29
753.93	237.23
754.26	237.15
754.59	236.98
754.91	236.86
755.24	236.74
755.57	236.64
755.90	236.53
756.22	236.41
756.55	236.26
756.88	236.12
757.20	235.89
757.53	235.75
757.86	235.64
758.19	235.56
758.51	235.45
758.84	235.27
759.17	235.16
759.49	235.06
759.82	235.05
760.15	234.96
760.47	234.88
760.80	234.72
761.13	234.65
761.45	234.59
761.78	234.52
762.11	234.44
762.43	234.32
762.76	234.24
763.08	234.19
763.41	234.14
763.74	234.07
764.06	234.00
764.39	233.93
764.71	233.83
765.04	233.73
765.37	233.65
765.69	233.58
766.02	233.51
766.34	233.42
766.67	233.30
767.00	233.26
767.32	233.29
767.65	233.36
767.97	233.27
768.30	233.20
768.62	233.13
768.95	233.04
769.27	232.98
769.60	232.94
769.92	232.84
770.25	232.74
770.57	232.65
770.90	232.60
771.22	232.53
771.55	232.50
771.87	232.44
772.20	232.41
772.52	232.49
772.85	232.66
773.17	232.60
773.50	232.53
773.82	232.45
774.15	232.30
774.47	232.12
774.80	232.07
775.12	232.02
775.45	231.98
775.77	231.96
776.09	231.92
776.42	231.88
776.74	231.90
777.07	231.86
777.39	231.83
777.72	231.77
778.04	231.73
778.36	231.67
778.69	231.63
779.01	231.58
779.33	231.39
779.66	231.15
779.98	231.12
780.31	231.08
780.63	231.12
780.95	231.13
781.28	231.08
781.60	231.02
781.92	230.99
782.25	230.96
782.57	230.92
782.89	230.88
783.22	230.83
783.54	230.76
783.86	230.74
784.19	230.70
784.51	230.72
784.83	230.68
785.16	230.65
785.48	230.62
785.80	230.60
786.12	230.59
786.45	230.57
786.77	230.57
787.09	230.54
787.42	230.45
787.74	230.43
788.06	230.42
788.38	230.40
788.71	230.35
789.03	230.32
789.35	230.32
789.67	230.29
789.99	230.28
790.32	230.25
790.64	230.24
790.96	230.39
791.28	230.32
791.61	230.29
791.93	230.29
792.25	230.26
792.57	230.35
792.89	230.30
793.21	230.29
793.54	230.22
793.86	230.17
794.18	230.16
794.50	230.10
794.82	230.08
795.14	230.10
795.47	230.11
795.79	230.10
796.11	230.04
796.43	230.01
796.75	229.99
797.07	230.00
797.39	229.96
797.71	229.79
798.04	229.75
798.36	229.75
798.68	229.72
799.00	229.73
799.32	229.62
799.64	229.63
799.96	229.61
800.28	229.64
800.60	229.62
800.92	229.62
801.24	229.58
801.56	229.57
801.89	229.52
802.21	229.52
802.53	229.49
802.85	229.50
803.17	229.57
803.49	229.51
803.81	229.46
804.13	229.42
804.45	229.37
804.77	229.38
805.09	229.34
805.41	229.30
805.73	229.25
806.05	229.17
806.37	229.13
806.69	229.08
807.01	229.04
807.33	229.03
807.65	228.93
807.97	229.00
808.28	228.97
808.60	228.96
808.92	228.90
809.24	228.98
809.56	228.94
809.88	228.85
810.20	228.84
810.52	228.85
810.84	228.82
811.16	228.81
811.48	228.76
811.80	228.82
812.12	228.81
812.43	228.83
812.75	228.83
813.07	228.79
813.39	228.79
813.71	228.75
814.03	228.72
814.35	228.72
814.67	228.62
814.98	228.59
815.30	228.57
815.62	228.53
815.94	228.41
816.26	228.41
816.58	228.36
816.89	228.36
817.21	228.31
817.53	228.33
817.85	228.34
818.17	228.33
818.48	228.24
818.80	228.27
