SpectraSuite Data File
++++++++++++++++++++++++++++++++++++
Date: Wed Oct 07 07:56:43 EDT 2015
User: lab3
Dark Spectrum Present: No
Reference Spectrum Present: No
Number of Sampled Component Spectra: 1
Spectrometers: USB2E7196
Integration Time (usec): 66000 (USB2E7196)
Spectra Averaged: 10000 (USB2E7196)
Boxcar Smoothing: 10 (USB2E7196)
Correct for Electrical Dark: No (USB2E7196)
Strobe/Lamp Enabled: No (USB2E7196)
Correct for Detector Non-linearity: No (USB2E7196)
Correct for Stray Light: No (USB2E7196)
Number of Pixels in Processed Spectrum: 2048
>>>>>Begin Processed Spectral Data<<<<<
339.09	0.00
339.48	212.56
339.86	214.01
340.24	215.45
340.63	216.84
341.01	220.95
341.39	219.57
341.78	221.13
342.16	222.44
342.54	222.64
342.93	211.23
343.31	221.90
343.69	222.44
344.07	222.91
344.46	223.35
344.84	223.76
345.22	223.96
345.60	224.24
345.99	224.45
346.37	224.59
346.75	224.71
347.13	224.80
347.52	224.90
347.90	225.03
348.28	225.08
348.66	225.16
349.05	225.16
349.43	225.24
349.81	225.32
350.19	225.39
350.57	225.47
350.96	225.58
351.34	225.69
351.72	225.80
352.10	225.93
352.48	226.00
352.87	226.05
353.25	226.12
353.63	226.17
354.01	226.23
354.39	226.31
354.77	226.39
355.15	226.52
355.54	226.55
355.92	226.56
356.30	226.63
356.68	226.82
357.06	226.91
357.44	226.94
357.82	226.99
358.20	227.21
358.58	227.27
358.97	227.33
359.35	227.43
359.73	227.52
360.11	227.57
360.49	227.63
360.87	227.68
361.25	227.76
361.63	227.86
362.01	227.92
362.39	227.95
362.77	228.00
363.15	228.02
363.53	228.06
363.91	228.10
364.29	228.12
364.67	227.97
365.05	228.00
365.43	228.04
365.81	228.08
366.19	228.03
366.57	228.11
366.95	228.11
367.33	228.07
367.71	228.07
368.09	228.10
368.47	228.10
368.85	228.09
369.23	228.11
369.61	228.04
369.99	228.08
370.37	228.08
370.75	228.20
371.13	228.17
371.51	228.12
371.89	228.11
372.27	228.09
372.65	228.07
373.03	228.04
373.41	227.99
373.78	227.93
374.16	227.80
374.54	227.70
374.92	227.65
375.30	227.61
375.68	227.53
376.06	227.49
376.44	227.43
376.82	227.40
377.19	227.35
377.57	227.30
377.95	227.20
378.33	227.13
378.71	226.92
379.09	226.88
379.47	226.86
379.84	226.79
380.22	226.72
380.60	226.65
380.98	226.60
381.36	226.55
381.73	226.49
382.11	226.48
382.49	226.45
382.87	226.38
383.25	226.35
383.62	226.53
384.00	226.45
384.38	226.42
384.76	226.42
385.13	226.44
385.51	226.41
385.89	226.35
386.27	226.33
386.64	226.33
387.02	226.29
387.40	226.24
387.78	226.22
388.15	226.21
388.53	226.18
388.91	226.16
389.29	226.13
389.66	226.15
390.04	226.11
390.42	226.12
390.79	226.12
391.17	226.10
391.55	225.89
391.92	225.88
392.30	225.90
392.68	225.86
393.05	225.84
393.43	225.84
393.81	225.87
394.18	225.85
394.56	225.86
394.94	225.92
395.31	225.93
395.69	226.01
396.06	226.06
396.44	226.11
396.82	226.13
397.19	226.27
397.57	226.29
397.95	226.36
398.32	226.36
398.70	226.44
399.07	226.54
399.45	226.61
399.82	226.68
400.20	226.74
400.58	226.84
400.95	226.86
401.33	227.00
401.70	227.23
402.08	227.38
402.45	227.52
402.83	227.70
403.20	227.88
403.58	228.02
403.95	228.23
404.33	228.46
404.71	228.69
405.08	229.01
405.46	229.27
405.83	229.57
406.21	229.87
406.58	230.21
406.96	230.55
407.33	230.95
407.70	231.39
408.08	231.99
408.45	232.52
408.83	233.09
409.20	233.62
409.58	234.10
409.95	234.75
410.33	235.47
410.70	236.14
411.08	236.93
411.45	237.78
411.82	238.63
412.20	239.61
412.57	240.77
412.95	241.69
413.32	242.89
413.69	244.13
414.07	245.44
414.44	246.87
414.82	248.32
415.19	250.02
415.56	251.76
415.94	253.57
416.31	255.59
416.68	257.62
417.06	259.98
417.43	262.18
417.81	264.71
418.18	267.30
418.55	270.12
418.93	273.05
419.30	276.12
419.67	279.37
420.04	282.71
420.42	286.20
420.79	290.23
421.16	294.30
421.54	298.40
421.91	302.71
422.28	307.18
422.66	311.99
423.03	316.57
423.40	321.37
423.77	326.50
424.15	331.76
424.52	337.21
424.89	343.12
425.26	348.97
425.64	354.41
426.01	360.51
426.38	366.75
426.75	373.17
427.13	379.73
427.50	386.60
427.87	393.74
428.24	400.93
428.61	407.82
428.99	415.25
429.36	423.42
429.73	431.23
430.10	439.03
430.47	447.00
430.85	455.25
431.22	464.00
431.59	473.01
431.96	481.81
432.33	491.59
432.70	500.90
433.08	511.92
433.45	522.31
433.82	532.61
434.19	544.14
434.56	555.50
434.93	566.51
435.30	577.44
435.68	589.83
436.05	601.96
436.42	614.14
436.79	625.26
437.16	637.36
437.53	650.26
437.90	663.17
438.27	675.84
438.64	689.59
439.01	702.09
439.38	713.56
439.75	724.64
440.13	737.29
440.50	749.30
440.87	758.94
441.24	769.54
441.61	781.15
441.98	789.78
442.35	800.00
442.72	810.41
443.09	820.34
443.46	826.84
443.83	831.80
444.20	835.94
444.57	841.86
444.94	845.42
445.31	849.12
445.68	852.35
446.05	854.83
446.42	854.67
446.79	854.24
447.16	853.90
447.53	853.64
447.90	850.05
448.27	846.69
448.64	841.27
449.01	837.58
449.37	829.69
449.74	822.51
450.11	813.23
450.48	803.02
450.85	792.75
451.22	783.96
451.59	775.27
451.96	767.41
452.33	756.03
452.70	745.85
453.07	733.54
453.43	721.23
453.80	709.21
454.17	697.66
454.54	687.03
454.91	675.03
455.28	663.68
455.65	652.95
456.02	641.55
456.38	632.39
456.75	620.67
457.12	611.24
457.49	601.73
457.86	592.71
458.23	584.75
458.59	576.01
458.96	567.03
459.33	559.14
459.70	551.11
460.07	544.98
460.43	537.78
460.80	531.06
461.17	525.20
461.54	518.88
461.91	512.94
462.27	506.90
462.64	501.97
463.01	496.38
463.38	490.71
463.74	485.63
464.11	481.09
464.48	476.98
464.85	472.55
465.21	469.16
465.58	465.41
465.95	461.16
466.32	457.79
466.68	454.49
467.05	451.17
467.42	447.94
467.78	444.48
468.15	441.28
468.52	438.93
468.88	435.80
469.25	432.95
469.62	430.69
469.98	428.25
470.35	426.08
470.72	424.09
471.08	422.10
471.45	420.42
471.82	418.54
472.18	416.58
472.55	415.31
472.92	413.72
473.28	412.48
473.65	411.14
474.02	409.84
474.38	408.74
474.75	408.08
475.11	407.18
475.48	406.74
475.85	406.25
476.21	405.95
476.58	405.74
476.94	405.87
477.31	405.87
477.67	405.90
478.04	406.17
478.41	406.56
478.77	407.14
479.14	407.47
479.50	408.24
479.87	409.23
480.23	410.20
480.60	411.10
480.96	412.01
481.33	413.44
481.69	414.84
482.06	416.21
482.42	417.46
482.79	419.04
483.15	420.90
483.52	423.02
483.88	425.03
484.25	427.16
484.61	429.40
484.98	431.83
485.34	434.56
485.71	437.38
486.07	440.44
486.44	443.45
486.80	446.85
487.17	450.31
487.53	454.09
487.90	458.03
488.26	462.35
488.62	466.91
488.99	471.46
489.35	476.24
489.72	481.39
490.08	486.80
490.44	492.32
490.81	498.06
491.17	503.99
491.54	510.35
491.90	516.84
492.26	523.79
492.63	531.09
492.99	538.73
493.36	546.55
493.72	554.73
494.08	563.15
494.45	571.98
494.81	581.22
495.17	590.69
495.54	600.73
495.90	611.19
496.26	621.84
496.63	632.81
496.99	644.17
497.35	656.07
497.72	668.30
498.08	680.84
498.44	693.76
498.80	707.37
499.17	721.27
499.53	735.64
499.89	750.45
500.26	765.52
500.62	780.95
500.98	797.31
501.34	813.69
501.71	830.82
502.07	848.32
502.43	866.27
502.79	884.53
503.16	903.24
503.52	922.19
503.88	941.56
504.24	961.43
504.60	981.55
504.97	1002.30
505.33	1023.60
505.69	1046.01
506.05	1068.64
506.41	1091.30
506.78	1114.12
507.14	1137.44
507.50	1161.30
507.86	1185.53
508.22	1209.99
508.59	1234.31
508.95	1259.69
509.31	1285.66
509.67	1312.29
510.03	1338.95
510.39	1365.42
510.75	1392.00
511.12	1418.85
511.48	1446.12
511.84	1473.32
512.20	1500.85
512.56	1529.52
512.92	1558.04
513.28	1585.82
513.64	1614.08
514.00	1642.71
514.37	1671.63
514.73	1700.66
515.09	1729.00
515.45	1757.53
515.81	1786.43
516.17	1815.08
516.53	1843.03
516.89	1870.63
517.25	1898.49
517.61	1926.16
517.97	1954.50
518.33	1982.35
518.69	2010.16
519.05	2038.23
519.41	2066.45
519.77	2094.90
520.13	2121.76
520.49	2148.47
520.85	2175.69
521.21	2202.22
521.57	2229.09
521.93	2254.75
522.29	2281.17
522.65	2307.39
523.01	2333.37
523.37	2358.51
523.73	2384.44
524.09	2410.03
524.45	2435.51
524.81	2460.37
525.17	2485.07
525.53	2508.71
525.89	2532.88
526.25	2556.77
526.61	2578.88
526.97	2601.03
527.33	2622.76
527.68	2644.53
528.04	2665.90
528.40	2686.19
528.76	2706.40
529.12	2726.06
529.48	2746.57
529.84	2764.30
530.20	2782.24
530.56	2799.57
530.91	2816.89
531.27	2833.47
531.63	2849.21
531.99	2864.40
532.35	2879.41
532.71	2894.06
533.07	2909.29
533.42	2922.44
533.78	2935.63
534.14	2950.01
534.50	2963.27
534.86	2977.20
535.21	2988.56
535.57	2999.88
535.93	3010.65
536.29	3019.87
536.65	3028.82
537.00	3036.53
537.36	3045.30
537.72	3053.29
538.08	3060.87
538.44	3067.03
538.79	3073.13
539.15	3077.99
539.51	3082.11
539.87	3084.86
540.22	3085.80
540.58	3087.04
540.94	3088.82
541.29	3089.73
541.65	3089.09
542.01	3088.06
542.37	3085.22
542.72	3084.26
543.08	3081.43
543.44	3078.78
543.79	3076.02
544.15	3072.49
544.51	3068.65
544.87	3064.01
545.22	3058.29
545.58	3051.96
545.94	3046.20
546.29	3038.96
546.65	3031.72
547.01	3024.63
547.36	3018.23
547.72	3012.01
548.07	3003.95
548.43	2994.75
548.79	2985.07
549.14	2975.71
549.50	2966.51
549.86	2956.48
550.21	2944.54
550.57	2933.98
550.92	2921.86
551.28	2909.72
551.64	2897.94
551.99	2886.03
552.35	2873.64
552.70	2861.21
553.06	2849.36
553.41	2837.00
553.77	2824.20
554.13	2811.51
554.48	2797.75
554.84	2782.56
555.19	2767.77
555.55	2753.09
555.90	2738.95
556.26	2725.13
556.61	2710.21
556.97	2694.06
557.32	2678.32
557.68	2663.04
558.03	2647.32
558.39	2632.41
558.74	2618.35
559.10	2602.44
559.45	2586.39
559.81	2570.93
560.16	2555.02
560.52	2538.81
560.87	2523.01
561.23	2506.70
561.58	2490.98
561.94	2474.91
562.29	2458.47
562.64	2442.26
563.00	2426.02
563.35	2410.04
563.71	2393.54
564.06	2377.28
564.42	2361.57
564.77	2345.98
565.12	2330.06
565.48	2313.70
565.83	2297.40
566.19	2281.02
566.54	2264.76
566.89	2248.17
567.25	2231.72
567.60	2216.21
567.96	2200.14
568.31	2182.42
568.66	2165.37
569.02	2149.06
569.37	2133.30
569.72	2118.08
570.08	2102.48
570.43	2086.17
570.78	2069.60
571.14	2053.07
571.49	2036.44
571.84	2020.02
572.20	2002.35
572.55	1985.38
572.90	1968.64
573.26	1952.17
573.61	1934.99
573.96	1918.36
574.31	1901.58
574.67	1884.38
575.02	1866.74
575.37	1849.11
575.72	1832.42
576.08	1815.69
576.43	1797.91
576.78	1780.46
577.13	1763.26
577.49	1746.21
577.84	1729.77
578.19	1712.90
578.54	1695.93
578.90	1678.88
579.25	1661.61
579.60	1645.73
579.95	1629.51
580.30	1613.27
580.66	1596.69
581.01	1580.25
581.36	1563.81
581.71	1548.28
582.06	1532.88
582.42	1517.34
582.77	1502.13
583.12	1487.16
583.47	1472.30
583.82	1457.60
584.17	1442.28
584.53	1427.12
584.88	1412.30
585.23	1397.30
585.58	1382.71
585.93	1367.96
586.28	1354.28
586.63	1340.53
586.98	1326.21
587.34	1312.35
587.69	1298.32
588.04	1284.56
588.39	1271.06
588.74	1257.28
589.09	1243.58
589.44	1229.52
589.79	1216.17
590.14	1202.84
590.49	1189.52
590.84	1176.41
591.19	1163.73
591.54	1151.24
591.89	1138.38
592.25	1125.82
592.60	1113.14
592.95	1100.61
593.30	1088.57
593.65	1076.18
594.00	1064.12
594.35	1052.99
594.70	1041.14
595.05	1029.92
595.40	1018.59
595.75	1007.12
596.10	996.29
596.45	985.34
596.80	974.96
597.15	964.47
597.50	953.93
597.85	943.85
598.19	933.71
598.54	923.55
598.89	913.87
599.24	904.61
599.59	895.07
599.94	886.26
600.29	877.56
600.64	868.60
600.99	859.54
601.34	850.87
601.69	841.63
602.04	833.37
602.39	825.01
602.74	816.88
603.08	808.86
603.43	800.86
603.78	792.90
604.13	784.91
604.48	776.93
604.83	769.32
605.18	761.64
605.53	754.20
605.87	746.76
606.22	739.44
606.57	732.02
606.92	724.61
607.27	717.21
607.62	709.92
607.96	702.92
608.31	696.48
608.66	689.83
609.01	683.50
609.36	677.13
609.70	670.77
610.05	664.37
610.40	658.17
610.75	651.92
611.10	645.93
611.44	639.93
611.79	634.10
612.14	628.15
612.49	622.28
612.83	616.73
613.18	611.26
613.53	605.79
613.88	600.43
614.22	595.48
614.57	590.45
614.92	585.57
615.27	580.77
615.61	575.84
615.96	571.01
616.31	566.15
616.65	561.45
617.00	556.84
617.35	552.35
617.70	547.88
618.04	543.52
618.39	539.23
618.74	535.25
619.08	531.20
619.43	527.30
619.78	523.37
620.12	519.37
620.47	515.58
620.82	511.89
621.16	508.26
621.51	504.66
621.85	501.06
622.20	497.48
622.55	493.97
622.89	490.48
623.24	487.17
623.59	483.93
623.93	480.76
624.28	477.71
624.62	474.87
624.97	472.07
625.32	469.17
625.66	466.27
626.01	463.31
626.35	460.54
626.70	457.71
627.04	455.08
627.39	452.44
627.73	449.86
628.08	447.31
628.43	444.78
628.77	442.20
629.12	439.71
629.46	437.34
629.81	435.12
630.15	432.81
630.50	430.53
630.84	428.30
631.19	426.11
631.53	424.05
631.88	421.78
632.22	419.60
632.57	417.72
632.91	415.80
633.26	413.96
633.60	412.12
633.95	410.38
634.29	408.51
634.64	406.69
634.98	404.78
635.32	403.06
635.67	401.50
636.01	399.92
636.36	398.40
636.70	396.95
637.05	395.33
637.39	393.89
637.73	392.44
638.08	391.06
638.42	389.72
638.77	388.24
639.11	386.74
639.45	385.29
639.80	383.81
640.14	382.38
640.49	380.97
640.83	379.55
641.17	378.21
641.52	376.88
641.86	375.59
642.20	374.45
642.55	373.13
642.89	371.83
643.23	370.61
643.58	369.52
643.92	368.27
644.26	367.12
644.61	366.01
644.95	364.85
645.29	363.66
645.64	362.43
645.98	361.33
646.32	360.35
646.66	359.30
647.01	358.27
647.35	357.34
647.69	356.37
648.04	355.48
648.38	354.50
648.72	353.59
649.06	352.67
649.41	351.73
649.75	350.85
650.09	349.98
650.43	349.11
650.78	348.17
651.12	347.32
651.46	346.49
651.80	345.66
652.14	344.89
652.49	344.18
652.83	343.40
653.17	342.60
653.51	341.80
653.85	341.14
654.20	340.43
654.54	339.62
654.88	338.86
655.22	338.16
655.56	337.42
655.90	336.74
656.25	336.07
656.59	335.40
656.93	334.76
657.27	334.20
657.61	333.54
657.95	332.96
658.29	332.34
658.64	331.74
658.98	331.08
659.32	330.44
659.66	329.83
660.00	329.27
660.34	328.71
660.68	328.10
661.02	327.43
661.36	326.80
661.70	326.22
662.05	325.66
662.39	325.10
662.73	324.65
663.07	324.22
663.41	323.75
663.75	323.23
664.09	322.72
664.43	322.10
664.77	321.57
665.11	320.99
665.45	320.47
665.79	319.96
666.13	319.45
666.47	318.93
666.81	318.37
667.15	317.77
667.49	317.29
667.83	316.89
668.17	316.43
668.51	316.03
668.85	315.65
669.19	315.31
669.53	314.80
669.87	314.26
670.21	313.71
670.55	313.20
670.89	312.80
671.23	312.33
671.57	311.93
671.91	311.58
672.25	311.26
672.58	310.94
672.92	310.52
673.26	310.18
673.60	309.84
673.94	309.47
674.28	309.15
674.62	308.79
674.96	308.36
675.30	308.01
675.64	307.59
675.97	307.14
676.31	306.66
676.65	306.26
676.99	305.95
677.33	305.52
677.67	305.14
678.01	304.67
678.34	304.28
678.68	303.91
679.02	303.47
679.36	303.03
679.70	302.57
680.04	302.18
680.37	301.76
680.71	301.37
681.05	301.02
681.39	300.62
681.73	300.17
682.06	299.75
682.40	299.36
682.74	299.01
683.08	298.70
683.42	298.32
683.75	297.98
684.09	297.51
684.43	297.14
684.77	296.74
685.10	296.37
685.44	295.96
685.78	295.55
686.12	295.16
686.45	294.74
686.79	294.31
687.13	293.92
687.46	293.48
687.80	293.06
688.14	292.60
688.48	292.18
688.81	291.76
689.15	291.40
689.49	290.96
689.82	290.52
690.16	289.98
690.50	289.54
690.83	289.09
691.17	288.63
691.51	288.19
691.84	287.80
692.18	287.35
692.52	286.89
692.85	286.46
693.19	286.08
693.52	285.66
693.86	285.21
694.20	284.77
694.53	284.35
694.87	283.88
695.21	283.42
695.54	282.97
695.88	282.50
696.21	282.00
696.55	281.56
696.88	281.11
697.22	280.69
697.56	280.27
697.89	279.80
698.23	279.38
698.56	278.93
698.90	278.51
699.23	278.06
699.57	277.65
699.90	277.22
700.24	276.75
700.58	276.34
700.91	275.98
701.25	275.72
701.58	275.40
701.92	275.05
702.25	274.66
702.59	274.25
702.92	273.86
703.26	273.45
703.59	273.03
703.93	272.76
704.26	272.35
704.60	271.93
704.93	271.52
705.26	271.10
705.60	270.74
705.93	270.28
706.27	269.96
706.60	269.61
706.94	269.28
707.27	268.84
707.61	268.44
707.94	268.02
708.27	267.45
708.61	266.97
708.94	266.54
709.28	266.14
709.61	265.75
709.94	265.40
710.28	265.05
710.61	264.71
710.95	264.20
711.28	263.96
711.61	263.60
711.95	263.28
712.28	262.91
712.61	262.52
712.95	262.27
713.28	261.98
713.61	261.58
713.95	261.18
714.28	260.87
714.61	260.50
714.95	260.16
715.28	259.81
715.61	259.49
715.95	259.19
716.28	258.86
716.61	258.57
716.95	258.24
717.28	257.92
717.61	257.59
717.94	257.28
718.28	256.86
718.61	256.55
718.94	256.21
719.27	255.93
719.61	255.66
719.94	255.33
720.27	254.94
720.60	254.66
720.94	254.37
721.27	254.10
721.60	253.86
721.93	253.57
722.27	253.35
722.60	253.07
722.93	252.76
723.26	252.52
723.59	252.21
723.93	251.97
724.26	251.73
724.59	251.47
724.92	251.23
725.25	251.03
725.59	250.78
725.92	250.57
726.25	250.32
726.58	250.07
726.91	249.82
727.24	249.60
727.57	249.35
727.91	249.07
728.24	248.86
728.57	248.61
728.90	248.41
729.23	248.11
729.56	247.98
729.89	247.77
730.22	247.53
730.55	247.32
730.89	247.09
731.22	246.86
731.55	246.65
731.88	246.44
732.21	246.19
732.54	245.97
732.87	245.76
733.20	245.58
733.53	245.39
733.86	245.21
734.19	244.99
734.52	244.83
734.85	244.79
735.18	244.57
735.51	244.44
735.84	244.26
736.17	244.14
736.50	243.86
736.83	243.89
737.16	243.71
737.49	243.55
737.82	243.35
738.15	243.20
738.48	243.02
738.81	242.83
739.14	242.64
739.47	242.46
739.80	242.28
740.13	242.11
740.46	241.91
740.79	241.71
741.12	241.53
741.45	241.32
741.78	241.04
742.11	240.92
742.44	240.70
742.77	240.56
743.10	240.37
743.43	240.20
743.75	239.84
744.08	239.96
744.41	239.79
744.74	239.63
745.07	239.44
745.40	239.33
745.73	239.26
746.06	239.13
746.39	239.02
746.71	238.87
747.04	238.70
747.37	238.56
747.70	238.45
748.03	238.31
748.36	238.21
748.68	238.08
749.01	237.89
749.34	237.77
749.67	237.63
750.00	237.53
750.33	237.54
750.65	237.43
750.98	237.04
751.31	236.92
751.64	236.82
751.97	236.80
752.29	236.65
752.62	236.44
752.95	236.31
753.28	236.16
753.60	236.03
753.93	235.95
754.26	235.86
754.59	235.68
754.91	235.55
755.24	235.42
755.57	235.31
755.90	235.20
756.22	235.06
756.55	234.91
756.88	234.76
757.20	234.52
757.53	234.36
757.86	234.25
758.19	234.16
758.51	234.04
758.84	233.84
759.17	233.72
759.49	233.64
759.82	233.62
760.15	233.55
760.47	233.45
760.80	233.30
761.13	233.22
761.45	233.13
761.78	233.05
762.11	232.96
762.43	232.85
762.76	232.75
763.08	232.69
763.41	232.62
763.74	232.55
764.06	232.46
764.39	232.39
764.71	232.30
765.04	232.20
765.37	232.10
765.69	232.02
766.02	231.94
766.34	231.84
766.67	231.70
767.00	231.66
767.32	231.69
767.65	231.73
767.97	231.64
768.30	231.58
768.62	231.50
768.95	231.41
769.27	231.34
769.60	231.30
769.92	231.20
770.25	231.10
770.57	231.00
770.90	230.93
771.22	230.85
771.55	230.79
771.87	230.75
772.20	230.69
772.52	230.79
772.85	230.95
773.17	230.90
773.50	230.82
773.82	230.73
774.15	230.58
774.47	230.41
774.80	230.33
775.12	230.28
775.45	230.22
775.77	230.18
776.09	230.14
776.42	230.09
776.74	230.10
777.07	230.04
777.39	230.01
777.72	229.95
778.04	229.93
778.36	229.87
778.69	229.82
779.01	229.79
779.33	229.59
779.66	229.34
779.98	229.28
780.31	229.25
780.63	229.29
780.95	229.28
781.28	229.24
781.60	229.19
781.92	229.14
782.25	229.11
782.57	229.07
782.89	229.02
783.22	228.98
783.54	228.90
783.86	228.88
784.19	228.83
784.51	228.85
784.83	228.79
785.16	228.75
785.48	228.71
785.80	228.68
786.12	228.66
786.45	228.63
786.77	228.61
787.09	228.57
787.42	228.46
787.74	228.43
788.06	228.41
788.38	228.38
788.71	228.33
789.03	228.31
789.35	228.30
789.67	228.25
789.99	228.23
790.32	228.18
790.64	228.18
790.96	228.32
791.28	228.23
791.61	228.19
791.93	228.18
792.25	228.14
792.57	228.24
792.89	228.18
793.21	228.17
793.54	228.12
793.86	228.07
794.18	228.06
794.50	228.00
794.82	227.98
795.14	227.98
795.47	227.99
795.79	227.96
796.11	227.90
796.43	227.87
796.75	227.84
797.07	227.83
797.39	227.79
797.71	227.62
798.04	227.61
798.36	227.60
798.68	227.58
799.00	227.57
799.32	227.45
799.64	227.46
799.96	227.43
800.28	227.46
800.60	227.43
800.92	227.42
801.24	227.39
801.56	227.39
801.89	227.35
802.21	227.33
802.53	227.28
802.85	227.30
803.17	227.37
803.49	227.31
803.81	227.28
804.13	227.24
804.45	227.20
804.77	227.20
805.09	227.18
805.41	227.14
805.73	227.09
806.05	227.02
806.37	226.99
806.69	226.96
807.01	226.92
807.33	226.91
807.65	226.83
807.97	226.90
808.28	226.85
808.60	226.83
808.92	226.79
809.24	226.89
809.56	226.84
809.88	226.76
810.20	226.76
810.52	226.78
810.84	226.74
811.16	226.71
811.48	226.68
811.80	226.72
812.12	226.71
812.43	226.73
812.75	226.73
813.07	226.70
813.39	226.70
813.71	226.66
814.03	226.63
814.35	226.62
814.67	226.53
814.98	226.51
815.30	226.50
815.62	226.46
815.94	226.32
816.26	226.33
816.58	226.28
816.89	226.29
817.21	226.22
817.53	226.22
817.85	226.22
818.17	226.21
